Timestamp,Fz,FC3,FCz,FC4,Cz,C3,C4
15:38:15.368864,198125.515625,181416.421875,230708.375,209735.453125,199590.890625,176494.125,686240.9375,200359.4375,0.076904296875,0.977783203125,-0.24951171875,-1.4343260526657104,0.3356933295726776,0.4577636420726776,100.0,163843.0,1.0
15:38:15.368935,198129.359375,181423.671875,230717.578125,209736.359375,199600.1875,176523.265625,686180.625,200357.734375,0.0771484375,0.976318359375,-0.25146484375,-1.4038084745407104,0.4577636420726776,0.4577636420726776,100.0,163844.0,1.0
15:38:15.370807,198132.9375,181424.921875,230715.96875,209732.59375,199596.171875,176516.921875,686105.9375,200354.96875,0.078125,0.9775390625,-0.25048828125,-1.4343260526657104,0.6103515028953552,0.5493163466453552,100.0,163845.0,1.0
15:38:15.389603,198130.703125,181417.765625,230712.390625,209742.796875,199594.375,176492.25,686119.3125,200366.5,0.077392578125,0.979248046875,-0.25244140625,-1.4343260526657104,0.6103515028953552,0.6408690810203552,100.0,163846.0,1.0
15:38:15.389629,198132.21875,181419.8125,230715.609375,209743.0625,199595.640625,176493.40625,686219.0,200363.90625,0.077392578125,0.9794921875,-0.254150390625,-1.4038084745407104,0.5798339247703552,0.7019042372703552,100.0,163847.0,1.0
15:38:15.389637,198131.59375,181423.125,230722.859375,209737.515625,199602.34375,176518.890625,686185.875,200357.734375,0.07568359375,0.978515625,-0.251708984375,-1.4648436307907104,0.4882812201976776,0.7324218153953552,100.0,163848.0,1.0
15:38:15.389642,198132.75,181425.625,230721.421875,209729.46875,199597.953125,176517.71875,686114.0,200351.5625,0.075439453125,0.97998046875,-0.250244140625,-1.5258787870407104,0.5187987685203552,0.7324218153953552,100.0,163849.0,1.0
15:38:15.401456,198132.484375,181419.546875,230720.34375,209741.890625,199597.78125,176494.203125,686102.3125,200366.234375,0.074951171875,0.97900390625,-0.252685546875,-1.6784666776657104,0.5493163466453552,0.7324218153953552,100.0,163850.0,1.0
15:38:15.401522,198130.703125,181415.34375,230718.296875,209739.296875,199593.125,176486.796875,686202.4375,200363.640625,0.073486328125,0.980712890625,-0.25146484375,-1.7395018339157104,0.5493163466453552,0.5493163466453552,100.0,163851.0,1.0
15:38:15.401547,198132.21875,181421.15625,230725.453125,209738.765625,199602.34375,176516.296875,686195.375,200360.953125,0.075927734375,0.978271484375,-0.25146484375,-1.6479490995407104,0.4577636420726776,0.6713866591453552,100.0,163852.0,1.0
15:38:15.401565,198131.140625,181422.234375,230722.578125,209730.265625,199598.40625,176517.71875,686124.0,200350.59375,0.075927734375,0.978271484375,-0.25048828125,-1.7395018339157104,0.3051757514476776,0.8239745497703552,100.0,163853.0,1.0
15:38:15.407202,198132.75,181418.484375,230719.90625,209739.296875,199596.703125,176494.390625,686104.1875,200362.921875,0.07568359375,0.97998046875,-0.25048828125,-1.8310545682907104,0.2746581733226776,0.7934569716453552,100.0,163854.0,1.0
15:38:15.413467,198129.53125,181413.03125,230716.5,209740.28125,199591.703125,176481.15625,686197.8125,200363.8125,0.07470703125,0.9794921875,-0.2529296875,-1.8920897245407104,0.1525878757238388,0.9155272841453552,100.0,163855.0,1.0
15:38:15.421779,198130.875,181418.03125,230723.5625,209738.40625,199597.953125,176506.90625,686216.125,200359.4375,0.07568359375,0.98046875,-0.25244140625,-1.8920897245407104,0.1831054538488388,0.7629393935203552,100.0,163856.0,1.0
15:38:15.421871,198138.203125,181429.03125,230730.0,209737.515625,199603.40625,176523.171875,686140.125,200354.875,0.074951171875,0.979248046875,-0.253662109375,-1.8615721464157104,0.1220703050494194,0.8850097060203552,100.0,163857.0,1.0
15:38:15.423830,198139.546875,181425.8125,230724.375,209743.5,199601.0,176501.546875,686094.4375,200364.4375,0.07470703125,0.977783203125,-0.254150390625,-1.8615721464157104,0.0610351525247097,0.8850097060203552,100.0,163858.0,1.0
15:38:15.423851,198137.40625,181423.21875,230719.8125,209752.0,199598.9375,176491.703125,686172.6875,200370.703125,0.075439453125,0.978759765625,-0.25146484375,-1.9836424589157104,0.1220703050494194,0.9460448622703552,100.0,163859.0,1.0
15:38:15.433371,198137.578125,181427.0625,230722.234375,209751.46875,199602.078125,176513.515625,686209.6875,200364.71875,0.075927734375,0.978759765625,-0.253173828125,-1.9836424589157104,-0.0610351525247097,0.9460448622703552,100.0,163860.0,1.0
15:38:15.437777,198135.796875,181426.34375,230722.671875,209742.96875,199601.625,176520.765625,686141.4375,200355.859375,0.0751953125,0.97705078125,-0.25048828125,-2.044677495956421,-0.0610351525247097,0.9765624403953552,100.0,163861.0,1.0
15:38:15.437849,198134.28125,181423.03125,230716.421875,209739.296875,199595.984375,176501.71875,686086.0,200356.9375,0.074951171875,0.97607421875,-0.251708984375,-2.105712652206421,-0.1525878757238388,0.9765624403953552,100.0,163862.0,1.0
15:38:15.439619,198136.25,181421.78125,230718.828125,209753.078125,199597.6875,176486.609375,686165.6875,200372.046875,0.07568359375,0.977783203125,-0.252685546875,-2.105712652206421,-0.1220703050494194,0.9155272841453552,100.0,163863.0,1.0
15:38:15.446348,198146.609375,181434.578125,230730.09375,209763.171875,199610.390625,176511.640625,686225.75,200380.09375,0.076171875,0.97705078125,-0.25341796875,-2.136230230331421,-0.0915527269244194,0.8850097060203552,100.0,163864.0,1.0
15:38:15.461583,198138.296875,181431.0,230725.0,209747.703125,199607.25,176525.140625,686146.8125,200361.84375,0.07666015625,0.977294921875,-0.25439453125,-2.105712652206421,-0.1525878757238388,0.7629393935203552,100.0,163865.0,1.0
15:38:15.461666,198130.15625,181422.5,230711.40625,209729.46875,199592.6875,176504.21875,686077.625,200346.203125,0.079833984375,0.978759765625,-0.2529296875,-2.136230230331421,-0.1220703050494194,0.6408690810203552,100.0,163866.0,1.0
15:38:15.463469,198135.078125,181422.765625,230715.25,209749.765625,199598.21875,176489.921875,686141.25,200369.09375,0.080322265625,0.9794921875,-0.252197265625,-2.166747808456421,-0.0915527269244194,0.6408690810203552,100.0,163867.0,1.0
15:38:15.466528,198144.921875,181434.9375,230726.25,209756.015625,199608.6875,176508.6875,686225.5,200374.375,0.08056640625,0.98095703125,-0.251708984375,-2.197265386581421,-0.03051757626235485,0.5493163466453552,100.0,163868.0,1.0
15:38:15.466624,198151.078125,181445.65625,230738.328125,209759.515625,199620.671875,176539.546875,686154.25,200373.46875,0.081787109375,0.981201171875,-0.251953125,-2.319335699081421,0.03051757626235485,0.4577636420726776,100.0,163869.0,1.0
15:38:15.469688,198154.578125,181447.359375,230737.78125,209756.734375,199616.828125,176532.65625,686086.1875,200373.921875,0.08154296875,0.978515625,-0.25146484375,-2.227782964706421,0.1525878757238388,0.4882812201976776,100.0,163870.0,1.0
15:38:15.483604,198148.671875,181438.421875,230732.234375,209758.703125,199612.171875,176507.359375,686117.9375,200379.640625,0.0830078125,0.9775390625,-0.250732421875,-2.319335699081421,0.2441406100988388,0.3356933295726776,100.0,163871.0,1.0
15:38:15.486335,198148.578125,181437.25,230729.828125,209759.859375,199610.5625,176508.421875,686221.3125,200374.1875,0.0830078125,0.976318359375,-0.250732421875,-2.197265386581421,0.3662109076976776,0.3051757514476776,100.0,163872.0,1.0
15:38:15.486382,198149.203125,181441.015625,230734.203125,209760.140625,199616.5625,176533.8125,686185.5625,200370.703125,0.0830078125,0.9765625,-0.2509765625,-2.227782964706421,0.4272460639476776,0.2136230319738388,100.0,163873.0,1.0
15:38:15.493336,198147.421875,181439.578125,230728.484375,209749.765625,199609.671875,176527.828125,686121.875,200360.78125,0.080810546875,0.9765625,-0.24951171875,-2.044677495956421,0.4272460639476776,0.3662109076976776,100.0,163874.0,1.0
15:38:15.493433,198152.609375,181439.578125,230730.90625,209765.859375,199614.140625,176510.21875,686112.6875,200379.46875,0.078125,0.97607421875,-0.2490234375,-2.044677495956421,0.4272460639476776,0.5187987685203552,100.0,163875.0,1.0
15:38:15.502789,198166.109375,181452.28125,230742.34375,209781.0625,199625.234375,176518.53125,686214.3125,200392.78125,0.076416015625,0.97509765625,-0.25048828125,-1.9836424589157104,0.4577636420726776,0.7324218153953552,100.0,163876.0,1.0
15:38:15.502834,198175.578125,181465.234375,230757.71875,209787.140625,199642.125,176555.28125,686198.9375,200398.515625,0.070068359375,0.974365234375,-0.2490234375,-1.8615721464157104,0.3356933295726776,0.9460448622703552,100.0,163877.0,1.0
15:38:15.509167,198180.953125,181470.515625,230765.765625,209784.0,199642.65625,176562.96875,686146.5625,200394.578125,0.0654296875,0.97607421875,-0.251953125,-1.6784666776657104,0.1831054538488388,1.0681151151657104,100.0,163878.0,1.0
15:38:15.509261,198187.296875,181470.609375,230770.5,209796.078125,199646.5,176544.71875,686127.4375,200411.390625,0.066650390625,0.97509765625,-0.252685546875,-1.7089842557907104,0.0610351525247097,1.2817381620407104,100.0,163879.0,1.0
15:38:15.511391,198191.859375,181474.09375,230772.03125,209803.5,199648.828125,176540.171875,686204.5,200418.265625,0.06494140625,0.974609375,-0.249755859375,-1.7395018339157104,-0.2136230319738388,1.3122557401657104,100.0,163880.0,1.0
15:38:15.511474,198194.8125,181481.6875,230778.640625,209805.90625,199658.390625,176567.796875,686229.3125,200417.90625,0.063720703125,0.974609375,-0.24951171875,-1.6174315214157104,-0.3051757514476776,1.3427733182907104,100.0,163881.0,1.0
15:38:15.524602,198191.046875,181479.546875,230773.375,209791.34375,199652.765625,176573.96875,686147.4375,200404.140625,0.065185546875,0.973876953125,-0.247802734375,-1.5869139432907104,-0.4882812201976776,1.2817381620407104,100.0,163882.0,1.0
15:38:15.530339,198179.6875,181461.75,230756.5625,209785.078125,199637.03125,176539.8125,686075.5,200399.765625,0.065673828125,0.97412109375,-0.24853515625,-1.4648436307907104,-0.6713866591453552,1.2817381620407104,100.0,163883.0,1.0
15:38:15.530426,198164.046875,181442.96875,230740.46875,209776.859375,199621.5625,176509.859375,686160.5,200391.265625,0.06884765625,0.976806640625,-0.248779296875,-1.5563963651657104,-0.9155272841453552,1.2207030057907104,100.0,163884.0,1.0
15:38:15.530457,198166.640625,181448.15625,230744.40625,209774.96875,199626.390625,176530.15625,686208.6875,200388.140625,0.069580078125,0.978271484375,-0.248046875,-1.4953612089157104,-1.0375975370407104,1.1291502714157104,100.0,163885.0,1.0
15:38:15.532549,198168.703125,181453.890625,230748.953125,209769.875,199629.421875,176549.640625,686135.4375,200381.34375,0.072998046875,0.980224609375,-0.247314453125,-1.3732908964157104,-1.1291502714157104,1.1901854276657104,100.0,163886.0,1.0
15:38:15.536098,198168.25,181450.671875,230742.96875,209768.265625,199623.171875,176529.796875,686068.5,200382.59375,0.076904296875,0.982177734375,-0.24755859375,-1.5258787870407104,-1.2512205839157104,1.1596678495407104,100.0,163887.0,1.0
15:38:15.554510,198167.171875,181446.28125,230741.8125,209777.21875,199620.84375,176509.140625,686150.875,200393.5,0.077392578125,0.98486328125,-0.24560546875,-1.4648436307907104,-1.3732908964157104,1.1291502714157104,100.0,163888.0,1.0
15:38:15.554574,198173.078125,181454.875,230748.953125,209778.640625,199626.65625,176528.359375,686233.75,200389.5625,0.081298828125,0.981689453125,-0.248779296875,-1.6174315214157104,-1.4343260526657104,1.2207030057907104,100.0,163889.0,1.0
15:38:15.554596,198173.53125,181458.53125,230753.15625,209776.3125,199629.421875,176549.203125,686156.1875,200381.875,0.08154296875,0.98046875,-0.247314453125,-1.6174315214157104,-1.4038084745407104,1.2512205839157104,100.0,163890.0,1.0
15:38:15.557729,198170.3125,181454.234375,230746.8125,209769.25,199618.515625,176531.40625,686082.4375,200377.671875,0.083740234375,0.98046875,-0.249755859375,-1.5869139432907104,-1.4038084745407104,1.2207030057907104,100.0,163891.0,1.0
15:38:15.557743,198167.359375,181446.828125,230742.171875,209773.015625,199614.59375,176507.171875,686130.375,200385.8125,0.084716796875,0.979736328125,-0.249267578125,-1.7089842557907104,-1.3122557401657104,1.2207030057907104,100.0,163892.0,1.0
15:38:15.559497,198168.78125,181449.6875,230742.078125,209773.015625,199616.203125,176516.5625,686217.0,200382.421875,0.08544921875,0.978271484375,-0.248046875,-1.7395018339157104,-1.2817381620407104,1.2817381620407104,100.0,163893.0,1.0
15:38:15.567444,198171.296875,181456.921875,230748.515625,209773.453125,199623.703125,176543.921875,686163.5625,200379.734375,0.086669921875,0.978271484375,-0.2509765625,-1.7395018339157104,-1.1291502714157104,1.1901854276657104,100.0,163894.0,1.0
15:38:15.571961,198168.875,181458.796875,230741.71875,209764.609375,199613.96875,176533.640625,686090.25,200370.25,0.0859375,0.97900390625,-0.24951171875,-1.7700194120407104,-1.1291502714157104,1.0986326932907104,100.0,163895.0,1.0
15:38:15.577132,198169.328125,181456.5625,230740.90625,209777.296875,199615.484375,176513.796875,686111.4375,200388.578125,0.0859375,0.978271484375,-0.2490234375,-1.8005369901657104,-1.0986326932907104,1.0375975370407104,100.0,163896.0,1.0
15:38:15.585061,198172.28125,181455.84375,230742.515625,209777.484375,199618.34375,176515.84375,686223.5625,200389.296875,0.085693359375,0.979248046875,-0.248291015625,-1.8005369901657104,-0.8850097060203552,0.8850097060203552,100.0,163897.0,1.0
15:38:15.585080,198172.1875,181458.890625,230748.15625,209774.96875,199626.65625,176542.046875,686183.9375,200384.109375,0.085693359375,0.97802734375,-0.248291015625,-1.8615721464157104,-0.7324218153953552,0.6408690810203552,100.0,163898.0,1.0
15:38:15.595045,198173.96875,181463.0,230747.34375,209768.265625,199624.328125,176545.34375,686100.75,200377.671875,0.087158203125,0.976318359375,-0.24853515625,-1.8005369901657104,-0.6713866591453552,0.6713866591453552,100.0,163899.0,1.0
15:38:15.595072,198175.140625,181458.171875,230745.734375,209780.4375,199624.59375,176523.359375,686096.125,200393.328125,0.08740234375,0.975341796875,-0.248779296875,-1.7700194120407104,-0.6713866591453552,0.6103515028953552,100.0,163900.0,1.0
15:38:15.601353,198171.734375,181453.703125,230741.1875,209777.921875,199619.5,176512.984375,686201.5625,200388.40625,0.0869140625,0.972900390625,-0.249267578125,-1.6479490995407104,-0.5493163466453552,0.5493163466453552,100.0,163901.0,1.0
15:38:15.601384,198172.359375,181458.71875,230746.640625,209775.875,199625.5,176538.203125,686199.5625,200383.21875,0.088623046875,0.97119140625,-0.248291015625,-1.7395018339157104,-0.3967284858226776,0.3356933295726776,100.0,163902.0,1.0
15:38:15.608788,198180.765625,181473.546875,230753.875,209777.84375,199629.96875,176553.578125,686119.75,200382.953125,0.087646484375,0.9716796875,-0.25048828125,-1.7089842557907104,-0.3662109076976776,0.3967284858226776,100.0,163903.0,1.0
15:38:15.608813,198173.703125,181462.46875,230741.453125,209774.34375,199618.796875,176524.515625,686078.4375,200384.203125,0.0869140625,0.970703125,-0.253662109375,-1.7395018339157104,-0.1831054538488388,0.3051757514476776,100.0,163904.0,1.0
15:38:15.611395,198172.453125,181453.53125,230736.890625,209777.65625,199615.125,176508.421875,686170.8125,200386.4375,0.0849609375,0.971435546875,-0.250732421875,-1.5563963651657104,-0.0915527269244194,0.2441406100988388,100.0,163905.0,1.0
15:38:15.611411,198178.171875,181461.3125,230746.09375,209779.984375,199626.203125,176537.3125,686198.75,200386.625,0.085205078125,0.97314453125,-0.25048828125,-1.5258787870407104,0.0915527269244194,0.2441406100988388,100.0,163906.0,1.0
15:38:15.657102,198180.328125,181467.03125,230750.390625,209774.34375,199628.71875,176553.125,686129.0,200380.53125,0.08642578125,0.972900390625,-0.251220703125,-1.4648436307907104,0.2136230319738388,0.1831054538488388,100.0,163907.0,1.0
15:38:15.663232,198177.109375,181460.671875,230744.046875,209771.671875,199622.015625,176531.3125,686076.875,200382.59375,0.084228515625,0.974853515625,-0.25048828125,-1.3732908964157104,0.3051757514476776,-0.03051757626235485,100.0,163908.0,1.0
15:38:15.663260,198173.703125,181453.96875,230741.625,209776.765625,199619.234375,176513.796875,686166.9375,200388.046875,0.08251953125,0.9775390625,-0.25146484375,-1.3427733182907104,0.3967284858226776,0.03051757626235485,100.0,163909.0,1.0
15:38:15.663268,198180.671875,181462.734375,230751.375,209782.21875,199629.78125,176539.453125,686205.3125,200391.796875,0.081298828125,0.97900390625,-0.251220703125,-1.3732908964157104,0.4577636420726776,0.0610351525247097,100.0,163910.0,1.0
15:38:15.666382,198185.0625,181471.859375,230758.171875,209780.4375,199638.109375,176563.859375,686133.6875,200390.015625,0.0830078125,0.980712890625,-0.252685546875,-1.3427733182907104,0.5187987685203552,0.0915527269244194,100.0,163911.0,1.0
15:38:15.666408,198182.5625,181468.09375,230751.546875,209776.859375,199631.03125,176546.25,686075.3125,200390.1875,0.081787109375,0.98095703125,-0.252197265625,-1.2817381620407104,0.5493163466453552,0.0,100.0,163912.0,1.0
15:38:15.668198,198175.140625,181455.84375,230743.859375,209782.21875,199624.25,176520.578125,686158.875,200396.546875,0.08203125,0.9833984375,-0.25244140625,-1.2512205839157104,0.5187987685203552,0.0610351525247097,100.0,163913.0,1.0
15:38:15.670738,198177.453125,181460.234375,230747.0,209781.0625,199628.796875,176535.703125,686234.8125,200393.6875,0.079345703125,0.982177734375,-0.252685546875,-1.3122557401657104,0.4882812201976776,0.0915527269244194,100.0,163914.0,1.0
15:38:15.673268,198177.015625,181463.890625,230751.109375,209775.6875,199633.453125,176558.578125,686159.0625,200385.984375,0.0791015625,0.98193359375,-0.24853515625,-1.2817381620407104,0.4882812201976776,0.0610351525247097,100.0,163915.0,1.0
15:38:15.675697,198176.921875,181463.71875,230745.65625,209767.46875,199627.015625,176545.53125,686087.375,200380.265625,0.077880859375,0.981689453125,-0.247314453125,-1.3122557401657104,0.5187987685203552,-0.03051757626235485,100.0,163916.0,1.0
15:38:15.678314,198175.046875,181462.109375,230745.03125,209782.125,199627.109375,176525.0625,686130.0,200392.96875,0.0751953125,0.98193359375,-0.250732421875,-1.4038084745407104,0.4577636420726776,-0.1220703050494194,100.0,163917.0,1.0
15:38:15.680912,198180.40625,181473.734375,230749.5,209788.203125,199632.46875,176540.96875,686218.5,200392.421875,0.073486328125,0.98095703125,-0.2490234375,-1.4038084745407104,0.4272460639476776,-0.2136230319738388,100.0,163918.0,1.0
15:38:15.683258,198182.28125,181477.671875,230757.625,209785.078125,199642.125,176568.15625,686175.5,200391.53125,0.07080078125,0.982177734375,-0.248291015625,-1.3732908964157104,0.4272460639476776,-0.3662109076976776,100.0,163919.0,1.0
15:38:15.685740,198179.34375,181469.625,230748.875,209772.828125,199631.578125,176552.765625,686107.1875,200385.28125,0.0693359375,0.98095703125,-0.247802734375,-1.5258787870407104,0.4272460639476776,-0.5187987685203552,100.0,163920.0,1.0
15:38:15.688842,198174.234375,181458.71875,230739.75,209775.875,199624.421875,176524.4375,686115.5,200391.359375,0.071533203125,0.979736328125,-0.25,-1.4038084745407104,0.2441406100988388,-0.5187987685203552,100.0,163921.0,1.0
15:38:15.688867,198175.5,181461.65625,230739.578125,209773.28125,199625.140625,176527.46875,686218.4375,200388.859375,0.069091796875,0.981201171875,-0.249755859375,-1.5563963651657104,0.2136230319738388,-0.6103515028953552,100.0,163922.0,1.0
15:38:15.691451,198180.328125,181471.3125,230749.046875,209774.53125,199637.125,176559.828125,686184.125,200389.828125,0.070068359375,0.979248046875,-0.248779296875,-1.5869139432907104,0.1220703050494194,-0.5493163466453552,100.0,163923.0,1.0
15:38:15.691473,198180.5,181473.203125,230746.546875,209764.515625,199633.546875,176559.75,686112.5625,200382.765625,0.06884765625,0.978759765625,-0.249755859375,-1.6479490995407104,-0.0915527269244194,-0.5798339247703552,100.0,163924.0,1.0
15:38:15.693216,198174.421875,181462.5625,230740.015625,209766.84375,199628.453125,176530.515625,686103.875,200389.03125,0.067626953125,0.97802734375,-0.2490234375,-1.5563963651657104,-0.1831054538488388,-0.5493163466453552,100.0,163925.0,1.0
15:38:15.701319,198177.546875,181462.46875,230741.359375,209770.859375,199628.890625,176523.890625,686207.875,200392.875,0.0693359375,0.980224609375,-0.249267578125,-1.5869139432907104,-0.3662109076976776,-0.4577636420726776,100.0,163926.0,1.0
15:38:15.701338,198180.671875,181469.265625,230749.5,209770.859375,199637.65625,176552.328125,686189.625,200391.09375,0.07177734375,0.982666015625,-0.248291015625,-1.6174315214157104,-0.5187987685203552,-0.2746581733226776,100.0,163927.0,1.0
15:38:15.708894,198185.0625,181477.21875,230755.390625,209768.1875,199640.515625,176565.375,686124.3125,200387.0625,0.07421875,0.98095703125,-0.252685546875,-1.7700194120407104,-0.5493163466453552,-0.2441406100988388,100.0,163928.0,1.0
15:38:15.708914,198182.90625,181471.234375,230752.171875,209773.640625,199637.125,176543.109375,686081.75,200397.53125,0.07373046875,0.978271484375,-0.25048828125,-1.7089842557907104,-0.5798339247703552,-0.1220703050494194,100.0,163929.0,1.0
15:38:15.715115,198178.4375,181465.6875,230747.0,209771.3125,199631.578125,176527.109375,686168.125,200394.84375,0.073486328125,0.978759765625,-0.250732421875,-1.8005369901657104,-0.6408690810203552,0.03051757626235485,100.0,163930.0,1.0
15:38:15.715140,198179.78125,181470.328125,230751.90625,209770.59375,199640.25,176551.78125,686210.125,200391.984375,0.0751953125,0.9794921875,-0.248291015625,-1.8310545682907104,-0.7324218153953552,0.2746581733226776,100.0,163931.0,1.0
15:38:15.720714,198184.609375,181476.953125,230758.96875,209772.296875,199644.625,176567.96875,686141.5625,200389.390625,0.077392578125,0.978271484375,-0.249267578125,-1.8920897245407104,-0.7019042372703552,0.2746581733226776,100.0,163932.0,1.0
15:38:15.736630,198183.71875,181473.375,230756.375,209779.265625,199639.71875,176548.296875,686087.375,200393.953125,0.0771484375,0.981201171875,-0.249755859375,-1.9531248807907104,-0.6408690810203552,0.3662109076976776,100.0,163933.0,1.0
15:38:15.736648,198175.3125,181462.28125,230746.640625,209776.140625,199630.140625,176524.15625,686163.0,200393.5,0.0771484375,0.980224609375,-0.250732421875,-1.9531248807907104,-0.5493163466453552,0.4882812201976776,100.0,163934.0,1.0
15:38:15.738836,198175.765625,181463.625,230749.046875,209767.015625,199632.46875,176537.84375,686218.0625,200385.984375,0.079833984375,0.97802734375,-0.247314453125,-1.9226073026657104,-0.4577636420726776,0.7019042372703552,100.0,163935.0,1.0
15:38:15.738859,198178.078125,181468.8125,230754.859375,209762.453125,199637.65625,176558.046875,686146.4375,200379.90625,0.078857421875,0.97705078125,-0.250732421875,-1.9531248807907104,-0.5187987685203552,0.8239745497703552,100.0,163936.0,1.0
15:38:15.740760,198181.21875,181468.28125,230753.078125,209767.015625,199634.34375,176543.203125,686082.4375,200382.953125,0.079345703125,0.977783203125,-0.248291015625,-1.9531248807907104,-0.3967284858226776,0.7629393935203552,100.0,163937.0,1.0
15:38:15.743257,198182.46875,181462.5625,230756.734375,209780.25,199634.796875,176521.390625,686139.75,200397.796875,0.0771484375,0.97900390625,-0.24560546875,-2.014159917831421,-0.2746581733226776,0.8544921278953552,100.0,163938.0,1.0
15:38:15.755106,198184.515625,181466.578125,230762.015625,209774.0,199637.65625,176532.75,686224.3125,200393.234375,0.076904296875,0.978759765625,-0.244384765625,-2.014159917831421,-0.3662109076976776,0.9765624403953552,100.0,163939.0,1.0
15:38:15.755131,198189.0,181473.203125,230770.78125,209774.53125,199647.578125,176560.8125,686156.375,200391.265625,0.0751953125,0.979736328125,-0.244140625,-1.9836424589157104,-0.3051757514476776,0.7934569716453552,100.0,163940.0,1.0
15:38:15.760031,198192.84375,181475.515625,230771.046875,209773.90625,199644.546875,176553.75,686087.8125,200392.421875,0.072509765625,0.97607421875,-0.24853515625,-1.9836424589157104,-0.1831054538488388,0.7934569716453552,100.0,163941.0,1.0
15:38:15.760046,198186.40625,181465.421875,230764.96875,209783.828125,199638.109375,176526.3125,686133.6875,200402.625,0.072998046875,0.973876953125,-0.248291015625,-2.014159917831421,-0.1525878757238388,0.6408690810203552,100.0,163942.0,1.0
15:38:15.762039,198190.15625,181469.171875,230767.5625,209784.8125,199640.6875,176533.90625,686238.625,200401.453125,0.0732421875,0.9755859375,-0.24951171875,-1.9836424589157104,-0.1831054538488388,0.5493163466453552,100.0,163943.0,1.0
15:38:15.770760,198191.5,181473.46875,230772.65625,209782.046875,199648.03125,176560.1875,686184.8125,200397.25,0.07568359375,0.97705078125,-0.2490234375,-1.9836424589157104,-0.1525878757238388,0.6408690810203552,100.0,163944.0,1.0
15:38:15.777569,198189.625,181472.75,230767.203125,209771.40625,199640.78125,176554.921875,686103.25,200388.765625,0.07666015625,0.976806640625,-0.248291015625,-2.014159917831421,-0.1525878757238388,0.6103515028953552,100.0,163945.0,1.0
15:38:15.777592,198183.0,181462.46875,230758.34375,209776.859375,199634.4375,176527.5625,686122.0625,200397.96875,0.074951171875,0.976318359375,-0.248291015625,-1.9836424589157104,-0.1831054538488388,0.4882812201976776,100.0,163946.0,1.0
15:38:15.780129,198181.296875,181460.953125,230754.140625,209777.484375,199632.203125,176524.78125,686225.5625,200397.171875,0.07470703125,0.97607421875,-0.24951171875,-2.014159917831421,-0.1831054538488388,0.5187987685203552,100.0,163947.0,1.0
15:38:15.780167,198186.046875,181470.609375,230764.609375,209779.0,199644.453125,176555.640625,686198.25,200395.828125,0.074951171875,0.97705078125,-0.2509765625,-1.8920897245407104,-0.1525878757238388,0.4577636420726776,100.0,163948.0,1.0
15:38:15.814472,198188.8125,181474.71875,230766.9375,209775.0625,199643.015625,176558.578125,686125.875,200390.546875,0.077392578125,0.976806640625,-0.250732421875,-1.8615721464157104,-0.1831054538488388,0.5187987685203552,100.0,163949.0,1.0
15:38:15.817571,198181.578125,181461.125,230759.328125,209780.15625,199637.46875,176528.359375,686108.8125,200398.59375,0.077880859375,0.977294921875,-0.24951171875,-1.8310545682907104,-0.0915527269244194,0.4577636420726776,100.0,163950.0,1.0
15:38:15.817587,198180.40625,181458.4375,230756.296875,209784.28125,199635.421875,176520.671875,686201.0625,200396.625,0.080322265625,0.975830078125,-0.246337890625,-1.7700194120407104,0.03051757626235485,0.4882812201976776,100.0,163951.0,1.0
15:38:15.821216,198182.828125,181466.484375,230763.625,209784.984375,199645.875,176550.890625,686206.4375,200395.921875,0.080078125,0.9775390625,-0.247314453125,-1.7089842557907104,0.03051757626235485,0.5187987685203552,100.0,163952.0,1.0
15:38:15.821240,198184.25,181473.828125,230765.765625,209777.75,199645.078125,176565.296875,686124.1875,200387.328125,0.080322265625,0.974609375,-0.2509765625,-1.7089842557907104,0.1220703050494194,0.5187987685203552,100.0,163953.0,1.0
15:38:15.821244,198181.9375,181468.28125,230758.4375,209780.609375,199639.171875,176541.78125,686076.0,200394.484375,0.07958984375,0.97607421875,-0.248779296875,-1.6479490995407104,0.3967284858226776,0.5187987685203552,100.0,163954.0,1.0
15:38:15.821247,198179.609375,181463.265625,230754.140625,209785.890625,199635.59375,176525.59375,686169.4375,200399.140625,0.080810546875,0.9765625,-0.252685546875,-1.5563963651657104,0.4272460639476776,0.5798339247703552,100.0,163955.0,1.0
15:38:15.824348,198180.953125,181469.34375,230758.796875,209783.46875,199642.03125,176548.296875,686221.0,200394.21875,0.08056640625,0.974853515625,-0.252197265625,-1.4953612089157104,0.4272460639476776,0.5798339247703552,100.0,163956.0,1.0
15:38:15.824358,198184.703125,181475.078125,230763.359375,209782.125,199644.71875,176564.125,686138.9375,200388.3125,0.079833984375,0.9765625,-0.2529296875,-1.4648436307907104,0.5798339247703552,0.5187987685203552,100.0,163957.0,1.0
15:38:15.824362,198184.34375,181472.5625,230759.328125,209780.703125,199639.890625,176544.90625,686073.125,200390.375,0.0791015625,0.977783203125,-0.252685546875,-1.5258787870407104,0.6713866591453552,0.5798339247703552,100.0,163958.0,1.0
15:38:15.826981,198179.515625,181464.4375,230754.140625,209789.109375,199636.40625,176525.234375,686164.1875,200397.96875,0.076171875,0.97705078125,-0.252685546875,-1.4343260526657104,0.7324218153953552,0.5798339247703552,100.0,163959.0,1.0
15:38:15.829545,198180.765625,181469.171875,230758.078125,209786.234375,199639.265625,176543.828125,686229.3125,200392.421875,0.076171875,0.976806640625,-0.252685546875,-1.4343260526657104,0.7324218153953552,0.5187987685203552,100.0,163960.0,1.0
15:38:15.841571,198180.671875,181472.5625,230761.03125,209781.234375,199641.234375,176564.390625,686147.375,200385.09375,0.072998046875,0.977294921875,-0.248291015625,-1.4038084745407104,0.8239745497703552,0.5187987685203552,100.0,163961.0,1.0
15:38:15.843178,198176.65625,181467.203125,230751.28125,209774.265625,199630.765625,176545.625,686070.5625,200380.984375,0.07177734375,0.97900390625,-0.25,-1.3427733182907104,0.7934569716453552,0.4577636420726776,100.0,163962.0,1.0
15:38:15.845672,198174.0625,181459.96875,230748.78125,209786.234375,199628.453125,176523.71875,686123.5,200394.125,0.07177734375,0.980712890625,-0.249755859375,-1.3732908964157104,0.7324218153953552,0.3967284858226776,100.0,163963.0,1.0
15:38:15.852602,198176.484375,181462.921875,230753.78125,209786.421875,199632.296875,176536.234375,686226.5625,200391.53125,0.071044921875,0.98046875,-0.25244140625,-1.4038084745407104,0.6408690810203552,0.3356933295726776,100.0,163964.0,1.0
15:38:15.852624,198178.890625,181469.625,230760.84375,209784.984375,199640.875,176563.234375,686168.25,200389.03125,0.072265625,0.9814453125,-0.250732421875,-1.4038084745407104,0.6713866591453552,0.3356933295726776,100.0,163965.0,1.0
15:38:15.865185,198174.953125,181465.78125,230749.859375,209773.09375,199630.859375,176550.171875,686086.1875,200379.203125,0.07177734375,0.984130859375,-0.24951171875,-1.3427733182907104,0.6103515028953552,0.3662109076976776,100.0,163966.0,1.0
15:38:15.868195,198170.484375,181455.9375,230743.421875,209782.75,199625.9375,176522.640625,686121.9375,200389.484375,0.070556640625,0.98291015625,-0.248779296875,-1.4343260526657104,0.5493163466453552,0.3662109076976776,100.0,163967.0,1.0
15:38:15.868217,198169.40625,181455.40625,230741.1875,209779.09375,199623.171875,176524.96875,686222.625,200384.109375,0.0703125,0.98193359375,-0.25244140625,-1.4343260526657104,0.5187987685203552,0.3662109076976776,100.0,163968.0,1.0
15:38:15.873868,198167.984375,181457.375,230742.609375,209775.609375,199626.921875,176549.828125,686186.0625,200376.609375,0.07177734375,0.980224609375,-0.2529296875,-1.4343260526657104,0.4577636420726776,0.2441406100988388,100.0,163969.0,1.0
15:38:15.873882,198167.09375,181455.140625,230736.0,209772.109375,199619.0625,176543.734375,686098.375,200366.328125,0.072509765625,0.977783203125,-0.25341796875,-1.4343260526657104,0.3967284858226776,0.2441406100988388,100.0,163970.0,1.0
15:38:15.875692,198165.21875,181448.4375,230732.421875,209786.234375,199616.734375,176518.96875,686117.3125,200379.203125,0.071044921875,0.975341796875,-0.2490234375,-1.4953612089157104,0.3051757514476776,0.2441406100988388,100.0,163971.0,1.0
15:38:15.879498,198169.0625,181451.921875,230736.265625,209790.53125,199619.859375,176519.515625,686217.0,200380.625,0.072509765625,0.974853515625,-0.250732421875,-1.4343260526657104,0.2441406100988388,0.3356933295726776,100.0,163972.0,1.0
15:38:15.887603,198172.0,181457.1875,230745.828125,209790.625,199630.953125,176548.5625,686188.6875,200380.625,0.0732421875,0.974365234375,-0.2548828125,-1.4038084745407104,0.1831054538488388,0.3356933295726776,100.0,163973.0,1.0
15:38:15.887622,198164.671875,181450.046875,230734.75,209775.875,199616.5625,176542.9375,686115.0625,200362.921875,0.072509765625,0.97509765625,-0.2529296875,-1.3427733182907104,0.1220703050494194,0.3967284858226776,100.0,163974.0,1.0
15:38:15.893225,198160.921875,181441.09375,230728.21875,209781.6875,199609.671875,176516.03125,686086.8125,200372.046875,0.072998046875,0.97607421875,-0.253662109375,-1.2512205839157104,0.1220703050494194,0.4577636420726776,100.0,163975.0,1.0
15:38:15.900158,198157.34375,181434.296875,230725.0,209782.671875,199604.75,176501.359375,686179.875,200373.828125,0.074462890625,0.974365234375,-0.2529296875,-1.2817381620407104,0.0610351525247097,0.6408690810203552,100.0,163976.0,1.0
15:38:15.900184,198159.671875,181438.78125,230730.90625,209781.0625,199612.796875,176527.203125,686200.375,200370.25,0.07373046875,0.97265625,-0.251708984375,-1.1901854276657104,-0.03051757626235485,0.6103515028953552,100.0,163977.0,1.0
15:38:15.911380,198163.609375,181444.765625,230733.140625,209774.703125,199613.875,176538.109375,686120.4375,200363.28125,0.07470703125,0.9736328125,-0.25,-1.2207030057907104,-0.0610351525247097,0.7324218153953552,100.0,163978.0,1.0
15:38:15.911424,198168.875,181445.921875,230734.46875,209784.1875,199617.453125,176522.734375,686086.625,200378.21875,0.072998046875,0.974365234375,-0.25048828125,-1.1901854276657104,-0.1220703050494194,0.6408690810203552,100.0,163979.0,1.0
15:38:15.912954,198164.3125,181438.859375,230728.21875,209786.515625,199612.171875,176504.21875,686185.4375,200380.359375,0.074462890625,0.97705078125,-0.25,-1.2512205839157104,-0.0915527269244194,0.6713866591453552,100.0,163980.0,1.0
15:38:15.918361,198167.984375,181445.921875,230733.3125,209788.65625,199620.125,176528.8125,686214.75,200378.578125,0.071044921875,0.979248046875,-0.25,-1.3122557401657104,-0.1220703050494194,0.8544921278953552,100.0,163981.0,1.0
15:38:15.922723,198169.328125,181452.28125,230738.234375,209783.921875,199623.4375,176548.390625,686144.3125,200371.15625,0.068115234375,0.97998046875,-0.25,-1.2512205839157104,-0.2136230319738388,0.8239745497703552,100.0,163982.0,1.0
15:38:15.922747,198165.65625,181446.640625,230730.90625,209780.34375,199615.75,176528.546875,686083.3125,200370.34375,0.068359375,0.98291015625,-0.251220703125,-1.3427733182907104,-0.2441406100988388,0.7019042372703552,100.0,163983.0,1.0
15:38:15.932189,198161.359375,181436.984375,230724.90625,209785.265625,199610.390625,176506.28125,686171.4375,200378.125,0.069580078125,0.984375,-0.25146484375,-1.4343260526657104,-0.3356933295726776,0.7324218153953552,100.0,163984.0,1.0
15:38:15.941458,198165.484375,181443.78125,230730.1875,209784.1875,199616.109375,176523.0,686243.375,200375.984375,0.070556640625,0.982666015625,-0.25390625,-1.5563963651657104,-0.3662109076976776,0.7629393935203552,100.0,163985.0,1.0
15:38:15.941547,198165.21875,181445.5625,230735.1875,209780.4375,199618.609375,176541.59375,686163.4375,200369.625,0.071533203125,0.98193359375,-0.255615234375,-1.6174315214157104,-0.4577636420726776,0.8239745497703552,100.0,163986.0,1.0
15:38:15.943956,198161.1875,181436.984375,230726.96875,209776.578125,199607.25,176521.390625,686087.625,200366.5,0.071044921875,0.981201171875,-0.2529296875,-1.7089842557907104,-0.6103515028953552,0.7629393935203552,100.0,163987.0,1.0
15:38:15.944033,198158.859375,181428.140625,230723.921875,209787.84375,199603.59375,176495.90625,686148.875,200380.453125,0.072265625,0.9833984375,-0.251708984375,-1.7700194120407104,-0.6713866591453552,0.8239745497703552,100.0,163988.0,1.0
15:38:15.945983,198161.546875,181432.15625,230726.421875,209784.359375,199604.125,176505.203125,686223.625,200373.75,0.0732421875,0.981201171875,-0.251220703125,-1.8920897245407104,-0.6713866591453552,0.7324218153953552,100.0,163989.0,1.0
15:38:15.957155,198165.921875,181440.109375,230736.71875,209784.0,199614.59375,176532.5625,686157.8125,200371.59375,0.07421875,0.979248046875,-0.252685546875,-1.9226073026657104,-0.7629393935203552,0.7629393935203552,100.0,163990.0,1.0
15:38:15.960288,198171.015625,181444.140625,230736.53125,209779.453125,199612.984375,176528.28125,686093.1875,200372.140625,0.07421875,0.97998046875,-0.25048828125,-1.9836424589157104,-0.7019042372703552,0.7324218153953552,100.0,163991.0,1.0
15:38:15.960378,198167.359375,181435.5625,230731.96875,209783.734375,199610.65625,176503.953125,686125.0,200383.484375,0.074951171875,0.9794921875,-0.25146484375,-2.014159917831421,-0.6713866591453552,0.8239745497703552,100.0,163992.0,1.0
15:38:15.964890,198161.1875,181429.203125,230724.8125,209774.0,199602.875,176498.234375,686216.75,200372.84375,0.07568359375,0.980224609375,-0.250732421875,-2.105712652206421,-0.7934569716453552,0.8850097060203552,100.0,163993.0,1.0
15:38:15.979038,198164.671875,181435.375,230733.3125,209775.515625,199613.78125,176526.390625,686165.0625,200373.65625,0.0751953125,0.97998046875,-0.25146484375,-2.227782964706421,-0.7629393935203552,0.8850097060203552,100.0,163994.0,1.0
15:38:16.009528,198162.96875,181434.578125,230727.140625,209768.0,199607.25,176522.28125,686098.4375,200364.71875,0.076904296875,0.980224609375,-0.248779296875,-2.258300542831421,-0.6713866591453552,0.8239745497703552,100.0,163995.0,1.0
15:38:16.029503,198159.046875,181425.625,230721.515625,209776.3125,199602.34375,176495.015625,686103.5625,200375.703125,0.077880859375,0.97998046875,-0.252685546875,-2.349853277206421,-0.6713866591453552,0.7629393935203552,100.0,163996.0,1.0
15:38:16.042003,198157.875,181422.140625,230721.15625,209773.453125,199598.578125,176487.5,686199.75,200373.390625,0.077880859375,0.979736328125,-0.250732421875,-2.319335699081421,-0.6103515028953552,0.7324218153953552,100.0,163997.0,1.0
15:38:16.044520,198164.140625,181434.484375,230735.453125,209778.1875,199613.96875,176522.734375,686178.125,200377.765625,0.07763671875,0.98095703125,-0.2490234375,-2.471923589706421,-0.6408690810203552,0.7019042372703552,100.0,163998.0,1.0
15:38:16.047099,198165.03125,181437.875,230733.40625,209770.5,199610.75,176527.203125,686105.4375,200369.71875,0.07763671875,0.979736328125,-0.251220703125,-2.441406011581421,-0.6713866591453552,0.7019042372703552,100.0,163999.0,1.0
15:38:16.049626,198162.796875,181427.421875,230727.765625,209775.875,199606.09375,176500.015625,686081.375,200378.296875,0.078857421875,0.97998046875,-0.24951171875,-2.532958745956421,-0.6408690810203552,0.7934569716453552,100.0,164000.0,1.0
15:38:16.051979,198157.078125,181421.34375,230720.890625,209772.203125,199599.484375,176486.96875,686187.75,200375.265625,0.0791015625,0.98046875,-0.25048828125,-2.624511480331421,-0.5187987685203552,0.8239745497703552,100.0,164001.0,1.0
15:38:16.054527,198160.828125,181428.578125,230730.984375,209772.46875,199609.046875,176514.953125,686211.625,200374.546875,0.078369140625,0.98095703125,-0.249755859375,-2.685546636581421,-0.6408690810203552,0.8850097060203552,100.0,164002.0,1.0
15:38:16.057048,198167.359375,181438.5,230739.125,209770.953125,199615.484375,176531.9375,686130.1875,200371.15625,0.078125,0.981201171875,-0.2490234375,-2.655029058456421,-0.6103515028953552,0.9460448622703552,100.0,164003.0,1.0
15:38:16.059485,198164.859375,181434.125,230733.21875,209770.5,199609.765625,176511.203125,686080.375,200375.890625,0.078369140625,0.97998046875,-0.24853515625,-2.685546636581421,-0.5798339247703552,0.7934569716453552,100.0,164004.0,1.0
15:38:16.062000,198160.296875,181426.703125,230727.859375,209772.828125,199604.03125,176493.3125,686170.8125,200378.921875,0.078857421875,0.98291015625,-0.247802734375,-2.838134527206421,-0.5187987685203552,0.7934569716453552,100.0,164005.0,1.0
15:38:16.064589,198164.765625,181432.96875,230734.03125,209774.34375,199611.453125,176514.234375,686225.5,200377.859375,0.08056640625,0.98095703125,-0.246826171875,-2.746581792831421,-0.4577636420726776,0.7934569716453552,100.0,164006.0,1.0
15:38:16.067689,198168.609375,181440.109375,230740.734375,209770.140625,199617.359375,176534.0,686151.125,200372.40625,0.079345703125,0.980712890625,-0.247314453125,-2.777099370956421,-0.4272460639476776,0.7629393935203552,100.0,164007.0,1.0
15:38:16.072056,198166.640625,181434.84375,230734.203125,209764.875,199610.5625,176513.96875,686077.5,200372.484375,0.07763671875,0.98291015625,-0.24853515625,-2.807616949081421,-0.2441406100988388,0.8239745497703552,100.0,164008.0,1.0
15:38:16.074812,198163.515625,181425.984375,230728.84375,209774.53125,199607.703125,176492.421875,686150.3125,200384.03125,0.078857421875,0.983154296875,-0.246826171875,-2.777099370956421,-0.2136230319738388,0.6713866591453552,100.0,164009.0,1.0
15:38:16.077027,198162.96875,181426.703125,230729.375,209772.390625,199610.75,176506.015625,686234.0,200381.96875,0.07958984375,0.98095703125,-0.2451171875,-2.685546636581421,-0.2441406100988388,0.7019042372703552,100.0,164010.0,1.0
15:38:16.079672,198160.828125,181429.203125,230732.6875,209768.265625,199614.3125,176525.5,686163.0625,200375.890625,0.0791015625,0.979736328125,-0.246337890625,-2.746581792831421,-0.1525878757238388,0.7629393935203552,100.0,164011.0,1.0
15:38:16.082045,198163.0625,181428.765625,230726.875,209766.03125,199609.578125,176512.453125,686089.0,200376.0625,0.07958984375,0.980224609375,-0.250732421875,-2.807616949081421,-0.1525878757238388,0.7019042372703552,100.0,164012.0,1.0
15:38:16.084489,198158.78125,181418.484375,230719.71875,209772.03125,199605.5625,176485.8125,686125.1875,200384.828125,0.079833984375,0.98046875,-0.24755859375,-2.807616949081421,-0.1220703050494194,0.6103515028953552,100.0,164013.0,1.0
15:38:16.087062,198160.109375,181423.671875,230720.34375,209768.984375,199606.453125,176496.453125,686216.125,200381.4375,0.078125,0.97900390625,-0.248291015625,-2.868652105331421,0.0610351525247097,0.6713866591453552,100.0,164014.0,1.0
15:38:16.092291,198167.984375,181437.4375,230732.953125,209773.28125,199619.78125,176532.65625,686152.5625,200384.296875,0.077880859375,0.979736328125,-0.24658203125,-2.746581792831421,-0.0915527269244194,0.6408690810203552,100.0,164015.0,1.0
15:38:16.095731,198166.640625,181435.109375,230727.59375,209763.265625,199612.078125,176522.375,686076.625,200375.890625,0.07568359375,0.977294921875,-0.24560546875,-2.716064214706421,-0.0915527269244194,0.6408690810203552,100.0,164016.0,1.0
15:38:16.095809,198161.359375,181424.828125,230723.84375,209771.125,199608.0625,176494.125,686098.125,200386.171875,0.075927734375,0.97705078125,-0.244140625,-2.655029058456421,-0.03051757626235485,0.6408690810203552,100.0,164017.0,1.0
15:38:16.095841,198161.28125,181427.421875,230723.296875,209769.703125,199605.921875,176496.171875,686203.3125,200381.875,0.0751953125,0.9775390625,-0.24755859375,-2.593993902206421,-0.0610351525247097,0.5493163466453552,100.0,164018.0,1.0
15:38:16.099556,198163.0625,181434.296875,230730.8125,209770.5,199615.03125,176525.765625,686167.625,200380.1875,0.0751953125,0.979248046875,-0.24755859375,-2.593993902206421,-0.03051757626235485,0.5798339247703552,100.0,164019.0,1.0
15:38:16.099623,198168.515625,181441.09375,230733.84375,209769.703125,199615.484375,176529.703125,686086.75,200379.546875,0.07568359375,0.9775390625,-0.24658203125,-2.502441167831421,-0.0610351525247097,0.5798339247703552,100.0,164020.0,1.0
15:38:16.099652,198158.6875,181424.46875,230720.796875,209772.109375,199605.921875,176496.625,686090.0625,200383.75,0.075439453125,0.980224609375,-0.244140625,-2.563476324081421,-0.1220703050494194,0.6103515028953552,100.0,164021.0,1.0
15:38:16.102608,198159.9375,181425.359375,230721.15625,209772.296875,199605.296875,176490.640625,686201.6875,200384.375,0.075439453125,0.9794921875,-0.2431640625,-2.532958745956421,-0.1525878757238388,0.6713866591453552,100.0,164022.0,1.0
15:38:16.102782,198166.015625,181439.046875,230733.84375,209773.546875,199618.609375,176524.609375,686191.1875,200386.171875,0.07666015625,0.9794921875,-0.243896484375,-2.410888433456421,-0.2136230319738388,0.6713866591453552,100.0,164023.0,1.0
15:38:16.105133,198167.796875,181443.328125,230735.109375,209769.25,199617.09375,176532.75,686112.6875,200380.09375,0.076171875,0.977783203125,-0.24755859375,-2.441406011581421,-0.1220703050494194,0.7629393935203552,100.0,164024.0,1.0
15:38:16.105203,198163.25,181434.390625,230728.671875,209777.5625,199611.640625,176507.984375,686086.625,200387.6875,0.075439453125,0.97802734375,-0.244384765625,-2.410888433456421,-0.3051757514476776,0.7934569716453552,100.0,164025.0,1.0
15:38:16.107047,198157.4375,181424.734375,230723.125,209776.3125,199606.09375,176491.96875,686181.4375,200385.984375,0.0751953125,0.977783203125,-0.24365234375,-2.349853277206421,-0.1831054538488388,0.7934569716453552,100.0,164026.0,1.0
15:38:16.110581,198158.234375,181430.28125,230728.9375,209773.453125,199612.984375,176517.546875,686202.0,200383.484375,0.076171875,0.978515625,-0.24365234375,-2.410888433456421,-0.1831054538488388,0.6713866591453552,100.0,164027.0,1.0
15:38:16.112139,198160.828125,181436.265625,230730.453125,209766.921875,199613.78125,176532.5625,686125.0,200375.703125,0.0771484375,0.97900390625,-0.244873046875,-2.319335699081421,-0.2746581733226776,0.7324218153953552,100.0,164028.0,1.0
15:38:16.117072,198159.9375,181433.140625,230724.640625,209766.484375,199607.25,176511.734375,686069.0625,200380.1875,0.076171875,0.9794921875,-0.244384765625,-2.319335699081421,-0.3051757514476776,0.7934569716453552,100.0,164029.0,1.0
15:38:16.120106,198157.875,181427.59375,230721.328125,209769.4375,199603.40625,176493.859375,686144.75,200382.59375,0.076171875,0.979248046875,-0.24609375,-2.288818120956421,-0.3356933295726776,0.7324218153953552,100.0,164030.0,1.0
15:38:16.120182,198163.25,181434.65625,230731.53125,209770.140625,199612.53125,176516.03125,686213.875,200382.140625,0.076904296875,0.98291015625,-0.246337890625,-2.197265386581421,-0.3356933295726776,0.8544921278953552,100.0,164031.0,1.0
15:38:16.124454,198163.78125,181438.234375,230733.3125,209763.4375,199615.125,176534.53125,686139.375,200374.546875,0.074462890625,0.980224609375,-0.24169921875,-2.166747808456421,-0.4882812201976776,0.8850097060203552,100.0,164032.0,1.0
15:38:16.127040,198162.0,181433.046875,230724.8125,209758.25,199608.15625,176516.390625,686070.1875,200373.921875,0.0751953125,0.978271484375,-0.24462890625,-2.197265386581421,-0.4577636420726776,0.8850097060203552,100.0,164033.0,1.0
15:38:16.130040,198161.8125,181428.578125,230724.28125,209769.875,199610.296875,176499.03125,686142.375,200388.140625,0.075927734375,0.978271484375,-0.244384765625,-2.105712652206421,-0.5798339247703552,0.7934569716453552,100.0,164034.0,1.0
15:38:16.130056,198164.578125,181433.140625,230727.953125,209767.46875,199615.03125,176511.828125,686211.625,200385.546875,0.074951171875,0.979248046875,-0.24658203125,-1.9531248807907104,-0.4882812201976776,0.7934569716453552,100.0,164035.0,1.0
15:38:16.132041,198165.921875,181436.1875,230732.328125,209766.578125,199618.171875,176532.5625,686147.5625,200378.296875,0.0751953125,0.98095703125,-0.243408203125,-2.014159917831421,-0.5493163466453552,0.9460448622703552,100.0,164036.0,1.0
15:38:16.147566,198169.0625,181437.4375,230728.484375,209765.859375,199612.984375,176522.109375,686078.0,200377.9375,0.076171875,0.9794921875,-0.244384765625,-1.9531248807907104,-0.6103515028953552,0.8544921278953552,100.0,164037.0,1.0
15:38:16.147607,198169.859375,181433.40625,230727.328125,209779.359375,199613.609375,176500.640625,686124.8125,200392.515625,0.074951171875,0.978515625,-0.244873046875,-2.014159917831421,-0.6408690810203552,0.7934569716453552,100.0,164038.0,1.0
15:38:16.149588,198175.40625,181440.5625,230731.796875,209783.921875,199618.4375,176511.828125,686214.125,200391.796875,0.074462890625,0.97607421875,-0.24267578125,-1.9531248807907104,-0.7629393935203552,0.8544921278953552,100.0,164039.0,1.0
15:38:16.156299,198176.65625,181446.015625,230739.9375,209783.109375,199627.546875,176539.546875,686146.5625,200388.40625,0.07470703125,0.9755859375,-0.24365234375,-1.8615721464157104,-0.6103515028953552,0.9155272841453552,100.0,164040.0,1.0
15:38:16.156336,198175.765625,181445.125,230734.03125,209774.796875,199619.234375,176532.03125,686083.875,200380.625,0.076416015625,0.97509765625,-0.245361328125,-1.8615721464157104,-0.4577636420726776,0.9155272841453552,100.0,164041.0,1.0
15:38:16.166788,198172.90625,181435.375,230729.640625,209784.90625,199614.40625,176504.9375,686102.375,200391.796875,0.076416015625,0.97802734375,-0.24609375,-1.7395018339157104,-0.5187987685203552,0.7934569716453552,100.0,164042.0,1.0
15:38:16.166803,198174.515625,181437.703125,230731.078125,209784.1875,199613.6875,176505.296875,686204.25,200388.578125,0.077880859375,0.9765625,-0.24365234375,-1.7395018339157104,-0.5187987685203552,0.8239745497703552,100.0,164043.0,1.0
15:38:16.173457,198179.15625,181447.71875,230739.84375,209784.453125,199624.78125,176538.015625,686178.0,200387.515625,0.07763671875,0.97705078125,-0.2490234375,-1.7089842557907104,-0.4882812201976776,0.7324218153953552,100.0,164044.0,1.0
15:38:16.173493,198182.375,181452.546875,230740.109375,209776.578125,199623.265625,176541.0625,686101.6875,200379.109375,0.075927734375,0.97705078125,-0.24755859375,-1.6784666776657104,-0.5798339247703552,0.8544921278953552,100.0,164045.0,1.0
15:38:16.175076,198178.265625,181443.421875,230734.03125,209784.0,199617.71875,176514.234375,686086.75,200388.859375,0.077392578125,0.978759765625,-0.242919921875,-1.7089842557907104,-0.5493163466453552,0.9460448622703552,100.0,164046.0,1.0
15:38:16.175110,198176.03125,181441.09375,230729.828125,209786.875,199614.765625,176506.640625,686189.9375,200389.5625,0.07861328125,0.978271484375,-0.24365234375,-1.6784666776657104,-0.5187987685203552,0.9155272841453552,100.0,164047.0,1.0
15:38:16.180735,198177.375,181446.46875,230737.6875,209789.375,199625.3125,176535.0625,686203.875,200389.5625,0.078857421875,0.978271484375,-0.24462890625,-1.7089842557907104,-0.4882812201976776,0.9765624403953552,100.0,164048.0,1.0
15:38:16.193203,198178.625,181449.5,230739.21875,209784.453125,199623.890625,176543.5625,686123.375,200380.984375,0.07958984375,0.97802734375,-0.24609375,-1.7089842557907104,-0.4577636420726776,0.9765624403953552,100.0,164049.0,1.0
15:38:16.196343,198175.3125,181440.03125,230730.90625,209788.03125,199615.65625,176515.578125,686088.5,200387.6875,0.07958984375,0.977783203125,-0.246826171875,-1.6784666776657104,-0.4272460639476776,0.9460448622703552,100.0,164050.0,1.0
15:38:16.196363,198177.109375,181438.421875,230730.546875,209794.015625,199613.96875,176501.984375,686183.75,200393.046875,0.080078125,0.97998046875,-0.247314453125,-1.6174315214157104,-0.4577636420726776,0.9765624403953552,100.0,164051.0,1.0
15:38:16.198273,198183.8125,181451.46875,230741.8125,209797.15625,199628.359375,176534.4375,686198.6875,200397.34375,0.078369140625,0.980712890625,-0.246337890625,-1.6174315214157104,-0.3356933295726776,1.0986326932907104,100.0,164052.0,1.0
15:38:16.202026,198183.359375,181454.421875,230743.421875,209791.515625,199629.78125,176548.125,686125.625,200390.46875,0.07763671875,0.97802734375,-0.24560546875,-1.5563963651657104,-0.3967284858226776,1.0070799589157104,100.0,164053.0,1.0
15:38:16.212564,198178.71875,181445.84375,230734.03125,209786.234375,199622.1875,176524.875,686077.375,200389.75,0.077880859375,0.97900390625,-0.24462890625,-1.5563963651657104,-0.3356933295726776,0.9460448622703552,100.0,164054.0,1.0
15:38:16.212591,198179.6875,181446.828125,230733.5,209794.109375,199622.359375,176510.484375,686165.3125,200398.859375,0.079833984375,0.978271484375,-0.246826171875,-1.5563963651657104,-0.2136230319738388,0.9155272841453552,100.0,164055.0,1.0
15:38:16.215081,198184.515625,181458.4375,230740.015625,209794.5625,199630.859375,176536.140625,686210.375,200397.53125,0.077392578125,0.97900390625,-0.24755859375,-1.5563963651657104,-0.1831054538488388,0.9460448622703552,100.0,164056.0,1.0
15:38:16.215100,198180.765625,181458.265625,230738.859375,209786.953125,199631.578125,176552.59375,686140.8125,200390.015625,0.080322265625,0.981201171875,-0.24609375,-1.5563963651657104,-0.2136230319738388,0.9765624403953552,100.0,164057.0,1.0
15:38:16.223274,198180.234375,181456.296875,230733.40625,209784.984375,199624.6875,176537.9375,686072.0625,200392.875,0.07763671875,0.9814453125,-0.24658203125,-1.5258787870407104,-0.0915527269244194,0.9765624403953552,100.0,164058.0,1.0
15:38:16.229868,198172.359375,181444.578125,230726.703125,209789.8125,199619.328125,176512.09375,686140.3125,200400.203125,0.078857421875,0.9814453125,-0.24560546875,-1.6174315214157104,-0.1831054538488388,0.8239745497703552,100.0,164059.0,1.0
15:38:16.235139,198173.078125,181447.359375,230730.1875,209787.84375,199622.453125,176523.09375,686211.0,200396.0,0.079833984375,0.98046875,-0.24462890625,-1.6174315214157104,-0.1220703050494194,0.8850097060203552,100.0,164060.0,1.0
15:38:16.236956,198176.296875,181455.84375,230740.640625,209788.203125,199632.921875,176552.59375,686145.75,200394.65625,0.077880859375,0.97998046875,-0.244873046875,-1.6479490995407104,-0.1525878757238388,0.9460448622703552,100.0,164061.0,1.0
15:38:16.239434,198177.453125,181454.421875,230738.234375,209785.078125,199627.109375,176539.984375,686079.9375,200392.15625,0.079833984375,0.981201171875,-0.244873046875,-1.7395018339157104,-0.1831054538488388,1.0070799589157104,100.0,164062.0,1.0
15:38:16.243221,198173.34375,181443.515625,230732.6875,209793.296875,199620.9375,176512.8125,686114.4375,200399.84375,0.0791015625,0.98291015625,-0.245849609375,-1.7395018339157104,-0.1525878757238388,1.0070799589157104,100.0,164063.0,1.0
15:38:16.253803,198175.140625,181448.703125,230732.421875,209791.0625,199621.828125,176520.3125,686214.3125,200396.1875,0.076416015625,0.97900390625,-0.24169921875,-1.7089842557907104,-0.0915527269244194,0.8544921278953552,100.0,164064.0,1.0
15:38:16.253823,198179.25,181455.40625,230742.25,209789.109375,199631.125,176549.828125,686162.3125,200394.3125,0.078369140625,0.98046875,-0.244873046875,-1.7395018339157104,-0.0915527269244194,0.8850097060203552,100.0,164065.0,1.0
15:38:16.259044,198178.625,181453.171875,230736.71875,209777.921875,199622.71875,176542.9375,686087.1875,200385.28125,0.07666015625,0.979736328125,-0.24853515625,-1.7700194120407104,-0.0610351525247097,0.8239745497703552,100.0,164066.0,1.0
15:38:16.259080,198183.625,181454.0625,230740.375,209794.015625,199626.203125,176523.984375,686109.5625,200404.765625,0.077392578125,0.978515625,-0.2470703125,-1.8005369901657104,0.0610351525247097,0.7629393935203552,100.0,164067.0,1.0
15:38:16.260722,198179.15625,181451.5625,230734.65625,209789.8125,199621.734375,176518.625,686199.1875,200399.9375,0.0771484375,0.97900390625,-0.24658203125,-1.7395018339157104,0.1220703050494194,0.7934569716453552,100.0,164068.0,1.0
15:38:16.277444,198177.1875,181454.234375,230739.125,209785.703125,199627.109375,176546.421875,686178.5,200394.3125,0.07861328125,0.980712890625,-0.24755859375,-1.7700194120407104,0.1220703050494194,0.8239745497703552,100.0,164069.0,1.0
15:38:16.277535,198176.296875,181454.515625,230735.015625,209774.171875,199621.296875,176546.875,686109.8125,200384.375,0.0791015625,0.978759765625,-0.246337890625,-1.7395018339157104,0.0915527269244194,0.7629393935203552,100.0,164070.0,1.0
15:38:16.277565,198170.84375,181443.515625,230726.421875,209781.0625,199616.640625,176520.234375,686094.6875,200395.375,0.0791015625,0.97900390625,-0.24560546875,-1.6479490995407104,0.1525878757238388,0.7019042372703552,100.0,164071.0,1.0
15:38:16.278224,198165.5625,181437.96875,230720.4375,209779.984375,199611.28125,176508.96875,686195.25,200393.953125,0.07861328125,0.980224609375,-0.245849609375,-1.7700194120407104,0.03051757626235485,0.7629393935203552,100.0,164072.0,1.0
15:38:16.287665,198164.9375,181442.796875,230723.84375,209777.65625,199617.453125,176534.09375,686210.8125,200387.78125,0.0771484375,0.9794921875,-0.242919921875,-1.7700194120407104,0.0610351525247097,0.7629393935203552,100.0,164073.0,1.0
15:38:16.287737,198170.046875,181450.046875,230728.125,209775.0625,199619.859375,176546.875,686123.5,200382.0625,0.078857421875,0.979736328125,-0.247314453125,-1.7700194120407104,0.1831054538488388,0.6103515028953552,100.0,164074.0,1.0
15:38:16.297744,198171.734375,181445.484375,230725.53125,209784.71875,199617.71875,176524.609375,686083.0,200393.765625,0.08056640625,0.9814453125,-0.2470703125,-1.6784666776657104,0.1831054538488388,0.6713866591453552,100.0,164075.0,1.0
15:38:16.297831,198164.40625,181435.015625,230715.703125,209782.125,199608.515625,176503.859375,686163.875,200392.15625,0.080810546875,0.98095703125,-0.246826171875,-1.6784666776657104,0.2136230319738388,0.7629393935203552,100.0,164076.0,1.0
15:38:16.299884,198162.0,181437.609375,230718.390625,209773.1875,199611.640625,176525.234375,686199.375,200384.109375,0.080810546875,0.980224609375,-0.24755859375,-1.6784666776657104,0.2136230319738388,0.7324218153953552,100.0,164077.0,1.0
15:38:16.303590,198164.046875,181443.515625,230721.25,209768.359375,199613.609375,176541.0625,686128.25,200376.96875,0.078369140625,0.980224609375,-0.24609375,-1.6174315214157104,0.1831054538488388,0.9155272841453552,100.0,164078.0,1.0
15:38:16.319141,198161.71875,181437.796875,230714.1875,209766.296875,199606.0,176518.796875,686068.9375,200378.921875,0.08056640625,0.980224609375,-0.24560546875,-1.6479490995407104,0.2746581733226776,0.8544921278953552,100.0,164079.0,1.0
15:38:16.319230,198158.234375,181429.75,230712.296875,209768.53125,199599.65625,176497.875,686153.6875,200383.75,0.08056640625,0.978271484375,-0.248046875,-1.6479490995407104,0.2441406100988388,0.9460448622703552,100.0,164080.0,1.0
15:38:16.321364,198161.90625,181435.828125,230718.03125,209766.390625,199604.390625,176517.015625,686212.8125,200380.453125,0.080078125,0.9794921875,-0.25048828125,-1.5563963651657104,0.2136230319738388,1.0070799589157104,100.0,164081.0,1.0
15:38:16.321406,198160.109375,181437.4375,230719.90625,209757.71875,199605.640625,176535.34375,686134.75,200369.890625,0.077880859375,0.979248046875,-0.248046875,-1.5258787870407104,0.1831054538488388,1.0070799589157104,100.0,164082.0,1.0
15:38:16.323929,198155.46875,181428.5,230710.34375,209752.0,199595.546875,176513.25,686067.0,200366.671875,0.0791015625,0.97998046875,-0.246826171875,-1.5258787870407104,0.1525878757238388,1.0681151151657104,100.0,164083.0,1.0
15:38:16.323955,198148.765625,181416.515625,230702.375,209757.90625,199589.203125,176484.828125,686132.8125,200375.265625,0.078369140625,0.97802734375,-0.2431640625,-1.4343260526657104,0.1831054538488388,0.8544921278953552,100.0,164084.0,1.0
15:38:16.330990,198151.078125,181420.984375,230707.921875,209757.09375,199592.140625,176497.078125,686216.1875,200372.84375,0.076904296875,0.977783203125,-0.244873046875,-1.4648436307907104,0.1220703050494194,0.8544921278953552,100.0,164085.0,1.0
15:38:16.339372,198154.921875,181429.828125,230719.015625,209760.21875,199602.515625,176525.0625,686156.9375,200371.421875,0.075927734375,0.9775390625,-0.24462890625,-1.5258787870407104,0.1220703050494194,0.8544921278953552,100.0,164086.0,1.0
15:38:16.345669,198159.9375,181432.515625,230718.921875,209757.984375,199600.546875,176517.359375,686086.8125,200370.171875,0.07568359375,0.97900390625,-0.244873046875,-1.4648436307907104,0.1220703050494194,0.7934569716453552,100.0,164087.0,1.0
15:38:16.345686,198158.953125,181425.359375,230715.515625,209768.265625,199598.9375,176492.328125,686116.25,200382.59375,0.076171875,0.97998046875,-0.2470703125,-1.4038084745407104,0.1220703050494194,0.9155272841453552,100.0,164088.0,1.0
15:38:16.350132,198161.359375,181428.765625,230716.328125,209767.015625,199600.734375,176499.125,686209.75,200379.46875,0.07373046875,0.97900390625,-0.2421875,-1.3732908964157104,0.1831054538488388,0.7629393935203552,100.0,164089.0,1.0
15:38:16.350154,198166.90625,181439.75,230729.296875,209774.171875,199613.421875,176531.671875,686162.5625,200380.984375,0.0751953125,0.97900390625,-0.24365234375,-1.4648436307907104,0.0915527269244194,0.8239745497703552,100.0,164090.0,1.0
15:38:16.374514,198163.421875,181438.328125,230723.84375,209763.796875,199604.484375,176524.34375,686092.3125,200369.984375,0.076904296875,0.9794921875,-0.24560546875,-1.4953612089157104,0.1525878757238388,0.6713866591453552,100.0,164091.0,1.0
15:38:16.403823,198154.578125,181425.28125,230712.84375,209763.4375,199595.640625,176494.390625,686102.8125,200374.375,0.076171875,0.980224609375,-0.248291015625,-1.4953612089157104,0.1220703050494194,0.7324218153953552,100.0,164092.0,1.0
15:38:16.403852,198148.140625,181416.515625,230703.359375,209755.125,199586.6875,176482.765625,686200.8125,200365.25,0.07666015625,0.980224609375,-0.24609375,-1.4953612089157104,0.0610351525247097,0.7019042372703552,100.0,164093.0,1.0
15:38:16.409365,198152.875,181425.71875,230715.96875,209758.078125,199599.828125,176516.109375,686185.8125,200364.984375,0.076416015625,0.981689453125,-0.247802734375,-1.5258787870407104,0.0915527269244194,0.7019042372703552,100.0,164094.0,1.0
15:38:16.409386,198157.875,181432.78125,230723.125,209753.78125,199599.390625,176523.265625,686113.0,200358.640625,0.078125,0.9814453125,-0.244140625,-1.4648436307907104,0.0915527269244194,0.6713866591453552,100.0,164095.0,1.0
15:38:16.409392,198159.40625,181429.921875,230721.515625,209764.609375,199598.765625,176501.28125,686094.3125,200372.578125,0.0791015625,0.9814453125,-0.246337890625,-1.5258787870407104,0.1220703050494194,0.7019042372703552,100.0,164096.0,1.0
15:38:16.409398,198165.21875,181435.28125,230722.3125,209773.71875,199603.046875,176498.6875,686202.25,200380.890625,0.080810546875,0.98193359375,-0.248291015625,-1.4953612089157104,0.1525878757238388,0.7629393935203552,100.0,164097.0,1.0
15:38:16.410228,198173.34375,181450.671875,230733.671875,209778.90625,199617.8125,176534.171875,686199.3125,200384.03125,0.07861328125,0.979248046875,-0.2451171875,-1.4953612089157104,0.2136230319738388,0.7934569716453552,100.0,164098.0,1.0
15:38:16.410400,198176.65625,181457.109375,230737.34375,209773.90625,199619.328125,176546.953125,686142.6875,200378.65625,0.078857421875,0.980712890625,-0.246337890625,-1.5563963651657104,0.2136230319738388,0.6103515028953552,100.0,164099.0,1.0
15:38:16.411984,198175.765625,181451.375,230733.765625,209778.375,199616.5625,176525.234375,686120.0,200387.59375,0.07958984375,0.982177734375,-0.2451171875,-1.6174315214157104,0.1831054538488388,0.4882812201976776,100.0,164100.0,1.0
15:38:16.414581,198175.046875,181449.6875,230732.421875,209784.90625,199616.734375,176514.859375,686210.5625,200394.390625,0.078369140625,0.98388671875,-0.246337890625,-1.7700194120407104,0.2441406100988388,0.5798339247703552,100.0,164101.0,1.0
15:38:16.417105,198181.296875,181459.25,230741.8125,209790.0,199628.796875,176550.09375,686211.625,200395.5625,0.07861328125,0.983642578125,-0.246337890625,-1.8005369901657104,0.2441406100988388,0.5798339247703552,100.0,164102.0,1.0
15:38:16.419510,198182.015625,181460.5,230743.421875,209783.921875,199630.40625,176586.203125,686152.0,200389.03125,0.076904296875,0.9814453125,-0.245849609375,-1.7395018339157104,0.3051757514476776,0.5798339247703552,100.0,164103.0,1.0
15:38:16.423646,198175.3125,181448.609375,230730.09375,209776.3125,199618.25,176560.28125,686095.25,200386.890625,0.076904296875,0.981689453125,-0.24658203125,-1.7395018339157104,0.2746581733226776,0.6103515028953552,100.0,164104.0,1.0
15:38:16.423664,198165.296875,181433.40625,230718.109375,209777.484375,199608.234375,176524.78125,686160.125,200389.296875,0.077880859375,0.98095703125,-0.24365234375,-1.8005369901657104,0.2746581733226776,0.6103515028953552,100.0,164105.0,1.0
15:38:16.424454,198160.828125,181429.125,230714.09375,209769.25,199605.203125,176529.703125,686205.9375,200378.84375,0.0771484375,0.980712890625,-0.242431640625,-1.8615721464157104,0.2136230319738388,0.6408690810203552,100.0,164106.0,1.0
15:38:16.427047,198161.359375,181432.34375,230718.203125,209767.375,199608.953125,176547.3125,686131.0,200372.046875,0.078369140625,0.982421875,-0.240478515625,-1.8615721464157104,0.2441406100988388,0.5493163466453552,100.0,164107.0,1.0
15:38:16.454529,198156.265625,181425.1875,230707.65625,209757.09375,199597.328125,176524.609375,686054.4375,200365.609375,0.07958984375,0.979736328125,-0.2431640625,-1.9531248807907104,0.2441406100988388,0.6408690810203552,100.0,164108.0,1.0
15:38:16.457006,198148.578125,181412.9375,230698.359375,209760.5,199589.203125,176492.328125,686127.75,200371.859375,0.0791015625,0.978759765625,-0.24072265625,-1.9531248807907104,0.3051757514476776,0.7324218153953552,100.0,164109.0,1.0
15:38:16.460118,198153.234375,181419.734375,230702.296875,209762.453125,199594.921875,176504.5,686219.6875,200372.484375,0.080078125,0.9765625,-0.242919921875,-1.9226073026657104,0.3967284858226776,0.7019042372703552,100.0,164110.0,1.0
15:38:16.460141,198154.84375,181426.796875,230710.0625,209762.734375,199603.6875,176532.5625,686155.5625,200371.15625,0.079833984375,0.9775390625,-0.245849609375,-1.8615721464157104,0.2746581733226776,0.7019042372703552,100.0,164111.0,1.0
15:38:16.462065,198154.125,181424.375,230706.484375,209754.140625,199595.09375,176521.390625,686074.125,200364.890625,0.08056640625,0.9794921875,-0.241455078125,-1.8615721464157104,0.2441406100988388,0.7324218153953552,100.0,164112.0,1.0
15:38:16.464507,198151.0,181418.203125,230702.640625,209762.28125,199590.890625,176497.703125,686116.625,200375.625,0.080810546875,0.978759765625,-0.24560546875,-1.7395018339157104,0.2746581733226776,0.7629393935203552,100.0,164113.0,1.0
15:38:16.466987,198152.609375,181422.6875,230705.15625,209763.890625,199591.15625,176502.796875,686213.875,200372.21875,0.07958984375,0.98095703125,-0.244873046875,-1.8005369901657104,0.2441406100988388,0.7324218153953552,100.0,164114.0,1.0
15:38:16.469458,198149.65625,181425.359375,230709.796875,209759.0625,199597.15625,176527.203125,686166.6875,200366.59375,0.078857421875,0.977783203125,-0.247314453125,-1.7395018339157104,0.2746581733226776,0.8544921278953552,100.0,164115.0,1.0
15:38:16.472075,198148.9375,181425.90625,230704.4375,209750.75,199591.609375,176522.375,686093.1875,200359.96875,0.0791015625,0.979736328125,-0.246337890625,-1.7395018339157104,0.3356933295726776,0.8239745497703552,100.0,164116.0,1.0
15:38:16.474534,198146.34375,181418.125,230699.703125,209758.25,199588.03125,176496.71875,686102.3125,200371.234375,0.0771484375,0.9794921875,-0.244873046875,-1.6174315214157104,0.3051757514476776,0.7934569716453552,100.0,164117.0,1.0
15:38:16.477005,198140.984375,181412.84375,230693.703125,209754.6875,199581.15625,176488.125,686200.3125,200365.875,0.07568359375,0.977294921875,-0.243408203125,-1.6784666776657104,0.3051757514476776,0.7934569716453552,100.0,164118.0,1.0
15:38:16.480053,198142.0625,181418.84375,230698.09375,209753.421875,199589.375,176515.21875,686187.6875,200363.109375,0.075439453125,0.977294921875,-0.24462890625,-1.6174315214157104,0.1831054538488388,0.8239745497703552,100.0,164119.0,1.0
15:38:16.480063,198149.203125,181426.25,230703.265625,209751.28125,199590.625,176521.75,686103.4375,200359.34375,0.0751953125,0.975341796875,-0.241943359375,-1.4648436307907104,0.1831054538488388,0.7629393935203552,100.0,164120.0,1.0
15:38:16.481992,198144.5625,181414.546875,230695.3125,209754.5,199583.921875,176492.59375,686073.3125,200365.875,0.07666015625,0.974365234375,-0.24267578125,-1.4038084745407104,0.2746581733226776,0.7019042372703552,100.0,164121.0,1.0
15:38:16.485085,198143.84375,181411.59375,230693.171875,209758.96875,199581.859375,176481.875,686179.4375,200368.015625,0.079345703125,0.97314453125,-0.2431640625,-1.2512205839157104,0.2441406100988388,0.6713866591453552,100.0,164122.0,1.0
15:38:16.485096,198148.3125,181419.640625,230704.171875,209763.0,199592.953125,176511.015625,686222.375,200368.28125,0.077880859375,0.972900390625,-0.246337890625,-1.1901854276657104,0.1831054538488388,0.6713866591453552,100.0,164123.0,1.0
15:38:16.487044,198152.515625,181424.5625,230707.921875,209757.8125,199593.578125,176522.546875,686136.375,200360.953125,0.080078125,0.971923828125,-0.24365234375,-1.1291502714157104,0.3051757514476776,0.6713866591453552,100.0,164124.0,1.0
15:38:16.492597,198152.96875,181420.71875,230701.75,209761.203125,199588.03125,176498.765625,686079.75,200366.234375,0.08251953125,0.970458984375,-0.245361328125,-1.0375975370407104,0.2136230319738388,0.6408690810203552,100.0,164125.0,1.0
15:38:16.492609,198154.125,181418.75,230701.75,209769.875,199588.578125,176485.625,686159.9375,200373.46875,0.080810546875,0.97216796875,-0.24609375,-0.9765624403953552,0.3051757514476776,0.6713866591453552,100.0,164126.0,1.0
15:38:16.502283,198158.859375,181426.796875,230710.15625,209770.78125,199597.15625,176511.5625,686214.5,200371.15625,0.080322265625,0.97412109375,-0.2451171875,-1.0375975370407104,0.3356933295726776,0.7019042372703552,100.0,164127.0,1.0
15:38:16.506596,198162.34375,181433.234375,230715.515625,209763.796875,199599.296875,176528.453125,686133.5625,200364.359375,0.081298828125,0.97705078125,-0.244384765625,-0.9765624403953552,0.2746581733226776,0.6103515028953552,100.0,164128.0,1.0
15:38:16.506624,198162.171875,181429.125,230710.78125,209762.546875,199594.03125,176509.046875,686072.4375,200366.59375,0.080078125,0.976806640625,-0.247314453125,-0.9460448622703552,0.3662109076976776,0.6408690810203552,100.0,164129.0,1.0
15:38:16.513265,198161.453125,181423.03125,230710.78125,209772.203125,199593.75,176490.984375,686139.875,200376.78125,0.078125,0.97998046875,-0.245361328125,-0.8850097060203552,0.4882812201976776,0.5493163466453552,100.0,164130.0,1.0
15:38:16.522614,198163.25,181429.203125,230716.421875,209768.984375,199598.40625,176508.875,686209.9375,200371.234375,0.076171875,0.9794921875,-0.244384765625,-0.9460448622703552,0.4272460639476776,0.4882812201976776,100.0,164131.0,1.0
15:38:16.522651,198165.125,181436.09375,230722.40625,209766.296875,199603.6875,176532.65625,686143.125,200365.609375,0.07470703125,0.978759765625,-0.247314453125,-0.8239745497703552,0.3356933295726776,0.3967284858226776,100.0,164132.0,1.0
15:38:16.530175,198165.75,181436.0,230717.21875,209764.96875,199597.6875,176519.421875,686080.6875,200365.421875,0.076171875,0.981689453125,-0.249267578125,-0.7934569716453552,0.3051757514476776,0.4577636420726776,100.0,164133.0,1.0
15:38:16.530188,198159.484375,181425.453125,230709.796875,209768.71875,199591.796875,176494.65625,686139.3125,200373.5625,0.0771484375,0.981689453125,-0.248046875,-0.8239745497703552,0.2746581733226776,0.2746581733226776,100.0,164134.0,1.0
15:38:16.537648,198161.28125,181429.03125,230713.203125,209766.75,199594.734375,176506.28125,686217.875,200370.875,0.078125,0.982421875,-0.249755859375,-0.8544921278953552,0.2746581733226776,0.3662109076976776,100.0,164135.0,1.0
15:38:16.537685,198162.53125,181433.859375,230720.078125,209762.375,199599.828125,176532.390625,686145.6875,200364.09375,0.078857421875,0.982177734375,-0.248046875,-0.8850097060203552,0.2746581733226776,0.4577636420726776,100.0,164136.0,1.0
15:38:16.547973,198161.71875,181433.328125,230716.140625,209755.03125,199593.40625,176522.109375,686079.4375,200357.296875,0.0791015625,0.98388671875,-0.249755859375,-0.9155272841453552,0.1831054538488388,0.4882812201976776,100.0,164137.0,1.0
15:38:16.547993,198154.578125,181421.96875,230705.515625,209759.6875,199587.40625,176493.140625,686118.375,200365.875,0.080078125,0.98291015625,-0.24951171875,-0.8850097060203552,0.1525878757238388,0.4272460639476776,100.0,164138.0,1.0
15:38:16.550148,198153.59375,181422.953125,230704.96875,209756.296875,199588.125,176497.421875,686207.6875,200363.015625,0.077880859375,0.984130859375,-0.249755859375,-0.9460448622703552,0.0915527269244194,0.3356933295726776,100.0,164139.0,1.0
15:38:16.550221,198153.765625,181428.765625,230712.03125,209756.375,199597.421875,176527.203125,686162.3125,200359.53125,0.07470703125,0.98291015625,-0.2470703125,-0.9765624403953552,0.1525878757238388,0.2441406100988388,100.0,164140.0,1.0
15:38:16.558246,198153.40625,181428.046875,230708.375,209747.078125,199592.421875,176522.828125,686093.875,200350.765625,0.073486328125,0.98388671875,-0.245849609375,-1.0375975370407104,0.1220703050494194,0.0610351525247097,100.0,164141.0,1.0
15:38:16.571594,198149.921875,181420.453125,230702.109375,209753.515625,199588.21875,176496.09375,686103.8125,200361.40625,0.073974609375,0.98388671875,-0.24365234375,-1.0986326932907104,0.0915527269244194,-0.03051757626235485,100.0,164142.0,1.0
15:38:16.571679,198150.375,181420.09375,230700.5,209755.84375,199586.15625,176491.96875,686203.125,200362.296875,0.069580078125,0.982666015625,-0.246826171875,-1.3427733182907104,0.0610351525247097,-0.1525878757238388,100.0,164143.0,1.0
15:38:16.572612,198154.921875,181428.3125,230709.265625,209758.171875,199596.4375,176522.828125,686178.375,200361.5,0.069580078125,0.981201171875,-0.24658203125,-1.4953612089157104,-0.1220703050494194,-0.2136230319738388,100.0,164144.0,1.0
15:38:16.572687,198153.671875,181428.046875,230703.625,209748.25,199591.078125,176524.96875,686100.4375,200352.203125,0.0703125,0.98193359375,-0.24609375,-1.4343260526657104,-0.2746581733226776,-0.2441406100988388,100.0,164145.0,1.0
15:38:16.578975,198146.078125,181415.796875,230691.5625,209747.53125,199580.875,176494.203125,686070.8125,200355.859375,0.0703125,0.982666015625,-0.245849609375,-1.5258787870407104,-0.4272460639476776,-0.1831054538488388,100.0,164146.0,1.0
15:38:16.579048,198145.453125,181414.546875,230690.84375,209751.734375,199579.8125,176484.28125,686173.75,200358.640625,0.073486328125,0.979736328125,-0.250244140625,-1.5563963651657104,-0.4882812201976776,-0.1220703050494194,100.0,164147.0,1.0
15:38:16.591317,198152.515625,181426.796875,230701.84375,209754.40625,199594.296875,176517.546875,686201.1875,200360.515625,0.07470703125,0.979736328125,-0.248779296875,-1.5563963651657104,-0.5187987685203552,-0.0610351525247097,100.0,164148.0,1.0
15:38:16.591384,198158.953125,181437.4375,230708.546875,209752.890625,199598.046875,176536.859375,686124.5,200356.671875,0.075439453125,0.98046875,-0.248291015625,-1.6479490995407104,-0.5798339247703552,-0.1220703050494194,100.0,164149.0,1.0
15:38:16.591408,198156.0,181429.828125,230701.125,209753.609375,199589.375,176511.828125,686076.375,200359.609375,0.076416015625,0.9794921875,-0.2451171875,-1.6784666776657104,-0.6103515028953552,0.0915527269244194,100.0,164150.0,1.0
15:38:16.594025,198154.578125,181423.21875,230698.265625,209759.15625,199585.984375,176493.5,686168.875,200365.515625,0.078857421875,0.979736328125,-0.244140625,-1.6784666776657104,-0.7019042372703552,0.1525878757238388,100.0,164151.0,1.0
15:38:16.605810,198157.96875,181430.453125,230705.15625,209757.09375,199592.5,176513.796875,686197.0,200362.296875,0.08056640625,0.979248046875,-0.245361328125,-1.7395018339157104,-0.5798339247703552,0.2136230319738388,100.0,164152.0,1.0
15:38:16.609217,198161.09375,181436.625,230709.890625,209752.625,199596.4375,176533.109375,686130.375,200355.0625,0.080322265625,0.979736328125,-0.2470703125,-1.6174315214157104,-0.5493163466453552,0.3662109076976776,100.0,164153.0,1.0
15:38:16.609297,198162.703125,181435.109375,230705.78125,209754.234375,199592.421875,176517.1875,686077.0625,200358.90625,0.080810546875,0.97802734375,-0.248291015625,-1.6479490995407104,-0.4577636420726776,0.3662109076976776,100.0,164154.0,1.0
15:38:16.610804,198158.78125,181427.328125,230700.234375,209763.625,199589.015625,176494.390625,686145.375,200366.40625,0.080078125,0.97900390625,-0.2490234375,-1.7395018339157104,-0.3967284858226776,0.5187987685203552,100.0,164155.0,1.0
15:38:16.614578,198162.796875,181433.046875,230706.40625,209761.921875,199593.9375,176510.21875,686208.75,200363.109375,0.0791015625,0.9775390625,-0.24609375,-1.7395018339157104,-0.2746581733226776,0.5493163466453552,100.0,164156.0,1.0
15:38:16.626447,198172.453125,181444.671875,230720.796875,209765.59375,199606.71875,176539.71875,686138.5,200365.78125,0.078125,0.97900390625,-0.245361328125,-1.7700194120407104,-0.1831054538488388,0.7934569716453552,100.0,164157.0,1.0
15:38:16.626530,198174.875,181443.328125,230718.390625,209761.5625,199602.25,176526.84375,686073.0625,200365.34375,0.078369140625,0.976318359375,-0.247314453125,-1.6479490995407104,-0.1220703050494194,0.7324218153953552,100.0,164158.0,1.0
15:38:16.629354,198168.25,181431.0,230712.84375,209767.90625,199596.796875,176499.21875,686130.9375,200375.265625,0.078369140625,0.9775390625,-0.248291015625,-1.6174315214157104,-0.1525878757238388,0.8544921278953552,100.0,164159.0,1.0
15:38:16.635054,198171.5625,181436.984375,230715.4375,209773.90625,199601.171875,176510.75,686233.8125,200374.546875,0.077880859375,0.97705078125,-0.248291015625,-1.7089842557907104,-0.0610351525247097,0.8544921278953552,100.0,164160.0,1.0
15:38:16.635070,198177.1875,181450.671875,230726.703125,209779.171875,199613.609375,176543.734375,686181.0625,200374.71875,0.079345703125,0.97900390625,-0.248046875,-1.6784666776657104,-0.1220703050494194,0.8239745497703552,100.0,164161.0,1.0
15:38:16.640907,198176.203125,181450.84375,230721.328125,209771.671875,199606.625,176534.4375,686092.375,200369.0,0.078369140625,0.979248046875,-0.24658203125,-1.7089842557907104,-0.03051757626235485,0.7934569716453552,100.0,164162.0,1.0
15:38:16.649353,198170.125,181438.6875,230713.203125,209780.078125,199601.4375,176503.78125,686107.0625,200381.4375,0.078125,0.98095703125,-0.246337890625,-1.6479490995407104,0.0,1.0070799589157104,100.0,164163.0,1.0
15:38:16.649374,198170.75,181438.6875,230713.5625,209778.734375,199602.25,176506.1875,686215.9375,200380.625,0.07666015625,0.979736328125,-0.243896484375,-1.7089842557907104,-0.0610351525247097,1.0986326932907104,100.0,164164.0,1.0
15:38:16.662658,198172.28125,181444.5,230720.0,209776.3125,199612.171875,176536.59375,686196.5,200377.59375,0.07568359375,0.977783203125,-0.243408203125,-1.7395018339157104,0.03051757626235485,1.1291502714157104,100.0,164165.0,1.0
15:38:16.662676,198171.203125,181443.25,230713.203125,209764.515625,199602.703125,176531.671875,686100.5,200365.15625,0.076171875,0.978515625,-0.244140625,-1.7089842557907104,0.0915527269244194,1.0681151151657104,100.0,164166.0,1.0
15:38:16.664682,198168.875,181434.65625,230707.125,209769.4375,199598.140625,176504.84375,686095.5,200373.828125,0.07470703125,0.9775390625,-0.24609375,-1.6479490995407104,0.1220703050494194,0.8544921278953552,100.0,164167.0,1.0
15:38:16.667197,198171.5625,181437.171875,230708.734375,209772.296875,199598.765625,176501.546875,686197.0,200376.6875,0.078857421875,0.977783203125,-0.24560546875,-1.6784666776657104,0.1831054538488388,0.8239745497703552,100.0,164168.0,1.0
15:38:16.672570,198174.234375,181442.96875,230715.875,209771.3125,199607.703125,176531.140625,686201.875,200373.03125,0.079833984375,0.977294921875,-0.24609375,-1.6784666776657104,0.0915527269244194,0.8239745497703552,100.0,164169.0,1.0
15:38:16.687324,198175.9375,181446.90625,230717.3125,209766.921875,199607.171875,176539.890625,686112.125,200364.71875,0.0810546875,0.9775390625,-0.24560546875,-1.5563963651657104,0.1525878757238388,0.7934569716453552,100.0,164170.0,1.0
15:38:16.687353,198180.046875,181447.53125,230719.546875,209777.03125,199610.390625,176523.171875,686093.8125,200380.359375,0.079345703125,0.977783203125,-0.24658203125,-1.5258787870407104,0.2746581733226776,0.7934569716453552,100.0,164171.0,1.0
15:38:16.687360,198181.125,181446.375,230721.421875,209783.46875,199610.46875,176513.171875,686187.5,200386.96875,0.079833984375,0.976806640625,-0.24755859375,-1.4648436307907104,0.3051757514476776,0.7629393935203552,100.0,164172.0,1.0
15:38:16.687365,198176.75,181446.734375,230722.046875,209776.859375,199613.515625,176533.1875,686212.0625,200378.390625,0.08203125,0.973388671875,-0.24853515625,-1.5563963651657104,0.3662109076976776,0.7629393935203552,100.0,164173.0,1.0
15:38:16.697163,198176.75,181448.78125,230722.859375,209769.875,199614.140625,176544.71875,686128.375,200369.1875,0.08154296875,0.975341796875,-0.2509765625,-1.4648436307907104,0.3356933295726776,0.8239745497703552,100.0,164174.0,1.0
15:38:16.700766,198176.296875,181445.296875,230718.390625,209771.671875,199610.75,176522.46875,686075.5625,200375.796875,0.0810546875,0.97705078125,-0.2490234375,-1.3122557401657104,0.4882812201976776,0.7324218153953552,100.0,164175.0,1.0
15:38:16.706141,198175.3125,181441.09375,230716.328125,209780.875,199608.515625,176505.390625,686163.6875,200383.046875,0.082275390625,0.978271484375,-0.247314453125,-1.1901854276657104,0.6408690810203552,0.6713866591453552,100.0,164176.0,1.0
15:38:16.708282,198178.984375,181446.546875,230722.234375,209781.765625,199615.296875,176527.828125,686200.9375,200380.359375,0.083740234375,0.97900390625,-0.246337890625,-1.2207030057907104,0.6713866591453552,0.8239745497703552,100.0,164177.0,1.0
15:38:16.710695,198180.140625,181452.0,230729.734375,209779.71875,199618.875,176547.5,686129.1875,200374.28125,0.0849609375,0.978271484375,-0.246826171875,-1.1291502714157104,0.8544921278953552,0.8239745497703552,100.0,164178.0,1.0
15:38:16.714206,198177.1875,181446.90625,230722.140625,209773.453125,199611.375,176527.296875,686068.0625,200374.453125,0.084228515625,0.978759765625,-0.24560546875,-1.1291502714157104,0.8544921278953552,0.7934569716453552,100.0,164179.0,1.0
15:38:16.723144,198171.46875,181437.875,230714.0,209777.84375,199605.5625,176502.96875,686131.0,200382.421875,0.082275390625,0.979736328125,-0.248046875,-1.1291502714157104,0.9155272841453552,0.8544921278953552,100.0,164180.0,1.0
15:38:16.762077,198176.5625,181446.015625,230719.015625,209778.1875,199612.703125,176521.390625,686211.375,200380.359375,0.0810546875,0.98046875,-0.248291015625,-1.0681151151657104,1.0070799589157104,0.9460448622703552,100.0,164181.0,1.0
15:38:16.773463,198181.125,181454.234375,230728.390625,209777.921875,199620.84375,176547.9375,686146.75,200376.96875,0.080078125,0.980224609375,-0.24658203125,-1.0986326932907104,1.0375975370407104,0.9155272841453552,100.0,164182.0,1.0
15:38:16.773500,198177.640625,181447.359375,230721.421875,209770.140625,199611.28125,176530.15625,686069.3125,200371.859375,0.0791015625,0.979736328125,-0.2490234375,-1.1901854276657104,1.0070799589157104,0.9460448622703552,100.0,164183.0,1.0
15:38:16.773508,198172.625,181436.625,230716.234375,209779.265625,199606.453125,176501.359375,686116.9375,200382.6875,0.078369140625,0.9794921875,-0.2490234375,-1.0681151151657104,1.1291502714157104,0.8850097060203552,100.0,164184.0,1.0
15:38:16.780725,198174.234375,181441.546875,230718.03125,209778.1875,199609.40625,176509.765625,686208.125,200380.0,0.075927734375,0.979736328125,-0.24560546875,-1.1291502714157104,1.0986326932907104,0.7629393935203552,100.0,164185.0,1.0
15:38:16.791687,198174.15625,181447.53125,230723.296875,209773.640625,199616.828125,176539.359375,686162.9375,200373.921875,0.074951171875,0.980224609375,-0.246826171875,-1.1596678495407104,1.1291502714157104,0.7019042372703552,100.0,164186.0,1.0
15:38:16.791701,198177.375,181450.84375,230722.671875,209766.921875,199612.796875,176535.25,686087.625,200369.265625,0.07470703125,0.981201171875,-0.248046875,-1.0986326932907104,1.0070799589157104,0.6408690810203552,100.0,164187.0,1.0
15:38:16.791705,198172.359375,181440.921875,230715.25,209772.734375,199605.375,176507.625,686105.5,200378.578125,0.07373046875,0.982177734375,-0.24951171875,-1.1901854276657104,0.9765624403953552,0.5798339247703552,100.0,164188.0,1.0
15:38:16.814566,198170.3125,181439.125,230713.28125,209771.578125,199601.171875,176505.46875,686199.8125,200372.84375,0.07470703125,0.982666015625,-0.247314453125,-1.1901854276657104,0.8850097060203552,0.5493163466453552,100.0,164189.0,1.0
15:38:16.814590,198172.546875,181444.40625,230719.90625,209772.03125,199609.84375,176533.109375,686154.75,200368.640625,0.074462890625,0.983154296875,-0.24560546875,-1.2817381620407104,0.7934569716453552,0.5798339247703552,100.0,164190.0,1.0
15:38:16.814594,198173.796875,181447.625,230717.671875,209761.828125,199605.46875,176532.203125,686093.1875,200359.609375,0.073974609375,0.98046875,-0.244873046875,-1.3122557401657104,0.8239745497703552,0.4272460639476776,100.0,164191.0,1.0
15:38:16.814597,198172.28125,181440.65625,230717.046875,209768.625,199602.078125,176506.8125,686078.4375,200370.34375,0.074462890625,0.9794921875,-0.246337890625,-1.2817381620407104,0.7324218153953552,0.4882812201976776,100.0,164192.0,1.0
15:38:16.814601,198171.296875,181438.5,230716.421875,209769.96875,199599.65625,176499.578125,686178.125,200371.421875,0.075927734375,0.97802734375,-0.2470703125,-1.4038084745407104,0.7324218153953552,0.5187987685203552,100.0,164193.0,1.0
15:38:16.814646,198168.609375,181440.203125,230719.453125,209765.671875,199606.984375,176527.921875,686185.8125,200366.40625,0.076904296875,0.976806640625,-0.247802734375,-1.4038084745407104,0.5493163466453552,0.5798339247703552,100.0,164194.0,1.0
15:38:16.814656,198170.75,181443.6875,230722.671875,209758.890625,199606.8125,176535.96875,686109.5625,200359.171875,0.077392578125,0.977783203125,-0.249267578125,-1.4648436307907104,0.4577636420726776,0.7629393935203552,100.0,164195.0,1.0
15:38:16.820118,198171.296875,181439.046875,230721.78125,209766.390625,199604.484375,176513.25,686075.9375,200369.625,0.07861328125,0.978515625,-0.247314453125,-1.3732908964157104,0.4577636420726776,0.8850097060203552,100.0,164196.0,1.0
15:38:16.820190,198164.859375,181430.546875,230712.03125,209766.296875,199596.703125,176496.359375,686170.6875,200367.9375,0.07958984375,0.979248046875,-0.248779296875,-1.3122557401657104,0.4577636420726776,0.9765624403953552,100.0,164197.0,1.0
15:38:16.822007,198168.15625,181437.25,230718.390625,209764.34375,199604.390625,176521.21875,686200.9375,200363.375,0.079833984375,0.97900390625,-0.252197265625,-1.4038084745407104,0.4272460639476776,0.8850097060203552,100.0,164198.0,1.0
15:38:16.824551,198167.0,181439.484375,230717.9375,209754.6875,199602.515625,176532.921875,686120.25,200354.515625,0.07763671875,0.97998046875,-0.245849609375,-1.4648436307907104,0.3356933295726776,0.9460448622703552,100.0,164199.0,1.0
15:38:16.827002,198163.421875,181430.640625,230710.78125,209752.453125,199594.46875,176508.6875,686063.3125,200358.1875,0.0771484375,0.9775390625,-0.24609375,-1.4343260526657104,0.3356933295726776,1.0070799589157104,100.0,164200.0,1.0
15:38:16.830386,198158.78125,181422.6875,230708.09375,209758.890625,199591.078125,176488.578125,686151.5625,200364.71875,0.075439453125,0.97802734375,-0.2509765625,-1.4953612089157104,0.3051757514476776,1.0070799589157104,100.0,164201.0,1.0
15:38:16.832156,198157.4375,181425.8125,230709.4375,209754.140625,199594.734375,176506.1875,686208.9375,200358.71875,0.073974609375,0.980712890625,-0.25146484375,-1.5258787870407104,0.2136230319738388,0.8544921278953552,100.0,164202.0,1.0
15:38:16.834544,198158.59375,181431.890625,230713.203125,209751.109375,199599.65625,176526.484375,686137.0,200354.25,0.070068359375,0.981201171875,-0.248779296875,-1.5563963651657104,0.0610351525247097,0.7934569716453552,100.0,164203.0,1.0
15:38:16.837049,198151.359375,181424.46875,230700.140625,209742.609375,199587.234375,176504.84375,686066.375,200348.265625,0.069091796875,0.981201171875,-0.248291015625,-1.5258787870407104,0.03051757626235485,0.6103515028953552,100.0,164204.0,1.0
15:38:16.839659,198146.796875,181415.171875,230693.609375,209750.75,199582.84375,176480.53125,686134.0625,200357.109375,0.068359375,0.982421875,-0.24609375,-1.5563963651657104,-0.1220703050494194,0.5187987685203552,100.0,164205.0,1.0
15:38:16.842076,198152.6875,181421.609375,230699.609375,209753.78125,199590.09375,176496.453125,686216.375,200357.375,0.069580078125,0.97998046875,-0.2470703125,-1.5869139432907104,-0.2441406100988388,0.5493163466453552,100.0,164206.0,1.0
15:38:16.844815,198157.34375,181430.375,230708.8125,209753.96875,199599.203125,176524.875,686148.1875,200354.875,0.070556640625,0.979736328125,-0.24951171875,-1.6479490995407104,-0.3662109076976776,0.4882812201976776,100.0,164207.0,1.0
15:38:16.847225,198160.828125,181432.421875,230706.9375,209751.28125,199595.640625,176516.03125,686075.1875,200353.359375,0.072265625,0.97998046875,-0.25,-1.6784666776657104,-0.6408690810203552,0.4272460639476776,100.0,164208.0,1.0
15:38:16.849523,198158.140625,181423.9375,230703.453125,209760.5,199593.40625,176490.09375,686102.1875,200365.875,0.072998046875,0.979248046875,-0.249267578125,-1.7700194120407104,-0.7019042372703552,0.4272460639476776,100.0,164209.0,1.0
15:38:16.855222,198161.453125,181428.765625,230705.234375,209758.171875,199594.203125,176497.78125,686209.125,200362.75,0.074951171875,0.9794921875,-0.247802734375,-1.8310545682907104,-0.7019042372703552,0.4577636420726776,100.0,164210.0,1.0
15:38:16.855305,198163.78125,181435.828125,230712.125,209755.671875,199601.4375,176526.484375,686160.9375,200358.28125,0.07568359375,0.97998046875,-0.249267578125,-1.9226073026657104,-0.7629393935203552,0.4577636420726776,100.0,164211.0,1.0
15:38:16.857642,198166.640625,181438.59375,230708.09375,209748.59375,199595.09375,176520.671875,686080.0625,200352.46875,0.0771484375,0.97900390625,-0.2509765625,-1.9531248807907104,-0.7324218153953552,0.3967284858226776,100.0,164212.0,1.0
15:38:16.857699,198164.140625,181432.34375,230702.921875,209756.296875,199591.15625,176493.9375,686095.4375,200362.03125,0.080810546875,0.978515625,-0.24951171875,-2.014159917831421,-0.7629393935203552,0.4577636420726776,100.0,164213.0,1.0
15:38:16.859617,198170.671875,181439.484375,230709.265625,209762.546875,199596.4375,176499.9375,686199.5625,200365.34375,0.0830078125,0.980224609375,-0.24951171875,-1.9531248807907104,-0.7324218153953552,0.5493163466453552,100.0,164214.0,1.0
15:38:16.863379,198176.65625,181448.4375,230720.703125,209766.921875,199609.40625,176532.296875,686164.625,200367.21875,0.0830078125,0.98193359375,-0.251220703125,-1.8920897245407104,-0.7019042372703552,0.6103515028953552,100.0,164215.0,1.0
15:38:16.863453,198176.203125,181447.796875,230716.78125,209758.4375,199604.125,176529.96875,686100.625,200358.359375,0.08251953125,0.980712890625,-0.24560546875,-1.9531248807907104,-0.6713866591453552,0.7019042372703552,100.0,164216.0,1.0
15:38:16.864850,198172.984375,181437.609375,230709.53125,209764.609375,199599.5625,176502.53125,686082.0,200367.9375,0.081298828125,0.981201171875,-0.244873046875,-2.014159917831421,-0.5187987685203552,0.6408690810203552,100.0,164217.0,1.0
15:38:16.867130,198171.109375,181432.609375,230705.859375,209766.484375,199595.453125,176493.765625,686173.75,200367.9375,0.0830078125,0.981689453125,-0.24853515625,-2.044677495956421,-0.4577636420726776,0.7629393935203552,100.0,164218.0,1.0
15:38:16.870261,198172.71875,181438.78125,230711.5,209763.0,199603.140625,176522.015625,686166.5,200363.8125,0.081298828125,0.981689453125,-0.246826171875,-2.105712652206421,-0.3967284858226776,0.8239745497703552,100.0,164219.0,1.0
15:38:16.870356,198173.53125,181442.625,230711.234375,209754.234375,199601.359375,176530.421875,686092.5625,200355.0625,0.08154296875,0.98193359375,-0.248779296875,-2.197265386581421,-0.3051757514476776,0.9460448622703552,100.0,164220.0,1.0
15:38:16.880650,198172.09375,181436.984375,230705.59375,209758.796875,199597.421875,176506.453125,686062.9375,200364.09375,0.0830078125,0.982421875,-0.248046875,-2.227782964706421,-0.2746581733226776,0.8239745497703552,100.0,164221.0,1.0
15:38:16.880743,198170.671875,181434.9375,230701.75,209765.234375,199595.09375,176491.53125,686167.625,200369.453125,0.081787109375,0.98193359375,-0.24853515625,-2.258300542831421,-0.2136230319738388,0.8544921278953552,100.0,164222.0,1.0
15:38:16.882941,198172.90625,181443.15625,230709.984375,209767.375,199603.59375,176517.90625,686202.0625,200368.203125,0.081787109375,0.981689453125,-0.24560546875,-2.258300542831421,-0.2136230319738388,0.8850097060203552,100.0,164223.0,1.0
15:38:16.883015,198177.1875,181451.734375,230719.015625,209764.515625,199609.40625,176538.5625,686118.9375,200363.375,0.0810546875,0.980712890625,-0.24658203125,-2.349853277206421,-0.1831054538488388,0.9155272841453552,100.0,164224.0,1.0
15:38:16.898397,198173.34375,181443.0625,230710.421875,209762.453125,199601.890625,176514.234375,686055.8125,200364.4375,0.082275390625,0.98046875,-0.248779296875,-2.380370855331421,-0.2136230319738388,0.8850097060203552,100.0,164225.0,1.0
15:38:16.904396,198170.390625,181433.140625,230704.796875,209769.515625,199597.328125,176490.90625,686135.75,200373.109375,0.08203125,0.982177734375,-0.247314453125,-2.380370855331421,-0.1831054538488388,0.9460448622703552,100.0,164226.0,1.0
15:38:16.904490,198173.34375,181437.609375,230710.15625,209768.71875,199603.765625,176508.421875,686217.625,200371.15625,0.08203125,0.982666015625,-0.245849609375,-2.471923589706421,-0.2441406100988388,0.9460448622703552,100.0,164227.0,1.0
15:38:16.905854,198178.984375,181446.90625,230718.109375,209767.109375,199610.5625,176533.28125,686145.0625,200367.21875,0.082763671875,0.98046875,-0.244140625,-2.502441167831421,-0.0610351525247097,0.8239745497703552,100.0,164228.0,1.0
15:38:16.908550,198176.5625,181442.0,230709.796875,209761.125,199600.375,176513.4375,686063.9375,200364.09375,0.08154296875,0.980712890625,-0.24365234375,-2.502441167831421,0.0,0.8239745497703552,100.0,164229.0,1.0
15:38:16.911066,198166.1875,181427.234375,230700.046875,209763.078125,199590.890625,176483.03125,686127.0625,200369.1875,0.080810546875,0.982177734375,-0.241943359375,-2.624511480331421,0.0,0.7324218153953552,100.0,164230.0,1.0
15:38:16.915919,198162.34375,181427.0625,230695.40625,209754.859375,199588.65625,176492.15625,686214.4375,200359.53125,0.08056640625,0.98046875,-0.24560546875,-2.685546636581421,0.03051757626235485,0.6408690810203552,100.0,164231.0,1.0
15:38:16.922895,198164.140625,181434.296875,230703.71875,209754.859375,199596.4375,176518.96875,686152.875,200355.953125,0.080078125,0.9794921875,-0.245849609375,-2.655029058456421,0.0610351525247097,0.5798339247703552,100.0,164232.0,1.0
15:38:16.922934,198165.03125,181434.75,230699.515625,209748.875,199590.984375,176510.03125,686080.375,200351.921875,0.080322265625,0.980224609375,-0.24462890625,-2.655029058456421,0.1525878757238388,0.5187987685203552,100.0,164233.0,1.0
15:38:16.930089,198159.125,181424.921875,230692.640625,209755.84375,199585.796875,176484.375,686109.375,200362.296875,0.083251953125,0.97998046875,-0.244873046875,-2.624511480331421,0.2441406100988388,0.4272460639476776,100.0,164234.0,1.0
15:38:16.930106,198161.28125,181427.6875,230693.796875,209754.953125,199588.390625,176490.8125,686201.625,200361.578125,0.0810546875,0.980712890625,-0.244140625,-2.655029058456421,0.3356933295726776,0.3662109076976776,100.0,164235.0,1.0
15:38:16.933299,198166.375,181435.28125,230702.375,209756.734375,199599.296875,176520.9375,686151.5,200362.65625,0.0810546875,0.98046875,-0.24609375,-2.624511480331421,0.3356933295726776,0.3051757514476776,100.0,164236.0,1.0
15:38:16.940766,198168.25,181438.234375,230700.5,209750.484375,199594.46875,176518.265625,686079.125,200355.765625,0.08349609375,0.97900390625,-0.244140625,-2.563476324081421,0.3356933295726776,0.3662109076976776,100.0,164237.0,1.0
15:38:16.947605,198166.640625,181432.515625,230698.09375,209757.984375,199593.125,176495.28125,686093.5625,200367.125,0.08203125,0.97900390625,-0.2451171875,-2.563476324081421,0.3662109076976776,0.4272460639476776,100.0,164238.0,1.0
15:38:16.947619,198173.609375,181437.703125,230703.625,209765.046875,199598.9375,176498.328125,686197.8125,200371.953125,0.082275390625,0.9775390625,-0.2470703125,-2.563476324081421,0.3967284858226776,0.3051757514476776,100.0,164239.0,1.0
15:38:16.953807,198174.0625,181440.921875,230709.984375,209763.796875,199607.25,176524.78125,686175.875,200369.8125,0.082275390625,0.978271484375,-0.244384765625,-2.685546636581421,0.4272460639476776,0.2441406100988388,100.0,164240.0,1.0
15:38:16.953825,198173.96875,181441.09375,230708.1875,209755.484375,199601.171875,176525.140625,686096.5625,200360.953125,0.07958984375,0.979736328125,-0.242431640625,-2.532958745956421,0.3967284858226776,0.3051757514476776,100.0,164241.0,1.0
15:38:16.963835,198168.25,181429.828125,230700.6875,209759.421875,199594.828125,176495.546875,686077.25,200369.359375,0.0791015625,0.97998046875,-0.24169921875,-2.532958745956421,0.4577636420726776,0.3051757514476776,100.0,164242.0,1.0
15:38:16.963851,198168.4375,181434.296875,230700.328125,209760.046875,199594.296875,176487.5,686173.1875,200370.703125,0.076904296875,0.97900390625,-0.24169921875,-2.471923589706421,0.4577636420726776,0.3662109076976776,100.0,164243.0,1.0
15:38:16.965756,198176.5625,181447.984375,230713.90625,209764.515625,199608.6875,176520.5,686194.8125,200371.6875,0.076416015625,0.980224609375,-0.24365234375,-2.410888433456421,0.4577636420726776,0.3662109076976776,100.0,164244.0,1.0
15:38:16.969500,198180.328125,181451.828125,230716.59375,209761.03125,199610.296875,176530.421875,686112.125,200365.421875,0.076171875,0.978515625,-0.24267578125,-2.471923589706421,0.3967284858226776,0.2746581733226776,100.0,164245.0,1.0
15:38:16.980050,198176.921875,181443.78125,230709.625,209764.96875,199603.953125,176506.1875,686066.375,200372.046875,0.076171875,0.977783203125,-0.240966796875,-2.441406011581421,0.3967284858226776,0.2441406100988388,100.0,164246.0,1.0
15:38:16.980077,198176.390625,181441.71875,230709.703125,209772.65625,199604.03125,176494.203125,686163.0625,200378.21875,0.0771484375,0.977783203125,-0.2392578125,-2.441406011581421,0.4272460639476776,0.2746581733226776,100.0,164247.0,1.0
15:38:16.981966,198181.21875,181451.5625,230723.484375,209777.03125,199616.015625,176523.453125,686207.875,200378.921875,0.076416015625,0.97900390625,-0.24169921875,-2.349853277206421,0.3356933295726776,0.3051757514476776,100.0,164248.0,1.0
15:38:16.985770,198184.078125,181457.640625,230729.015625,209773.09375,199620.21875,176542.84375,686127.6875,200373.03125,0.07666015625,0.979248046875,-0.240478515625,-2.380370855331421,0.3356933295726776,0.3356933295726776,100.0,164249.0,1.0
15:38:16.996340,198183.8125,181454.15625,230722.578125,209773.453125,199615.296875,176524.609375,686064.375,200376.875,0.076416015625,0.98046875,-0.240966796875,-2.380370855331421,0.3051757514476776,0.3051757514476776,100.0,164250.0,1.0
15:38:16.996351,198179.15625,181446.375,230715.078125,209782.3125,199611.453125,176505.5625,686134.1875,200385.015625,0.076171875,0.978759765625,-0.24072265625,-2.380370855331421,0.2746581733226776,0.4272460639476776,100.0,164251.0,1.0
15:38:16.998774,198179.0625,181450.9375,230716.328125,209775.515625,199613.609375,176523.890625,686215.0625,200378.84375,0.07470703125,0.98046875,-0.239990234375,-2.227782964706421,0.2136230319738388,0.3662109076976776,100.0,164252.0,1.0
15:38:16.998781,198175.3125,181452.28125,230716.59375,209762.453125,199614.59375,176543.828125,686144.5625,200367.65625,0.073486328125,0.979736328125,-0.2421875,-2.166747808456421,0.1831054538488388,0.4272460639476776,100.0,164253.0,1.0
15:38:17.009619,198173.078125,181449.328125,230709.984375,209754.6875,199606.625,176529.078125,686070.3125,200365.609375,0.072998046875,0.979248046875,-0.24267578125,-2.166747808456421,0.1831054538488388,0.4577636420726776,100.0,164254.0,1.0
15:38:17.013243,198172.625,181442.890625,230709.890625,209766.03125,199605.296875,176507.625,686135.0,200380.0,0.073974609375,0.9794921875,-0.24169921875,-2.166747808456421,0.1525878757238388,0.5187987685203552,100.0,164255.0,1.0
15:38:17.013272,198173.96875,181445.296875,230713.28125,209763.796875,199609.3125,176516.5625,686219.625,200376.78125,0.074951171875,0.978271484375,-0.242919921875,-2.105712652206421,0.0610351525247097,0.5187987685203552,100.0,164256.0,1.0
15:38:17.022174,198178.890625,181453.34375,230723.125,209765.5,199621.46875,176545.53125,686159.5,200378.390625,0.076171875,0.9794921875,-0.242919921875,-2.136230230331421,0.0610351525247097,0.6408690810203552,100.0,164257.0,1.0
15:38:17.025379,198175.84375,181450.390625,230716.59375,209756.828125,199614.140625,176534.796875,686084.0625,200372.046875,0.074951171875,0.97998046875,-0.24267578125,-2.075195074081421,0.03051757626235485,0.6103515028953552,100.0,164258.0,1.0
15:38:17.025414,198164.671875,181437.078125,230702.375,209756.375,199601.4375,176501.90625,686112.9375,200373.921875,0.075927734375,0.981201171875,-0.239013671875,-2.075195074081421,-0.03051757626235485,0.5798339247703552,100.0,164259.0,1.0
15:38:17.026978,198167.71875,181442.796875,230704.4375,209756.921875,199604.125,176509.328125,686209.25,200372.9375,0.07568359375,0.981689453125,-0.241943359375,-2.014159917831421,-0.0915527269244194,0.7629393935203552,100.0,164260.0,1.0
15:38:17.042094,198172.09375,181452.71875,230716.5,209757.09375,199616.203125,176542.3125,686164.0,200373.109375,0.074951171875,0.9814453125,-0.239501953125,-1.8920897245407104,-0.1525878757238388,0.7934569716453552,100.0,164261.0,1.0
15:38:17.044522,198173.53125,181455.84375,230714.265625,209749.9375,199610.296875,176537.484375,686089.875,200365.96875,0.074951171875,0.982666015625,-0.241455078125,-1.8615721464157104,-0.0915527269244194,0.8544921278953552,100.0,164262.0,1.0
15:38:17.047015,198169.0625,181445.484375,230708.453125,209757.09375,199605.828125,176508.0625,686099.875,200376.875,0.07568359375,0.980224609375,-0.240966796875,-1.9226073026657104,-0.1220703050494194,0.8544921278953552,100.0,164263.0,1.0
15:38:17.049515,198166.015625,181442.34375,230703.359375,209752.625,199600.109375,176501.09375,686198.6875,200371.859375,0.076416015625,0.9794921875,-0.23974609375,-1.9226073026657104,-0.0610351525247097,0.9765624403953552,100.0,164264.0,1.0
15:38:17.052050,198174.0625,181452.71875,230715.515625,209755.125,199614.140625,176536.234375,686170.8125,200373.65625,0.078125,0.97998046875,-0.238037109375,-1.9226073026657104,-0.2136230319738388,1.0986326932907104,100.0,164265.0,1.0
15:38:17.060569,198171.734375,181452.546875,230710.609375,209742.609375,199607.875,176538.828125,686106.125,200360.875,0.07861328125,0.9794921875,-0.238037109375,-1.8615721464157104,-0.1525878757238388,1.0070799589157104,100.0,164266.0,1.0
15:38:17.060990,198167.171875,181443.15625,230704.796875,209747.078125,199603.328125,176513.171875,686078.3125,200369.625,0.079345703125,0.978759765625,-0.239990234375,-1.8005369901657104,-0.2441406100988388,1.0375975370407104,100.0,164267.0,1.0
15:38:17.067740,198165.75,181441.359375,230704.34375,209750.296875,199600.546875,176502.890625,686176.5625,200371.59375,0.07958984375,0.97998046875,-0.24072265625,-1.7395018339157104,-0.1831054538488388,1.0375975370407104,100.0,164268.0,1.0
15:38:17.067822,198168.15625,181447.796875,230710.78125,209746.90625,199608.6875,176529.4375,686204.75,200366.328125,0.078125,0.98193359375,-0.242919921875,-1.7089842557907104,-0.03051757626235485,1.0681151151657104,100.0,164269.0,1.0
15:38:17.095284,198169.0625,181450.21875,230713.203125,209739.21875,199606.8125,176538.640625,686122.875,200358.1875,0.079345703125,0.9814453125,-0.243408203125,-1.6479490995407104,0.03051757626235485,1.1291502714157104,100.0,164270.0,1.0
15:38:17.095336,198169.5,181445.921875,230709.625,209742.609375,199601.796875,176516.5625,686079.5625,200366.765625,0.0771484375,0.98046875,-0.2412109375,-1.6479490995407104,0.0610351525247097,1.1596678495407104,100.0,164271.0,1.0
15:38:17.104479,198171.46875,181445.125,230710.15625,209750.75,199602.421875,176504.84375,686175.25,200376.0625,0.077880859375,0.9794921875,-0.239990234375,-1.6174315214157104,-0.03051757626235485,1.0986326932907104,100.0,164272.0,1.0
15:38:17.143424,198174.15625,181451.734375,230714.1875,209747.53125,199608.0625,176527.734375,686204.0625,200370.875,0.08154296875,0.978271484375,-0.23974609375,-1.5869139432907104,0.0610351525247097,1.1596678495407104,100.0,164273.0,1.0
15:38:17.145760,198179.609375,181459.875,230722.046875,209747.265625,199615.21875,176547.5,686130.25,200367.9375,0.081787109375,0.977783203125,-0.242431640625,-1.5869139432907104,0.03051757626235485,1.1291502714157104,100.0,164274.0,1.0
15:38:17.148324,198174.515625,181453.796875,230713.46875,209741.71875,199606.265625,176524.78125,686064.1875,200366.140625,0.08203125,0.97998046875,-0.242431640625,-1.5563963651657104,0.03051757626235485,1.1596678495407104,100.0,164275.0,1.0
15:38:17.150765,198169.140625,181446.828125,230709.890625,209744.84375,199601.796875,176504.21875,686127.875,200371.859375,0.082275390625,0.980224609375,-0.240478515625,-1.5258787870407104,0.1831054538488388,1.0986326932907104,100.0,164276.0,1.0
15:38:17.153317,198169.5,181451.296875,230711.671875,209742.703125,199603.859375,176520.140625,686209.125,200365.421875,0.08349609375,0.9794921875,-0.239990234375,-1.4343260526657104,0.2441406100988388,1.0681151151657104,100.0,164277.0,1.0
15:38:17.155799,198174.875,181459.34375,230719.546875,209742.609375,199610.75,176545.171875,686140.9375,200360.875,0.08349609375,0.978271484375,-0.239501953125,-1.4953612089157104,0.3967284858226776,0.9155272841453552,100.0,164278.0,1.0
15:38:17.158309,198178.4375,181459.34375,230717.578125,209741.71875,199607.796875,176532.828125,686067.5,200362.125,0.08203125,0.981201171875,-0.240966796875,-1.4648436307907104,0.3662109076976776,1.0070799589157104,100.0,164279.0,1.0
15:38:17.161407,198180.765625,181458.984375,230719.28125,209756.296875,199610.390625,176516.296875,686108.75,200378.578125,0.081298828125,0.97802734375,-0.239990234375,-1.3122557401657104,0.3967284858226776,1.0681151151657104,100.0,164280.0,1.0
15:38:17.161438,198185.953125,181465.59375,230725.890625,209754.0625,199615.921875,176530.515625,686210.6875,200377.046875,0.08203125,0.97998046875,-0.24072265625,-1.3427733182907104,0.4882812201976776,1.0070799589157104,100.0,164281.0,1.0
15:38:17.163450,198181.03125,181462.46875,230727.953125,209747.703125,199618.515625,176548.390625,686148.5,200370.609375,0.08056640625,0.98095703125,-0.240234375,-1.3427733182907104,0.5798339247703552,0.9155272841453552,100.0,164282.0,1.0
15:38:17.165991,198179.78125,181460.234375,230719.546875,209740.828125,199611.453125,176536.953125,686073.875,200364.09375,0.0810546875,0.97998046875,-0.240234375,-1.3427733182907104,0.5798339247703552,0.8850097060203552,100.0,164283.0,1.0
15:38:17.168263,198176.828125,181451.46875,230712.75,209748.875,199607.4375,176509.859375,686124.8125,200375.4375,0.080810546875,0.979736328125,-0.241455078125,-1.4038084745407104,0.6408690810203552,0.7934569716453552,100.0,164284.0,1.0
15:38:17.170864,198178.4375,181452.625,230714.09375,209749.5,199609.046875,176511.5625,686219.875,200374.375,0.081787109375,0.9794921875,-0.2412109375,-1.3427733182907104,0.7324218153953552,0.8239745497703552,100.0,164285.0,1.0
15:38:17.173261,198186.046875,181465.0625,230727.859375,209757.28125,199623.53125,176547.59375,686169.5,200376.515625,0.08056640625,0.981201171875,-0.242431640625,-1.4038084745407104,0.8239745497703552,0.8239745497703552,100.0,164286.0,1.0
15:38:17.175700,198184.875,181464.796875,230722.234375,209748.6875,199616.90625,176545.078125,686106.3125,200365.78125,0.08154296875,0.981689453125,-0.240966796875,-1.2817381620407104,0.7934569716453552,0.7629393935203552,100.0,164287.0,1.0
15:38:17.178262,198181.9375,181457.640625,230715.515625,209755.9375,199613.6875,176520.046875,686096.5625,200377.046875,0.080322265625,0.980712890625,-0.242919921875,-1.2817381620407104,0.7934569716453552,0.8239745497703552,100.0,164288.0,1.0
15:38:17.180717,198187.203125,181462.734375,230719.90625,209762.546875,199618.4375,176521.5625,686189.9375,200381.703125,0.0810546875,0.980712890625,-0.2392578125,-1.3122557401657104,0.9155272841453552,0.8239745497703552,100.0,164289.0,1.0
15:38:17.183236,198192.484375,181471.046875,230730.0,209763.4375,199630.765625,176554.828125,686193.3125,200382.765625,0.080810546875,0.98046875,-0.2392578125,-1.3122557401657104,0.8239745497703552,0.7934569716453552,100.0,164290.0,1.0
15:38:17.187037,198198.109375,181478.109375,230733.9375,209760.765625,199632.640625,176564.84375,686127.4375,200379.46875,0.079833984375,0.979736328125,-0.241455078125,-1.2817381620407104,0.7629393935203552,0.7629393935203552,100.0,164291.0,1.0
15:38:17.187060,198194.8125,181470.421875,230728.75,209769.25,199628.53125,176539.890625,686104.625,200389.296875,0.078125,0.979248046875,-0.240966796875,-1.3732908964157104,0.7934569716453552,0.7324218153953552,100.0,164292.0,1.0
15:38:17.187063,198195.609375,181471.046875,230728.9375,209775.421875,199628.71875,176532.484375,686198.75,200395.828125,0.079345703125,0.979248046875,-0.23974609375,-1.3427733182907104,0.7934569716453552,0.7629393935203552,100.0,164293.0,1.0
15:38:17.190053,198192.84375,181473.46875,230732.515625,209770.59375,199633.546875,176554.03125,686204.25,200389.75,0.07958984375,0.980712890625,-0.24072265625,-1.3732908964157104,0.7629393935203552,0.8544921278953552,100.0,164294.0,1.0
15:38:17.190060,198187.203125,181469.53125,230728.125,209757.1875,199627.015625,176558.046875,686109.0,200376.328125,0.078857421875,0.98193359375,-0.23681640625,-1.3122557401657104,0.8239745497703552,0.7629393935203552,100.0,164295.0,1.0
15:38:17.192512,198179.0625,181456.296875,230714.71875,209750.390625,199613.78125,176527.46875,686047.875,200375.0,0.077880859375,0.982421875,-0.24072265625,-1.3122557401657104,0.7934569716453552,0.7324218153953552,100.0,164296.0,1.0
15:38:17.192521,198176.828125,181451.921875,230711.59375,209755.3125,199612.0,176512.1875,686145.0625,200380.984375,0.07666015625,0.98291015625,-0.240966796875,-1.2817381620407104,0.7019042372703552,0.7934569716453552,100.0,164297.0,1.0
15:38:17.194524,198174.59375,181455.3125,230713.5625,209753.515625,199615.84375,176533.453125,686197.5,200374.28125,0.077392578125,0.98291015625,-0.2412109375,-1.2817381620407104,0.6713866591453552,0.8239745497703552,100.0,164298.0,1.0
15:38:17.197608,198171.109375,181454.875,230712.921875,209744.125,199614.859375,176547.234375,686116.0625,200363.640625,0.077880859375,0.98193359375,-0.240966796875,-1.3732908964157104,0.6408690810203552,0.8239745497703552,100.0,164299.0,1.0
15:38:17.197615,198168.875,181448.96875,230705.328125,209739.84375,199608.78125,176526.390625,686045.625,200363.8125,0.078369140625,0.979736328125,-0.242431640625,-1.3732908964157104,0.5187987685203552,0.8239745497703552,100.0,164300.0,1.0
15:38:17.199499,198161.015625,181437.4375,230699.421875,209742.609375,199602.078125,176501.09375,686133.0625,200369.359375,0.078369140625,0.98046875,-0.242431640625,-1.4038084745407104,0.5493163466453552,0.8850097060203552,100.0,164301.0,1.0
15:38:17.228957,198158.328125,181435.90625,230700.046875,209735.71875,199600.546875,176512.453125,686214.4375,200361.140625,0.0791015625,0.98095703125,-0.24072265625,-1.4343260526657104,0.5187987685203552,0.8544921278953552,100.0,164302.0,1.0
15:38:17.228997,198157.25,181440.109375,230702.296875,209729.109375,199602.703125,176534.171875,686145.9375,200353.09375,0.08056640625,0.97998046875,-0.240478515625,-1.3427733182907104,0.5187987685203552,0.9155272841453552,100.0,164303.0,1.0
15:38:17.229006,198153.859375,181435.109375,230691.109375,209720.34375,199592.859375,176516.296875,686066.8125,200347.09375,0.080078125,0.9794921875,-0.24072265625,-1.4038084745407104,0.5187987685203552,0.9460448622703552,100.0,164304.0,1.0
15:38:17.229013,198149.390625,181425.359375,230686.203125,209727.046875,199588.125,176491.703125,686108.375,200356.21875,0.076904296875,0.98095703125,-0.239990234375,-1.3427733182907104,0.3356933295726776,1.0070799589157104,100.0,164305.0,1.0
15:38:17.229020,198151.265625,181428.9375,230689.140625,209726.078125,199589.46875,176500.46875,686204.875,200351.5625,0.0791015625,0.978271484375,-0.2412109375,-1.4343260526657104,0.4272460639476776,1.0681151151657104,100.0,164306.0,1.0
15:38:17.229027,198154.84375,181437.609375,230700.046875,209726.703125,199598.5,176528.625,686148.875,200348.4375,0.079833984375,0.98095703125,-0.242431640625,-1.4343260526657104,0.3967284858226776,1.0681151151657104,100.0,164307.0,1.0
15:38:17.229033,198155.46875,181438.59375,230696.921875,209719.28125,199592.234375,176522.015625,686067.25,200341.46875,0.0771484375,0.98193359375,-0.239501953125,-1.3122557401657104,0.3356933295726776,1.0375975370407104,100.0,164308.0,1.0
15:38:17.229040,198152.78125,181431.625,230691.46875,209730.8125,199590.359375,176497.703125,686107.75,200354.25,0.076416015625,0.98046875,-0.239013671875,-1.2512205839157104,0.3051757514476776,0.9765624403953552,100.0,164309.0,1.0
15:38:17.235824,198153.40625,181431.4375,230692.453125,209731.875,199590.71875,176498.234375,686207.875,200351.5625,0.078125,0.979736328125,-0.241455078125,-1.2512205839157104,0.2441406100988388,0.9765624403953552,100.0,164310.0,1.0
15:38:17.239204,198156.09375,181436.453125,230699.421875,209732.953125,199600.90625,176528.09375,686171.4375,200350.234375,0.077880859375,0.97900390625,-0.238525390625,-1.2817381620407104,0.1525878757238388,1.0986326932907104,100.0,164311.0,1.0
15:38:17.239272,198155.015625,181436.984375,230694.953125,209722.3125,199595.359375,176526.84375,686096.5,200340.578125,0.079345703125,0.97998046875,-0.24072265625,-1.1901854276657104,0.1220703050494194,1.0986326932907104,100.0,164312.0,1.0
15:38:17.247284,198150.546875,181426.796875,230688.4375,209726.703125,199590.359375,176498.40625,686098.375,200350.046875,0.081787109375,0.978759765625,-0.24267578125,-1.3122557401657104,0.0610351525247097,0.9155272841453552,100.0,164313.0,1.0
15:38:17.247366,198146.078125,181422.0625,230682.625,209723.03125,199584.90625,176489.46875,686196.0625,200346.109375,0.083740234375,0.977294921875,-0.242919921875,-1.1901854276657104,0.03051757626235485,0.9155272841453552,100.0,164314.0,1.0
15:38:17.257828,198146.703125,181428.046875,230686.90625,209720.265625,199592.234375,176517.359375,686173.3125,200341.90625,0.08349609375,0.97607421875,-0.24267578125,-1.1291502714157104,0.0610351525247097,1.0681151151657104,100.0,164315.0,1.0
15:38:17.257892,198148.3125,181431.71875,230685.125,209711.59375,199588.484375,176523.71875,686101.875,200333.421875,0.085205078125,0.97802734375,-0.24267578125,-1.1596678495407104,0.0610351525247097,1.0681151151657104,100.0,164316.0,1.0
15:38:17.260383,198146.796875,181425.359375,230681.375,209718.921875,199584.453125,176499.3125,686076.8125,200345.046875,0.08349609375,0.977294921875,-0.24462890625,-1.0986326932907104,0.1220703050494194,1.1291502714157104,100.0,164317.0,1.0
15:38:17.260432,198146.171875,181422.328125,230678.859375,209723.390625,199582.140625,176486.15625,686176.5,200348.703125,0.08447265625,0.978759765625,-0.242919921875,-1.0986326932907104,0.2136230319738388,1.0986326932907104,100.0,164318.0,1.0
15:38:17.267018,198151.890625,181432.515625,230685.921875,209725.625,199593.046875,176512.625,686222.4375,200349.25,0.082763671875,0.979248046875,-0.244873046875,-1.0986326932907104,0.2136230319738388,1.0375975370407104,100.0,164319.0,1.0
15:38:17.277121,198153.671875,181438.421875,230689.234375,209720.171875,199593.9375,176526.3125,686136.5625,200342.1875,0.080810546875,0.98193359375,-0.242431640625,-1.0681151151657104,0.2441406100988388,1.0070799589157104,100.0,164320.0,1.0
15:38:17.277143,198148.84375,181432.96875,230680.65625,209718.921875,199584.640625,176502.609375,686072.4375,200344.78125,0.079833984375,0.978515625,-0.24365234375,-1.0375975370407104,0.1220703050494194,1.0681151151657104,100.0,164321.0,1.0
15:38:17.277149,198145.546875,181428.140625,230676.546875,209724.46875,199580.609375,176484.375,686152.8125,200348.703125,0.07958984375,0.978759765625,-0.244873046875,-1.0070799589157104,0.2441406100988388,0.7934569716453552,100.0,164322.0,1.0
15:38:17.283441,198147.78125,181431.71875,230684.765625,209723.390625,199587.3125,176506.640625,686206.0,200345.046875,0.079833984375,0.9775390625,-0.244873046875,-1.0375975370407104,0.3051757514476776,0.8239745497703552,100.0,164323.0,1.0
15:38:17.294162,198145.453125,181432.34375,230688.34375,209716.6875,199589.109375,176523.890625,686133.4375,200336.734375,0.079345703125,0.976806640625,-0.245849609375,-1.0375975370407104,0.2136230319738388,0.7324218153953552,100.0,164324.0,1.0
15:38:17.294539,198141.515625,181426.25,230682.984375,209712.21875,199579.71875,176502.25,686068.5,200335.203125,0.079833984375,0.977294921875,-0.24658203125,-1.1291502714157104,0.2746581733226776,0.7019042372703552,100.0,164325.0,1.0
15:38:17.302574,198139.8125,181419.8125,230680.296875,209724.015625,199578.109375,176480.171875,686134.5,200346.65625,0.081787109375,0.977294921875,-0.2470703125,-1.1596678495407104,0.2136230319738388,0.6408690810203552,100.0,164326.0,1.0
15:38:17.302645,198140.890625,181423.125,230683.96875,209725.265625,199584.90625,176497.875,686203.4375,200346.390625,0.0849609375,0.979248046875,-0.248046875,-1.0986326932907104,0.1831054538488388,0.6713866591453552,100.0,164327.0,1.0
15:38:17.305187,198140.53125,181426.34375,230688.796875,209722.140625,199591.25,176522.640625,686132.9375,200341.46875,0.08447265625,0.9814453125,-0.24560546875,-1.0986326932907104,0.2746581733226776,0.6103515028953552,100.0,164328.0,1.0
15:38:17.305223,198139.375,181423.578125,230680.46875,209717.84375,199582.578125,176509.953125,686067.6875,200336.90625,0.084716796875,0.9794921875,-0.244873046875,-1.2207030057907104,0.2136230319738388,0.5798339247703552,100.0,164329.0,1.0
15:38:17.307097,198132.40625,181412.75,230670.546875,209723.125,199575.875,176481.609375,686116.125,200344.15625,0.084228515625,0.982177734375,-0.244873046875,-1.1596678495407104,0.0915527269244194,0.4577636420726776,100.0,164330.0,1.0
15:38:17.318655,198134.28125,181417.859375,230670.28125,209719.1875,199577.3125,176492.6875,686199.375,200340.390625,0.080810546875,0.982666015625,-0.24462890625,-1.1596678495407104,0.2441406100988388,0.3356933295726776,100.0,164331.0,1.0
15:38:17.321408,198138.65625,181428.5,230680.390625,209720.96875,199589.375,176525.6875,686141.875,200340.84375,0.07861328125,0.982177734375,-0.24560546875,-1.2207030057907104,0.1525878757238388,0.3356933295726776,100.0,164332.0,1.0
15:38:17.321581,198138.921875,181429.390625,230677.078125,209713.828125,199584.640625,176517.1875,686077.6875,200335.65625,0.078369140625,0.982666015625,-0.246826171875,-1.2512205839157104,0.2136230319738388,0.1220703050494194,100.0,164333.0,1.0
15:38:17.323360,198134.640625,181419.1875,230670.453125,209718.46875,199579.09375,176490.359375,686095.875,200345.21875,0.075927734375,0.98388671875,-0.245361328125,-1.2817381620407104,0.1831054538488388,0.03051757626235485,100.0,164334.0,1.0
15:38:17.335904,198134.640625,181420.09375,230670.453125,209716.0625,199577.484375,176489.03125,686190.1875,200341.734375,0.076171875,0.9833984375,-0.24462890625,-1.3427733182907104,0.1831054538488388,-0.0915527269244194,100.0,164335.0,1.0
15:38:17.338838,198137.5,181428.578125,230678.15625,209715.34375,199588.125,176519.609375,686157.8125,200340.296875,0.075439453125,0.98388671875,-0.2431640625,-1.4953612089157104,0.0,-0.1525878757238388,100.0,164336.0,1.0
15:38:17.338859,198140.71875,181432.15625,230676.890625,209709.796875,199585.359375,176522.1875,686079.125,200333.234375,0.07470703125,0.982421875,-0.242431640625,-1.4953612089157104,0.0,-0.1220703050494194,100.0,164337.0,1.0
15:38:17.341050,198138.75,181424.5625,230672.15625,209717.125,199582.40625,176497.609375,686079.125,200343.96875,0.0751953125,0.982177734375,-0.24267578125,-1.6174315214157104,-0.1220703050494194,-0.1831054538488388,100.0,164338.0,1.0
15:38:17.347645,198138.125,181422.40625,230672.0625,209716.953125,199581.859375,176491.703125,686190.0,200345.765625,0.07568359375,0.98388671875,-0.2431640625,-1.6174315214157104,-0.3051757514476776,-0.1831054538488388,100.0,164339.0,1.0
15:38:17.347672,198144.109375,181433.40625,230682.796875,209720.703125,199595.359375,176524.34375,686186.3125,200346.65625,0.07958984375,0.982177734375,-0.2431640625,-1.7395018339157104,-0.3356933295726776,-0.0610351525247097,100.0,164340.0,1.0
15:38:17.355803,198149.65625,181439.75,230687.71875,209717.484375,199599.484375,176535.25,686110.8125,200341.828125,0.07958984375,0.98193359375,-0.239013671875,-1.7089842557907104,-0.3662109076976776,0.0610351525247097,100.0,164341.0,1.0
15:38:17.362700,198146.34375,181431.71875,230681.015625,209720.171875,199594.828125,176510.296875,686075.125,200347.09375,0.07958984375,0.98291015625,-0.239501953125,-1.6784666776657104,-0.3051757514476776,0.0915527269244194,100.0,164342.0,1.0
15:38:17.362728,198136.0625,181420.453125,230668.84375,209717.84375,199581.59375,176487.953125,686172.6875,200340.578125,0.083251953125,0.9814453125,-0.240966796875,-1.6784666776657104,-0.3356933295726776,0.2441406100988388,100.0,164343.0,1.0
15:38:17.364651,198143.125,181432.0625,230681.8125,209722.046875,199594.03125,176518.4375,686205.375,200342.984375,0.082763671875,0.980712890625,-0.23974609375,-1.7395018339157104,-0.3662109076976776,0.3662109076976776,100.0,164344.0,1.0
