Timestamp,Fz,FC3,FCz,FC4,Cz,C3,C4
15:29:34.266351,198103.15625,173531.796875,238731.9375,205810.484375,198317.5625,167242.90625,686425.5,200982.515625,0.06884765625,0.992431640625,-0.21435546875,-1.1596678495407104,-0.3051757514476776,0.5493163466453552,100.0,33461.0,1.0
15:29:34.269434,198100.84375,173524.640625,238725.21875,205824.171875,198313.890625,167219.125,686431.125,200997.453125,0.06884765625,0.991455078125,-0.213134765625,-1.3122557401657104,-0.5187987685203552,0.4882812201976776,100.0,33462.0,1.0
15:29:34.269448,198098.515625,173521.96875,238721.828125,205824.078125,198310.140625,167216.09375,686504.875,200991.90625,0.070556640625,0.9912109375,-0.21484375,-1.3732908964157104,-0.6713866591453552,0.6103515028953552,100.0,33463.0,1.0
15:29:34.271300,198100.65625,173527.6875,238733.984375,205823.90625,198323.375,167245.59375,686468.5,200990.109375,0.07373046875,0.993408203125,-0.21533203125,-1.4038084745407104,-0.7934569716453552,0.6713866591453552,100.0,33464.0,1.0
15:29:34.274455,198098.328125,173525.1875,238728.4375,205808.4375,198318.359375,167243.1875,686429.0625,200979.03125,0.0751953125,0.9931640625,-0.215576171875,-1.4038084745407104,-0.9460448622703552,0.6103515028953552,100.0,33465.0,1.0
15:29:34.284507,198092.96875,173516.0625,238716.46875,205811.203125,198311.03125,167217.078125,686415.375,200988.59375,0.077880859375,0.99267578125,-0.216064453125,-1.5869139432907104,-1.0375975370407104,0.6408690810203552,100.0,33466.0,1.0
15:29:34.284587,198078.75,173502.46875,238698.5,205801.109375,198293.421875,167198.203125,686496.5625,200976.796875,0.078857421875,0.992919921875,-0.21630859375,-1.7089842557907104,-1.0070799589157104,0.7629393935203552,100.0,33467.0,1.0
15:29:34.299560,198088.140625,173515.265625,238713.6875,205808.96875,198311.75,167232.265625,686481.5625,200982.6875,0.081787109375,0.992919921875,-0.215576171875,-1.7395018339157104,-1.0375975370407104,0.7629393935203552,100.0,33468.0,1.0
15:29:34.299644,198093.5,173522.953125,238718.875,205808.171875,198315.234375,167243.1875,686436.0625,200978.578125,0.08349609375,0.994873046875,-0.214599609375,-1.8005369901657104,-1.0681151151657104,0.7629393935203552,100.0,33469.0,1.0
15:29:34.301500,198091.546875,173517.859375,238710.921875,205812.734375,198308.796875,167219.125,686413.875,200989.9375,0.082275390625,0.993408203125,-0.21337890625,-1.8615721464157104,-1.0681151151657104,0.8544921278953552,100.0,33470.0,1.0
15:29:34.304457,198091.625,173517.21875,238707.171875,205818.359375,198305.84375,167207.421875,686476.4375,200993.515625,0.081298828125,0.99267578125,-0.21533203125,-1.8920897245407104,-1.0070799589157104,1.0375975370407104,100.0,33471.0,1.0
15:29:34.304518,198086.265625,173516.328125,238706.0,205809.859375,198306.828125,167224.21875,686495.6875,200982.6875,0.0810546875,0.992431640625,-0.2138671875,-2.014159917831421,-1.0070799589157104,1.0986326932907104,100.0,33472.0,1.0
15:29:34.307054,198082.59375,173517.5,238704.484375,205797.796875,198303.25,167233.171875,686439.1875,200966.875,0.079345703125,0.9912109375,-0.21240234375,-1.9836424589157104,-1.0681151151657104,0.9460448622703552,100.0,33473.0,1.0
15:29:34.314246,198086.625,173516.421875,238704.03125,205803.703125,198300.484375,167214.84375,686405.5,200976.53125,0.08056640625,0.98828125,-0.212890625,-2.044677495956421,-1.0070799589157104,1.0070799589157104,100.0,33474.0,1.0
15:29:34.314312,198088.140625,173514.28125,238704.65625,205809.6875,198299.765625,167199.1875,686451.4375,200985.28125,0.0810546875,0.9892578125,-0.21484375,-2.014159917831421,-0.9765624403953552,0.9460448622703552,100.0,33475.0,1.0
15:29:34.341070,198094.9375,173524.296875,238717.171875,205810.3125,198310.140625,167222.4375,686501.0625,200983.765625,0.07958984375,0.989013671875,-0.21337890625,-2.105712652206421,-0.8239745497703552,0.8850097060203552,100.0,33476.0,1.0
15:29:34.341144,198099.59375,173535.28125,238726.203125,205807.71875,198317.921875,167246.40625,686451.3125,200979.65625,0.081298828125,0.989013671875,-0.212646484375,-2.105712652206421,-0.9155272841453552,0.8239745497703552,100.0,33477.0,1.0
15:29:34.367808,198099.9375,173533.953125,238718.703125,205807.625,198310.5,167230.125,686421.125,200980.90625,0.0810546875,0.988037109375,-0.211669921875,-2.166747808456421,-0.8544921278953552,0.7324218153953552,100.0,33478.0,1.0
15:29:34.370169,198100.390625,173529.390625,238716.46875,205823.015625,198310.234375,167210.90625,686446.4375,200992.53125,0.082275390625,0.9892578125,-0.210205078125,-2.166747808456421,-0.7629393935203552,0.7629393935203552,100.0,33479.0,1.0
15:29:34.373086,198108.609375,173541.453125,238725.40625,205826.5,198320.875,167232.90625,686512.9375,200993.6875,0.081298828125,0.987548828125,-0.214111328125,-2.258300542831421,-0.7934569716453552,0.6713866591453552,100.0,33480.0,1.0
15:29:34.375275,198102.453125,173539.3125,238725.765625,205814.609375,198320.25,167251.3125,686447.4375,200980.546875,0.08154296875,0.98779296875,-0.2109375,-2.136230230331421,-0.7019042372703552,0.5187987685203552,100.0,33481.0,1.0
15:29:34.377640,198100.296875,173535.203125,238716.90625,205805.125,198308.53125,167236.46875,686407.4375,200973.75,0.083984375,0.98828125,-0.214599609375,-2.166747808456421,-0.6713866591453552,0.4577636420726776,100.0,33482.0,1.0
15:29:34.380029,198099.765625,173529.5625,238714.578125,205815.671875,198308.359375,167215.015625,686422.8125,200990.734375,0.08251953125,0.987548828125,-0.2119140625,-2.227782964706421,-0.6408690810203552,0.3051757514476776,100.0,33483.0,1.0
15:29:34.382703,198103.875,173536.359375,238717.890625,205818.625,198314.25,167226.640625,686510.4375,200990.828125,0.082763671875,0.989013671875,-0.211669921875,-2.166747808456421,-0.5798339247703552,0.2746581733226776,100.0,33484.0,1.0
15:29:34.388206,198107.0,173544.859375,238726.828125,205821.40625,198325.78125,167256.5,686464.6875,200988.234375,0.08154296875,0.987060546875,-0.212890625,-2.136230230331421,-0.5798339247703552,0.2136230319738388,100.0,33485.0,1.0
15:29:34.390350,198107.71875,173545.65625,238720.390625,205815.3125,198319.4375,167250.0625,686421.3125,200982.25,0.08349609375,0.9873046875,-0.212646484375,-2.136230230331421,-0.5798339247703552,0.1525878757238388,100.0,33486.0,1.0
15:29:34.392720,198102.71875,173540.828125,238712.96875,205824.171875,198314.15625,167224.9375,686432.75,200992.265625,0.084228515625,0.98828125,-0.211669921875,-2.105712652206421,-0.3662109076976776,0.0915527269244194,100.0,33487.0,1.0
15:29:34.395101,198099.5,173546.015625,238713.78125,205819.4375,198310.59375,167223.0625,686505.1875,200986.09375,0.083984375,0.987548828125,-0.211669921875,-2.136230230331421,-0.3356933295726776,0.0,100.0,33488.0,1.0
15:29:34.397644,198105.390625,173557.8125,238731.21875,205822.828125,198328.46875,167259.1875,686476.3125,200989.84375,0.083984375,0.98583984375,-0.210205078125,-2.197265386581421,-0.2136230319738388,-0.0610351525247097,100.0,33489.0,1.0
15:29:34.400119,198101.203125,173552.90625,238722.71875,205808.703125,198320.515625,167255.78125,686428.75,200977.515625,0.083984375,0.9873046875,-0.212158203125,-2.197265386581421,-0.2136230319738388,-0.1525878757238388,100.0,33490.0,1.0
15:29:34.403118,198095.296875,173543.25,238710.828125,205808.703125,198313.0,167229.140625,686421.0625,200986.625,0.082763671875,0.990478515625,-0.212646484375,-2.044677495956421,-0.1220703050494194,-0.1220703050494194,100.0,33491.0,1.0
15:29:34.403133,198093.0625,173539.3125,238704.9375,205809.15625,198311.125,167222.34375,686492.3125,200986.359375,0.082275390625,0.98974609375,-0.213134765625,-2.014159917831421,0.0610351525247097,-0.1220703050494194,100.0,33492.0,1.0
15:29:34.405186,198090.28125,173540.5625,238710.734375,205809.515625,198318.453125,167245.6875,686476.0,200980.546875,0.080810546875,0.98876953125,-0.211181640625,-1.9531248807907104,0.0915527269244194,-0.0915527269244194,100.0,33493.0,1.0
15:29:34.410731,198087.78125,173539.21875,238708.78125,205802.0,198312.734375,167248.71875,686426.75,200968.390625,0.080322265625,0.989990234375,-0.210205078125,-2.044677495956421,0.0,-0.0610351525247097,100.0,33494.0,1.0
15:29:34.410747,198082.234375,173527.59375,238697.59375,205797.265625,198302.8125,167220.828125,686411.9375,200972.6875,0.079833984375,0.989990234375,-0.20751953125,-2.075195074081421,0.0915527269244194,-0.0610351525247097,100.0,33495.0,1.0
15:29:34.412557,198084.125,173527.78125,238698.21875,205801.46875,198305.21875,167211.984375,686481.9375,200981.625,0.076416015625,0.989501953125,-0.207275390625,-2.044677495956421,0.1220703050494194,-0.1525878757238388,100.0,33496.0,1.0
15:29:34.415035,198086.890625,173536.71875,238705.734375,205801.109375,198316.9375,167241.921875,686503.5625,200981.890625,0.0771484375,0.98876953125,-0.207275390625,-1.9836424589157104,0.1831054538488388,0.0,100.0,33497.0,1.0
15:29:34.417576,198087.25,173541.28125,238706.625,205793.6875,198317.5625,167255.25,686447.5,200972.40625,0.078857421875,0.988525390625,-0.21240234375,-1.9226073026657104,0.1831054538488388,-0.1220703050494194,100.0,33498.0,1.0
15:29:34.420635,198079.015625,173531.0,238692.859375,205787.6875,198304.5,167227.625,686413.875,200972.140625,0.078369140625,0.986328125,-0.212890625,-1.9531248807907104,0.2441406100988388,0.0610351525247097,100.0,33499.0,1.0
15:29:34.420652,198077.859375,173526.96875,238689.734375,205794.484375,198302.625,167210.375,686464.6875,200981.4375,0.07568359375,0.98974609375,-0.2119140625,-1.8920897245407104,0.0915527269244194,0.1220703050494194,100.0,33500.0,1.0
15:29:34.425078,198078.3125,173535.28125,238693.21875,205792.796875,198308.4375,167229.59375,686494.25,200977.59375,0.075439453125,0.989013671875,-0.207275390625,-1.9226073026657104,0.0610351525247097,0.0915527269244194,100.0,33501.0,1.0
15:29:34.427571,198081.96875,173544.765625,238700.375,205791.359375,198314.796875,167251.859375,686441.875,200972.5,0.0751953125,0.989013671875,-0.207275390625,-1.8920897245407104,0.0610351525247097,0.1525878757238388,100.0,33502.0,1.0
15:29:34.430069,198078.75,173537.078125,238688.65625,205786.625,198302.453125,167231.640625,686405.375,200968.296875,0.07421875,0.98779296875,-0.2109375,-1.8615721464157104,0.0610351525247097,0.2136230319738388,100.0,33503.0,1.0
15:29:34.433159,198071.875,173522.140625,238678.375,205787.515625,198293.515625,167202.234375,686438.9375,200973.578125,0.073486328125,0.989013671875,-0.20947265625,-1.8310545682907104,-0.0915527269244194,0.2746581733226776,100.0,33504.0,1.0
15:29:34.433183,198069.453125,173521.15625,238676.765625,205778.125,198291.453125,167211.625,686508.625,200964.1875,0.07177734375,0.989990234375,-0.20947265625,-1.8310545682907104,-0.03051757626235485,0.4272460639476776,100.0,33505.0,1.0
15:29:34.441345,198072.765625,173527.6875,238686.0625,205778.484375,198301.375,167237.453125,686450.8125,200961.0625,0.07470703125,0.990966796875,-0.20849609375,-1.8310545682907104,-0.0610351525247097,0.5187987685203552,100.0,33506.0,1.0
15:29:34.445727,198070.96875,173523.21875,238677.390625,205770.34375,198292.078125,167223.0625,686410.5625,200955.953125,0.0732421875,0.988037109375,-0.20751953125,-1.9226073026657104,-0.0915527269244194,0.5187987685203552,100.0,33507.0,1.0
15:29:34.445740,198068.734375,173514.546875,238672.921875,205780.71875,198289.3125,167198.03125,686437.8125,200968.65625,0.07421875,0.98779296875,-0.20849609375,-1.8920897245407104,-0.2746581733226776,0.5493163466453552,100.0,33508.0,1.0
15:29:34.455694,198073.21875,173519.640625,238676.765625,205785.015625,198293.78125,167209.75,686512.0625,200970.0,0.072265625,0.987060546875,-0.2080078125,-1.9226073026657104,-0.2746581733226776,0.5798339247703552,100.0,33509.0,1.0
15:29:34.455746,198082.421875,173535.46875,238696.796875,205792.703125,198312.640625,167247.65625,686466.0,200973.65625,0.07275390625,0.986328125,-0.20751953125,-1.8920897245407104,-0.3356933295726776,0.6408690810203552,100.0,33510.0,1.0
15:29:34.458020,198081.53125,173534.921875,238694.375,205781.609375,198302.890625,167239.0625,686416.75,200964.0,0.07177734375,0.986083984375,-0.20849609375,-1.8615721464157104,-0.3356933295726776,0.6103515028953552,100.0,33511.0,1.0
15:29:34.461422,198080.546875,173529.203125,238691.34375,205791.0,198302.0,167214.75,686418.4375,200980.28125,0.07275390625,0.984375,-0.210693359375,-1.8005369901657104,-0.3967284858226776,0.6713866591453552,100.0,33512.0,1.0
15:29:34.476971,198082.421875,173530.8125,238690.359375,205794.125,198303.703125,167217.96875,686501.5,200981.0,0.0712890625,0.985595703125,-0.209716796875,-1.7700194120407104,-0.4577636420726776,0.7324218153953552,100.0,33513.0,1.0
15:29:34.477000,198084.296875,173537.25,238697.953125,205796.359375,198314.609375,167247.296875,686479.6875,200978.3125,0.073974609375,0.98779296875,-0.210693359375,-1.7089842557907104,-0.4577636420726776,0.7629393935203552,100.0,33514.0,1.0
15:29:34.479380,198080.8125,173532.96875,238688.390625,205785.640625,198305.9375,167243.1875,686426.9375,200964.8125,0.073974609375,0.98828125,-0.210693359375,-1.6784666776657104,-0.4882812201976776,0.7629393935203552,100.0,33515.0,1.0
15:29:34.480206,198077.140625,173524.375,238681.953125,205801.28125,198301.375,167217.703125,686414.125,200978.21875,0.075439453125,0.986328125,-0.21240234375,-1.6174315214157104,-0.5798339247703552,0.8239745497703552,100.0,33516.0,1.0
15:29:34.485422,198079.203125,173525.90625,238683.296875,205821.3125,198302.890625,167212.515625,686496.875,200983.765625,0.0751953125,0.9873046875,-0.212646484375,-1.6479490995407104,-0.5493163466453552,0.8544921278953552,100.0,33517.0,1.0
15:29:34.487631,198075.453125,173524.734375,238685.625,205816.03125,198307.90625,167232.453125,686483.625,200977.15625,0.075927734375,0.98876953125,-0.209228515625,-1.5563963651657104,-0.6408690810203552,0.8850097060203552,100.0,33518.0,1.0
15:29:34.491896,198076.515625,173527.6875,238685.890625,205803.15625,198305.9375,167240.765625,686430.9375,200967.140625,0.07763671875,0.989013671875,-0.206787109375,-1.5563963651657104,-0.5798339247703552,0.9155272841453552,100.0,33519.0,1.0
15:29:34.491909,198078.390625,173525.0,238680.25,205803.515625,198301.640625,167221.453125,686407.875,200977.59375,0.075927734375,0.989990234375,-0.20751953125,-1.4953612089157104,-0.6103515028953552,1.0070799589157104,100.0,33520.0,1.0
15:29:34.501310,198077.234375,173521.34375,238677.921875,205804.234375,198300.03125,167209.203125,686468.5,200982.0625,0.076171875,0.99072265625,-0.208740234375,-1.6174315214157104,-0.7324218153953552,0.8850097060203552,100.0,33521.0,1.0
15:29:34.504494,198080.8125,173528.140625,238686.78125,205802.625,198311.484375,167233.796875,686517.125,200981.171875,0.076904296875,0.989013671875,-0.20849609375,-1.6479490995407104,-0.5798339247703552,1.0070799589157104,100.0,33522.0,1.0
15:29:34.504516,198082.59375,173532.0625,238689.90625,205795.65625,198313.265625,167246.75,686453.3125,200971.78125,0.0771484375,0.987060546875,-0.207763671875,-1.5563963651657104,-0.6103515028953552,1.0375975370407104,100.0,33523.0,1.0
15:29:34.507624,198082.875,173529.390625,238683.46875,205794.3125,198306.390625,167227.359375,686408.625,200975.359375,0.077392578125,0.987548828125,-0.20654296875,-1.5869139432907104,-0.6713866591453552,0.9765624403953552,100.0,33524.0,1.0
15:29:34.528179,198081.96875,173528.046875,238682.3125,205800.5625,198304.328125,167210.90625,686456.625,200983.59375,0.0791015625,0.98779296875,-0.209228515625,-1.6174315214157104,-0.7019042372703552,0.9765624403953552,100.0,33525.0,1.0
15:29:34.528205,198085.546875,173535.015625,238690.625,205802.0,198311.03125,167231.109375,686513.8125,200982.515625,0.07958984375,0.988037109375,-0.206787109375,-1.5869139432907104,-0.6713866591453552,0.9765624403953552,100.0,33526.0,1.0
15:29:34.530115,198085.28125,173536.1875,238694.109375,205795.203125,198314.34375,167247.203125,686452.5625,200974.375,0.08056640625,0.986572265625,-0.209228515625,-1.5869139432907104,-0.6103515028953552,0.9765624403953552,100.0,33527.0,1.0
15:29:34.533116,198077.765625,173525.453125,238679.453125,205782.328125,198300.484375,167222.796875,686412.875,200967.671875,0.079345703125,0.98779296875,-0.208740234375,-1.5563963651657104,-0.5798339247703552,0.8850097060203552,100.0,33528.0,1.0
15:29:34.533130,198081.078125,173523.484375,238680.703125,205796.359375,198303.53125,167206.53125,686446.625,200987.796875,0.079345703125,0.987060546875,-0.209228515625,-1.5869139432907104,-0.5187987685203552,0.8239745497703552,100.0,33529.0,1.0
15:29:34.535123,198086.171875,173531.890625,238687.9375,205795.5625,198310.765625,167226.1875,686490.75,200987.875,0.078369140625,0.987548828125,-0.208251953125,-1.5563963651657104,-0.5187987685203552,0.8850097060203552,100.0,33530.0,1.0
15:29:34.537561,198083.9375,173535.734375,238693.484375,205789.921875,198316.125,167251.40625,686431.5625,200978.484375,0.079345703125,0.988037109375,-0.2109375,-1.4953612089157104,-0.4577636420726776,0.8239745497703552,100.0,33531.0,1.0
15:29:34.541311,198080.546875,173531.171875,238685.625,205780.265625,198305.765625,167238.171875,686401.4375,200970.265625,0.080078125,0.988525390625,-0.208984375,-1.5563963651657104,-0.3967284858226776,0.7019042372703552,100.0,33532.0,1.0
15:29:34.548379,198077.140625,173523.578125,238682.125,205792.15625,198303.171875,167212.609375,686428.625,200983.59375,0.078857421875,0.9892578125,-0.21044921875,-1.4343260526657104,-0.3051757514476776,0.7019042372703552,100.0,33533.0,1.0
15:29:34.548405,198078.125,173527.234375,238683.65625,205795.734375,198303.53125,167219.3125,686508.3125,200978.3125,0.080078125,0.988525390625,-0.213623046875,-1.4953612089157104,-0.2746581733226776,0.7324218153953552,100.0,33534.0,1.0
15:29:34.550109,198084.125,173536.984375,238696.078125,205799.765625,198317.296875,167252.125,686458.9375,200978.484375,0.07958984375,0.987548828125,-0.21240234375,-1.4343260526657104,-0.3051757514476776,0.7324218153953552,100.0,33535.0,1.0
15:29:34.565752,198088.59375,173542.265625,238695.71875,205796.359375,198314.515625,167251.859375,686427.3125,200974.015625,0.07958984375,0.9873046875,-0.21044921875,-1.4648436307907104,-0.2441406100988388,0.7324218153953552,100.0,33536.0,1.0
15:29:34.565773,198087.25,173537.96875,238692.765625,205805.484375,198312.546875,167229.765625,686420.25,200986.359375,0.081298828125,0.986083984375,-0.208740234375,-1.4648436307907104,-0.2136230319738388,0.7019042372703552,100.0,33537.0,1.0
15:29:34.567850,198089.125,173540.203125,238694.46875,205806.828125,198312.546875,167229.859375,686495.3125,200984.484375,0.079345703125,0.987060546875,-0.20654296875,-1.4343260526657104,-0.1525878757238388,0.6408690810203552,100.0,33538.0,1.0
15:29:34.570119,198093.0625,173547.359375,238706.625,205809.328125,198325.515625,167260.53125,686484.625,200983.140625,0.079345703125,0.987548828125,-0.211181640625,-1.4953612089157104,-0.0915527269244194,0.7019042372703552,100.0,33539.0,1.0
15:29:34.572608,198094.671875,173551.375,238704.578125,205802.0,198322.03125,167263.5625,686426.5,200974.203125,0.078857421875,0.988525390625,-0.208984375,-1.4648436307907104,-0.03051757626235485,0.6408690810203552,100.0,33540.0,1.0
15:29:34.582540,198089.578125,173542.796875,238694.640625,205805.125,198313.53125,167236.828125,686417.25,200982.15625,0.078857421875,0.98779296875,-0.2109375,-1.4038084745407104,-0.0610351525247097,0.6408690810203552,100.0,33541.0,1.0
15:29:34.586912,198083.84375,173537.796875,238686.421875,205802.0,198306.109375,167224.9375,686496.5,200978.21875,0.078857421875,0.98681640625,-0.210693359375,-1.4038084745407104,-0.0610351525247097,0.6408690810203552,100.0,33542.0,1.0
15:29:34.586924,198087.421875,173546.8125,238697.15625,205803.078125,198318.640625,167254.984375,686475.5,200977.6875,0.080078125,0.98828125,-0.20849609375,-1.4953612089157104,-0.03051757626235485,0.6408690810203552,100.0,33543.0,1.0
15:29:34.588808,198092.703125,173554.0625,238703.953125,205797.96875,198322.03125,167267.328125,686444.0,200972.234375,0.080810546875,0.990234375,-0.20947265625,-1.4953612089157104,-0.0610351525247097,0.6103515028953552,100.0,33544.0,1.0
15:29:34.600712,198090.015625,173546.375,238694.734375,205797.96875,198315.0625,167241.390625,686422.5625,200978.765625,0.078857421875,0.988525390625,-0.2109375,-1.5258787870407104,0.0610351525247097,0.7019042372703552,100.0,33545.0,1.0
15:29:34.600727,198085.015625,173538.765625,238687.046875,205795.921875,198307.1875,167223.328125,686478.1875,200979.65625,0.0791015625,0.988037109375,-0.210205078125,-1.5869139432907104,0.2136230319738388,0.7019042372703552,100.0,33546.0,1.0
15:29:34.603212,198083.5,173541.09375,238690.359375,205792.15625,198311.921875,167243.890625,686501.3125,200973.578125,0.078369140625,0.98876953125,-0.210693359375,-1.6174315214157104,0.1220703050494194,0.6408690810203552,100.0,33547.0,1.0
15:29:34.603225,198087.703125,173549.328125,238696.609375,205791.09375,198317.296875,167262.5,686446.9375,200968.03125,0.078857421875,0.98779296875,-0.2109375,-1.6174315214157104,0.1220703050494194,0.6713866591453552,100.0,33548.0,1.0
15:29:34.612582,198091.8125,173549.234375,238694.640625,205797.796875,198315.765625,167248.453125,686420.25,200979.390625,0.078125,0.9873046875,-0.209716796875,-1.5258787870407104,0.1525878757238388,0.6408690810203552,100.0,33549.0,1.0
15:29:34.619444,198080.453125,173534.578125,238682.3125,205794.578125,198303.4375,167221.546875,686458.875,200976.703125,0.078369140625,0.9873046875,-0.211181640625,-1.5258787870407104,0.1831054538488388,0.6408690810203552,100.0,33550.0,1.0
15:29:34.619469,198079.734375,173535.734375,238683.109375,205789.21875,198306.390625,167237.453125,686511.4375,200968.03125,0.078369140625,0.989013671875,-0.208251953125,-1.4953612089157104,0.1525878757238388,0.7629393935203552,100.0,33551.0,1.0
15:29:34.626107,198080.625,173540.828125,238687.765625,205785.90625,198312.546875,167258.015625,686448.0625,200961.6875,0.078369140625,0.989990234375,-0.210205078125,-1.4648436307907104,0.1831054538488388,0.8239745497703552,100.0,33552.0,1.0
15:29:34.626129,198079.734375,173539.671875,238679.890625,205780.71875,198304.421875,167243.1875,686406.0,200960.703125,0.078857421875,0.990966796875,-0.21142578125,-1.4953612089157104,0.1220703050494194,0.7629393935203552,100.0,33553.0,1.0
15:29:34.631369,198074.28125,173529.03125,238673.640625,205787.25,198299.140625,167218.59375,686430.4375,200970.359375,0.07470703125,0.98828125,-0.2119140625,-1.4343260526657104,0.0915527269244194,0.7019042372703552,100.0,33554.0,1.0
15:29:34.639603,198073.484375,173531.4375,238674.4375,205785.1875,198301.375,167229.40625,686507.75,200966.25,0.0771484375,0.987060546875,-0.209228515625,-1.5563963651657104,0.1525878757238388,0.8239745497703552,100.0,33555.0,1.0
15:29:34.639621,198079.921875,173541.90625,238687.765625,205788.59375,198314.15625,167258.734375,686450.1875,200966.875,0.0771484375,0.988525390625,-0.2099609375,-1.4038084745407104,0.0915527269244194,0.7019042372703552,100.0,33556.0,1.0
15:29:34.642014,198083.671875,173542.796875,238685.703125,205784.390625,198309.96875,167251.234375,686413.4375,200965.890625,0.076416015625,0.988525390625,-0.209716796875,-1.4953612089157104,0.1525878757238388,0.6408690810203552,100.0,33557.0,1.0
15:29:34.642028,198089.125,173544.140625,238691.609375,205803.078125,198317.46875,167236.296875,686443.5,200987.515625,0.077880859375,0.98828125,-0.2119140625,-1.4648436307907104,0.1525878757238388,0.5798339247703552,100.0,33558.0,1.0
15:29:34.654144,198083.3125,173538.328125,238684.640625,205796.453125,198311.484375,167233.703125,686509.5625,200977.15625,0.078369140625,0.98876953125,-0.208740234375,-1.4343260526657104,0.03051757626235485,0.7629393935203552,100.0,33559.0,1.0
15:29:34.661250,198075.171875,173532.34375,238680.796875,205785.71875,198308.796875,167250.25,686463.0625,200962.3125,0.079345703125,0.98876953125,-0.209228515625,-1.3732908964157104,0.03051757626235485,0.8239745497703552,100.0,33560.0,1.0
15:29:34.661265,198083.046875,173542.625,238686.328125,205789.03125,198311.75,167253.640625,686419.6875,200963.5625,0.079833984375,0.988525390625,-0.2099609375,-1.4038084745407104,0.1220703050494194,0.8850097060203552,100.0,33561.0,1.0
15:29:34.661267,198083.3125,173539.21875,238685.078125,205802.171875,198311.296875,167233.25,686428.625,200981.53125,0.079833984375,0.985595703125,-0.209228515625,-1.4038084745407104,0.0,0.8239745497703552,100.0,33562.0,1.0
15:29:34.663775,198086.53125,173540.46875,238684.28125,205803.34375,198309.421875,167234.953125,686506.4375,200980.1875,0.0791015625,0.986572265625,-0.209716796875,-1.3732908964157104,0.0,0.8239745497703552,100.0,33563.0,1.0
15:29:34.670067,198094.40625,173550.3125,238698.40625,205809.328125,198325.25,167267.328125,686486.375,200981.890625,0.077880859375,0.98681640625,-0.210205078125,-1.4038084745407104,0.03051757626235485,0.7934569716453552,100.0,33564.0,1.0
15:29:34.678151,198089.578125,173545.5625,238690.796875,205796.90625,198314.4375,167261.234375,686428.4375,200967.578125,0.078369140625,0.9873046875,-0.21044921875,-1.3427733182907104,0.0610351525247097,0.7019042372703552,100.0,33565.0,1.0
15:29:34.678164,198082.15625,173532.15625,238677.578125,205800.828125,198302.265625,167228.609375,686403.5,200973.75,0.0791015625,0.988037109375,-0.209228515625,-1.3732908964157104,0.0915527269244194,0.6713866591453552,100.0,33566.0,1.0
15:29:34.715701,198076.34375,173525.90625,238668.625,205798.6875,198293.953125,167213.3125,686477.0625,200969.28125,0.078125,0.988525390625,-0.20947265625,-1.3427733182907104,0.0915527269244194,0.7324218153953552,100.0,33567.0,1.0
15:29:34.715716,198087.875,173541.71875,238687.234375,205806.296875,198313.453125,167248.546875,686491.1875,200977.328125,0.076904296875,0.988037109375,-0.208740234375,-1.3732908964157104,0.0,0.7934569716453552,100.0,33568.0,1.0
15:29:34.738828,198092.703125,173548.25,238692.140625,205801.734375,198316.84375,167261.515625,686442.125,200973.21875,0.075927734375,0.989013671875,-0.2109375,-1.4038084745407104,0.0,0.7934569716453552,100.0,33569.0,1.0
15:29:34.743197,198094.046875,173545.484375,238686.6875,205806.921875,198313.265625,167241.390625,686418.1875,200983.671875,0.076416015625,0.98779296875,-0.212890625,-1.4953612089157104,-0.0610351525247097,0.6713866591453552,100.0,33570.0,1.0
15:29:34.743207,198093.5,173544.578125,238683.734375,205811.5625,198312.109375,167230.65625,686479.6875,200986.71875,0.078369140625,0.9853515625,-0.2138671875,-1.4343260526657104,0.0,0.5798339247703552,100.0,33571.0,1.0
15:29:34.743209,198093.15625,173550.9375,238689.1875,205808.4375,198318.546875,167254.890625,686506.6875,200981.0,0.079345703125,0.987548828125,-0.21240234375,-1.4343260526657104,0.0610351525247097,0.5493163466453552,100.0,33572.0,1.0
15:29:34.743211,198103.078125,173562.015625,238700.375,205809.859375,198329.625,167279.484375,686463.75,200981.796875,0.07763671875,0.98974609375,-0.21142578125,-1.5258787870407104,-0.03051757626235485,0.6713866591453552,100.0,33573.0,1.0
15:29:34.746255,198108.703125,173562.203125,238699.75,205817.828125,198330.53125,167264.1875,686436.75,200993.515625,0.076171875,0.991455078125,-0.20849609375,-1.4648436307907104,-0.03051757626235485,0.6103515028953552,100.0,33574.0,1.0
15:29:34.746258,198101.375,173550.671875,238690.09375,205822.296875,198323.90625,167239.25,686470.1875,200999.234375,0.077880859375,0.98974609375,-0.2099609375,-1.5563963651657104,0.1831054538488388,0.5798339247703552,100.0,33575.0,1.0
15:29:34.746260,198099.671875,173554.234375,238692.328125,205815.40625,198326.40625,167257.9375,686519.0,200992.4375,0.076904296875,0.98828125,-0.210693359375,-1.5869139432907104,0.03051757626235485,0.6103515028953552,100.0,33576.0,1.0
15:29:34.748899,198091.625,173550.9375,238690.890625,205802.625,198323.46875,167271.796875,686457.875,200978.765625,0.080078125,0.98876953125,-0.21240234375,-1.5563963651657104,0.0610351525247097,0.4272460639476776,100.0,33577.0,1.0
15:29:34.755086,198078.046875,173535.734375,238670.515625,205786.984375,198302.984375,167243.265625,686400.5625,200967.21875,0.077880859375,0.989501953125,-0.212158203125,-1.5258787870407104,0.0,0.5798339247703552,100.0,33578.0,1.0
15:29:34.757555,198077.0625,173529.5625,238668.0,205798.15625,198300.75,167221.640625,686446.0,200980.015625,0.07763671875,0.989013671875,-0.21142578125,-1.5563963651657104,-0.1220703050494194,0.5798339247703552,100.0,33579.0,1.0
15:29:34.760148,198082.875,173535.015625,238672.921875,205798.515625,198305.9375,167235.21875,686515.6875,200976.703125,0.078369140625,0.989013671875,-0.2138671875,-1.3732908964157104,-0.03051757626235485,0.5798339247703552,100.0,33580.0,1.0
15:29:34.762551,198092.171875,173547.796875,238688.125,205802.71875,198322.390625,167268.390625,686460.8125,200979.203125,0.079345703125,0.989501953125,-0.20947265625,-1.5258787870407104,-0.1831054538488388,0.5798339247703552,100.0,33581.0,1.0
15:29:34.765157,198086.984375,173541.453125,238675.15625,205792.609375,198310.140625,167253.28125,686412.25,200968.65625,0.076416015625,0.989013671875,-0.210693359375,-1.4953612089157104,-0.1525878757238388,0.6408690810203552,100.0,33582.0,1.0
15:29:34.767583,198077.40625,173527.859375,238664.703125,205795.734375,198300.390625,167224.140625,686422.8125,200974.296875,0.077880859375,0.988037109375,-0.212158203125,-1.4953612089157104,-0.1831054538488388,0.6408690810203552,100.0,33583.0,1.0
15:29:34.770637,198092.171875,173544.859375,238680.171875,205806.296875,198317.203125,167245.5,686516.875,200985.46875,0.07763671875,0.986328125,-0.2109375,-1.4648436307907104,-0.1831054538488388,0.6713866591453552,100.0,33584.0,1.0
15:29:34.772620,198086.4375,173540.921875,238679.984375,205801.546875,198318.453125,167260.171875,686467.8125,200975.71875,0.076416015625,0.9892578125,-0.212158203125,-1.4953612089157104,-0.1831054538488388,0.6713866591453552,100.0,33585.0,1.0
15:29:34.775049,198086.265625,173542.265625,238674.984375,205795.734375,198311.03125,167254.984375,686430.0625,200967.5,0.076904296875,0.98779296875,-0.212646484375,-1.3732908964157104,-0.3051757514476776,0.7019042372703552,100.0,33586.0,1.0
15:29:34.777549,198083.21875,173535.734375,238668.359375,205805.03125,198306.203125,167230.9375,686426.125,200979.75,0.07666015625,0.989013671875,-0.21240234375,-1.4953612089157104,-0.3967284858226776,0.7019042372703552,100.0,33587.0,1.0
15:29:34.780703,198082.234375,173534.296875,238663.625,205802.71875,198303.171875,167227.796875,686504.1875,200976.4375,0.07568359375,0.990478515625,-0.2109375,-1.5563963651657104,-0.3662109076976776,0.6103515028953552,100.0,33588.0,1.0
15:29:34.780714,198083.765625,173538.953125,238671.140625,205797.609375,198313.8125,167255.96875,686482.5625,200973.578125,0.075439453125,0.988037109375,-0.208984375,-1.5258787870407104,-0.4272460639476776,0.6408690810203552,100.0,33589.0,1.0
15:29:34.789192,198083.765625,173538.953125,238669.078125,205787.515625,198308.796875,167256.234375,686422.75,200962.671875,0.0771484375,0.98828125,-0.212646484375,-1.5258787870407104,-0.4882812201976776,0.5187987685203552,100.0,33590.0,1.0
15:29:34.789211,198077.5,173527.15625,238659.515625,205791.53125,198300.578125,167227.0,686409.5,200970.71875,0.077392578125,0.989013671875,-0.211181640625,-1.5258787870407104,-0.5187987685203552,0.5187987685203552,100.0,33591.0,1.0
15:29:34.789215,198069.09375,173516.78125,238649.765625,205788.59375,198290.296875,167209.5625,686481.3125,200965.703125,0.079833984375,0.987060546875,-0.2109375,-1.5869139432907104,-0.4577636420726776,0.3356933295726776,100.0,33592.0,1.0
15:29:34.789486,198077.5,173530.546875,238663.0,205792.796875,198307.28125,167245.234375,686506.3125,200969.8125,0.080078125,0.986572265625,-0.2099609375,-1.4953612089157104,-0.3356933295726776,0.3051757514476776,100.0,33593.0,1.0
15:29:34.789498,198084.125,173540.109375,238667.296875,205791.265625,198311.75,167261.59375,686439.375,200965.4375,0.080810546875,0.98779296875,-0.213623046875,-1.4343260526657104,-0.3662109076976776,0.2746581733226776,100.0,33594.0,1.0
15:29:34.799380,198077.40625,173530.375,238654.765625,205789.21875,198299.328125,167235.3125,686408.3125,200968.75,0.08203125,0.98486328125,-0.212890625,-1.4953612089157104,-0.3051757514476776,0.2746581733226776,100.0,33595.0,1.0
15:29:34.799397,198073.84375,173526.34375,238649.671875,205791.09375,198294.046875,167220.109375,686465.75,200973.484375,0.08203125,0.987548828125,-0.2099609375,-1.4648436307907104,-0.2441406100988388,0.2746581733226776,100.0,33596.0,1.0
15:29:34.805806,198076.703125,173532.78125,238656.46875,205789.84375,198302.265625,167243.625,686505.0625,200970.890625,0.08349609375,0.991455078125,-0.2099609375,-1.6174315214157104,-0.1831054538488388,0.3051757514476776,100.0,33597.0,1.0
15:29:34.807544,198077.5,173535.828125,238660.5,205783.84375,198304.234375,167258.828125,686449.3125,200961.765625,0.08349609375,0.99365234375,-0.21044921875,-1.6479490995407104,-0.1525878757238388,0.3051757514476776,100.0,33598.0,1.0
15:29:34.810031,198078.484375,173533.3125,238655.046875,205786.703125,198297.796875,167241.390625,686414.125,200966.953125,0.081787109375,0.99267578125,-0.211181640625,-1.7089842557907104,-0.0610351525247097,0.4882812201976776,100.0,33599.0,1.0
15:29:34.813806,198077.765625,173530.015625,238651.828125,205797.796875,198294.9375,167224.5,686459.75,200976.53125,0.079345703125,0.992431640625,-0.21240234375,-1.7700194120407104,-0.0610351525247097,0.4882812201976776,100.0,33600.0,1.0
15:29:34.821360,198079.296875,173534.84375,238657.1875,205797.34375,198300.75,167242.640625,686515.875,200972.234375,0.079833984375,0.990966796875,-0.212158203125,-1.8310545682907104,0.03051757626235485,0.6103515028953552,100.0,33601.0,1.0
15:29:34.850827,198080.984375,173539.671875,238666.65625,205792.875,198308.625,167264.375,686452.4375,200966.421875,0.078369140625,0.987060546875,-0.21044921875,-1.7700194120407104,-0.0610351525247097,0.4577636420726776,100.0,33602.0,1.0
15:29:34.850906,198078.578125,173534.578125,238657.546875,205786.4375,198299.59375,167245.5,686410.5,200962.671875,0.0771484375,0.986083984375,-0.212158203125,-1.8920897245407104,-0.03051757626235485,0.3662109076976776,100.0,33603.0,1.0
15:29:34.853252,198078.75,173529.296875,238656.46875,205798.875,198298.421875,167224.140625,686437.75,200977.15625,0.076171875,0.986083984375,-0.211669921875,-1.8005369901657104,0.0,0.3051757514476776,100.0,33604.0,1.0
15:29:34.853415,198077.234375,173527.6875,238654.328125,205798.15625,198296.546875,167230.21875,686514.5625,200966.6875,0.0771484375,0.987060546875,-0.21240234375,-1.7395018339157104,0.0915527269244194,0.2441406100988388,100.0,33605.0,1.0
15:29:34.855077,198082.515625,173536.890625,238668.0,205800.203125,198310.3125,167260.96875,686460.625,200967.578125,0.078125,0.987060546875,-0.212158203125,-1.7089842557907104,0.1220703050494194,0.2746581733226776,100.0,33606.0,1.0
15:29:34.860327,198080.09375,173534.03125,238661.5625,205792.15625,198302.265625,167250.78125,686419.25,200961.765625,0.07666015625,0.98974609375,-0.217041015625,-1.6784666776657104,0.1220703050494194,0.3356933295726776,100.0,33607.0,1.0
15:29:34.863359,198075.453125,173524.5625,238654.140625,205803.15625,198297.359375,167224.046875,686444.1875,200972.6875,0.079345703125,0.98974609375,-0.21435546875,-1.6784666776657104,0.0610351525247097,0.4272460639476776,100.0,33608.0,1.0
15:29:34.866977,198072.234375,173523.21875,238647.265625,205797.171875,198292.265625,167224.40625,686505.9375,200964.8125,0.080322265625,0.9921875,-0.213623046875,-1.7089842557907104,0.1525878757238388,0.4272460639476776,100.0,33609.0,1.0
15:29:34.867720,198072.3125,173527.15625,238654.0625,205790.109375,198300.484375,167251.234375,686457.4375,200959.984375,0.080322265625,0.99365234375,-0.21044921875,-1.7700194120407104,0.1525878757238388,0.4272460639476776,100.0,33610.0,1.0
15:29:34.870120,198073.03125,173528.046875,238650.578125,205776.96875,198296.28125,167248.09375,686420.25,200952.5625,0.080078125,0.993408203125,-0.2109375,-1.8615721464157104,0.2136230319738388,0.4272460639476776,100.0,33611.0,1.0
15:29:34.872849,198073.484375,173522.234375,238647.265625,205786.796875,198294.3125,167225.5625,686425.0625,200968.484375,0.080322265625,0.99365234375,-0.211669921875,-1.8310545682907104,0.2441406100988388,0.4272460639476776,100.0,33612.0,1.0
15:29:34.875731,198071.421875,173520.09375,238643.6875,205787.6875,198290.03125,167219.9375,686490.5625,200964.1875,0.07666015625,0.99560546875,-0.2119140625,-1.8005369901657104,0.2746581733226776,0.3051757514476776,100.0,33613.0,1.0
15:29:34.875759,198070.703125,173524.640625,238649.9375,205783.21875,198298.0625,167245.59375,686474.0625,200957.390625,0.07568359375,0.994384765625,-0.208984375,-1.8615721464157104,0.1831054538488388,0.2441406100988388,100.0,33614.0,1.0
15:29:34.877648,198072.234375,173527.421875,238648.421875,205775.4375,198294.5,167249.96875,686425.75,200948.359375,0.0732421875,0.992919921875,-0.207275390625,-1.8920897245407104,0.1831054538488388,0.1831054538488388,100.0,33615.0,1.0
15:29:34.880734,198073.65625,173523.21875,238643.953125,205784.828125,198290.921875,167226.90625,686409.5625,200961.5,0.069091796875,0.9921875,-0.21044921875,-1.8920897245407104,0.0915527269244194,0.2136230319738388,100.0,33616.0,1.0
15:29:34.880815,198077.0625,173526.078125,238646.90625,205790.203125,198292.96875,167221.8125,686488.0625,200967.140625,0.068603515625,0.98974609375,-0.211181640625,-1.9531248807907104,0.03051757626235485,0.1525878757238388,100.0,33617.0,1.0
15:29:34.888222,198078.9375,173533.140625,238656.828125,205793.140625,198304.15625,167250.515625,686482.8125,200964.71875,0.068115234375,0.989990234375,-0.20654296875,-1.9531248807907104,-0.0915527269244194,0.1525878757238388,100.0,33618.0,1.0
15:29:34.892228,198079.375,173535.640625,238657.0,205785.453125,198302.984375,167260.703125,686431.125,200953.8125,0.06982421875,0.99072265625,-0.20458984375,-1.9531248807907104,-0.2136230319738388,0.1220703050494194,100.0,33619.0,1.0
15:29:34.892326,198078.9375,173529.921875,238651.015625,205784.390625,198298.703125,167238.171875,686408.3125,200961.765625,0.07275390625,0.9912109375,-0.20458984375,-2.044677495956421,-0.3356933295726776,0.2441406100988388,100.0,33620.0,1.0
15:29:34.901927,198076.25,173523.578125,238649.046875,205787.96875,198296.546875,167221.71875,686475.5625,200968.125,0.07470703125,0.9931640625,-0.2041015625,-2.014159917831421,-0.2746581733226776,0.2441406100988388,100.0,33621.0,1.0
15:29:34.910237,198083.5,173533.859375,238659.6875,205790.203125,198306.75,167248.8125,686502.0625,200969.109375,0.0751953125,0.98974609375,-0.20458984375,-2.044677495956421,-0.3356933295726776,0.3051757514476776,100.0,33622.0,1.0
15:29:34.910330,198090.5625,173542.890625,238669.34375,205790.109375,198313.53125,167268.75,686437.1875,200966.328125,0.076171875,0.9892578125,-0.2041015625,-2.105712652206421,-0.3662109076976776,0.3662109076976776,100.0,33623.0,1.0
15:29:34.910518,198085.546875,173533.5,238657.453125,205787.6875,198302.359375,167243.265625,686392.4375,200966.421875,0.080078125,0.987548828125,-0.207275390625,-2.044677495956421,-0.3662109076976776,0.4882812201976776,100.0,33624.0,1.0
15:29:34.912683,198088.59375,173531.625,238658.34375,205801.8125,198304.328125,167228.34375,686437.5625,200981.703125,0.081298828125,0.98974609375,-0.2060546875,-2.075195074081421,-0.3662109076976776,0.4882812201976776,100.0,33625.0,1.0
15:29:34.915471,198086.625,173532.15625,238658.171875,205795.203125,198304.78125,167241.84375,686514.8125,200973.484375,0.08154296875,0.987548828125,-0.208740234375,-2.075195074081421,-0.2746581733226776,0.5493163466453552,100.0,33626.0,1.0
15:29:34.922692,198094.484375,173543.25,238669.96875,205797.96875,198315.0625,167269.203125,686457.625,200972.59375,0.080810546875,0.988525390625,-0.205810546875,-2.105712652206421,-0.2746581733226776,0.7019042372703552,100.0,33627.0,1.0
15:29:34.930783,198097.625,173544.765625,238665.6875,205798.59375,198310.046875,167256.59375,686407.6875,200975.1875,0.08154296875,0.989501953125,-0.204345703125,-2.044677495956421,-0.2746581733226776,0.8850097060203552,100.0,33628.0,1.0
15:29:34.930850,198097.53125,173540.734375,238664.15625,205810.484375,198310.046875,167236.921875,686438.0,200990.5625,0.080322265625,0.98974609375,-0.207275390625,-2.075195074081421,-0.1831054538488388,1.0375975370407104,100.0,33629.0,1.0
15:29:34.933822,198098.25,173544.40625,238665.765625,205804.859375,198310.59375,167247.921875,686518.75,200983.671875,0.080078125,0.98974609375,-0.205078125,-2.136230230331421,-0.1220703050494194,1.1901854276657104,100.0,33630.0,1.0
15:29:34.933916,198099.234375,173549.140625,238673.546875,205801.546875,198318.90625,167272.59375,686453.75,200979.5625,0.0810546875,0.989501953125,-0.20263671875,-2.105712652206421,0.0,1.2512205839157104,100.0,33631.0,1.0
15:29:34.942648,198098.15625,173544.578125,238663.171875,205792.25,198308.796875,167259.8125,686418.0625,200972.953125,0.080810546875,0.989501953125,-0.204345703125,-2.075195074081421,-0.03051757626235485,1.3427733182907104,100.0,33632.0,1.0
15:29:34.950714,198090.640625,173531.890625,238654.421875,205798.421875,198301.015625,167230.65625,686414.75,200983.234375,0.080810546875,0.989501953125,-0.20458984375,-2.044677495956421,0.03051757626235485,1.4038084745407104,100.0,33633.0,1.0
15:29:34.950734,198082.421875,173526.34375,238644.84375,205789.296875,198292.703125,167227.09375,686494.4375,200971.078125,0.076904296875,0.988525390625,-0.20263671875,-2.014159917831421,0.0610351525247097,1.5258787870407104,100.0,33634.0,1.0
15:29:34.953148,198083.9375,173538.6875,238651.640625,205787.96875,198303.4375,167255.515625,686454.0,200968.75,0.07861328125,0.988525390625,-0.20458984375,-2.014159917831421,0.1831054538488388,1.4953612089157104,100.0,33635.0,1.0
15:29:34.953158,198089.84375,173546.8125,238652.359375,205786.53125,198302.453125,167257.84375,686423.375,200967.046875,0.077880859375,0.988037109375,-0.207275390625,-2.014159917831421,0.3051757514476776,1.4343260526657104,100.0,33636.0,1.0
15:29:34.965207,198081.890625,173531.984375,238641.71875,205791.0,198293.6875,167226.28125,686414.0,200976.609375,0.0771484375,0.98876953125,-0.2060546875,-1.9531248807907104,0.3662109076976776,1.4038084745407104,100.0,33637.0,1.0
15:29:34.969414,198074.734375,173527.515625,238631.609375,205783.671875,198284.390625,167214.65625,686486.8125,200969.28125,0.078369140625,0.9873046875,-0.20654296875,-1.9836424589157104,0.4272460639476776,1.3732908964157104,100.0,33638.0,1.0
15:29:34.969429,198080.453125,173540.203125,238645.5625,205786.53125,198297.53125,167247.203125,686473.4375,200969.28125,0.078857421875,0.98779296875,-0.205322265625,-1.8615721464157104,0.3356933295726776,1.3122557401657104,100.0,33639.0,1.0
15:29:34.979418,198083.5,173544.5,238646.90625,205781.96875,198297.0,167253.546875,686426.8125,200961.5,0.077880859375,0.9873046875,-0.20166015625,-1.7700194120407104,0.3051757514476776,1.1291502714157104,100.0,33640.0,1.0
15:29:34.979435,198080.625,173535.734375,238639.65625,205786.984375,198291.0,167227.359375,686397.25,200971.703125,0.07666015625,0.986083984375,-0.205078125,-1.7089842557907104,0.3662109076976776,1.1291502714157104,100.0,33641.0,1.0
15:29:34.981999,198079.734375,173531.625,238637.34375,205787.6875,198286.890625,167215.734375,686468.4375,200972.953125,0.07763671875,0.986083984375,-0.205078125,-1.7089842557907104,0.2441406100988388,1.0375975370407104,100.0,33642.0,1.0
15:29:34.982014,198082.6875,173535.28125,238646.71875,205787.25,198297.53125,167242.203125,686473.4375,200970.0,0.07763671875,0.98291015625,-0.204345703125,-1.6479490995407104,0.3967284858226776,0.9460448622703552,100.0,33643.0,1.0
15:29:34.991367,198076.78125,173531.0,238641.890625,205774.28125,198291.546875,167247.46875,686416.625,200956.40625,0.078369140625,0.98486328125,-0.20361328125,-1.5258787870407104,0.3662109076976776,0.8239745497703552,100.0,33644.0,1.0
15:29:34.995722,198076.4375,173526.53125,238635.28125,205778.484375,198285.640625,167227.359375,686389.1875,200965.265625,0.08056640625,0.9853515625,-0.20458984375,-1.4343260526657104,0.3967284858226776,0.7934569716453552,100.0,33645.0,1.0
15:29:34.995746,198072.5,173517.859375,238628.3125,205780.71875,198279.921875,167209.296875,686454.9375,200968.390625,0.08154296875,0.98681640625,-0.205078125,-1.3427733182907104,0.4272460639476776,0.7934569716453552,100.0,33646.0,1.0
15:29:35.005239,198076.78125,173522.046875,238634.921875,205782.953125,198289.3125,167231.109375,686497.5625,200966.6875,0.080078125,0.986572265625,-0.204345703125,-1.4038084745407104,0.4882812201976776,0.8239745497703552,100.0,33647.0,1.0
15:29:35.016350,198081.265625,173529.75,238643.234375,205781.875,198296.546875,167251.140625,686439.375,200961.6875,0.083251953125,0.987060546875,-0.205810546875,-1.3732908964157104,0.5187987685203552,0.8850097060203552,100.0,33648.0,1.0
15:29:35.016376,198074.375,173520.796875,238629.375,205775.0,198282.6875,167224.9375,686390.75,200958.375,0.083251953125,0.98583984375,-0.206298828125,-1.2817381620407104,0.4882812201976776,0.7629393935203552,100.0,33649.0,1.0
15:29:35.016384,198070.703125,173512.84375,238625.796875,205781.53125,198280.015625,167204.28125,686442.6875,200967.765625,0.0830078125,0.9873046875,-0.207275390625,-1.0986326932907104,0.6408690810203552,0.7019042372703552,100.0,33650.0,1.0
15:29:35.019415,198071.6875,173515.34375,238629.5625,205777.765625,198284.390625,167218.6875,686493.625,200962.046875,0.082275390625,0.98828125,-0.207763671875,-1.1901854276657104,0.7019042372703552,0.7934569716453552,100.0,33651.0,1.0
15:29:35.019439,198073.921875,173519.1875,238637.34375,205778.3125,198292.078125,167239.34375,686428.4375,200958.375,0.081787109375,0.986572265625,-0.204833984375,-1.0986326932907104,0.6713866591453552,0.7934569716453552,100.0,33652.0,1.0
15:29:35.021631,198070.078125,173514.28125,238625.796875,205768.03125,198281.171875,167221.0,686388.9375,200951.40625,0.081787109375,0.985595703125,-0.203125,-0.9765624403953552,0.6408690810203552,0.7019042372703552,100.0,33653.0,1.0
15:29:35.033172,198067.578125,173507.578125,238620.171875,205774.1875,198277.78125,167197.671875,686421.5,200962.671875,0.0810546875,0.98583984375,-0.20751953125,-0.8850097060203552,0.6713866591453552,0.7019042372703552,100.0,33654.0,1.0
15:29:35.036964,198075.265625,173515.609375,238630.0,205778.484375,198288.140625,167215.109375,686504.4375,200965.796875,0.08203125,0.987548828125,-0.208740234375,-0.8850097060203552,0.6408690810203552,0.7019042372703552,100.0,33655.0,1.0
15:29:35.036998,198075.453125,173518.921875,238637.421875,205774.109375,198296.015625,167240.40625,686457.0625,200959.265625,0.0791015625,0.98974609375,-0.208251953125,-0.9460448622703552,0.7019042372703552,0.6408690810203552,100.0,33656.0,1.0
15:29:35.039021,198074.546875,173517.3125,238630.0,205763.546875,198285.734375,167230.03125,686406.125,200949.703125,0.0771484375,0.988525390625,-0.206787109375,-0.9460448622703552,0.7934569716453552,0.6103515028953552,100.0,33657.0,1.0
15:29:35.070172,198075.625,173518.125,238628.046875,205777.328125,198286.265625,167211.4375,686413.8125,200966.6875,0.077880859375,0.988037109375,-0.207763671875,-0.8544921278953552,0.7324218153953552,0.5493163466453552,100.0,33658.0,1.0
15:29:35.097698,198071.6875,173522.046875,238622.859375,205775.0,198282.25,167209.921875,686485.375,200959.265625,0.076416015625,0.989501953125,-0.207275390625,-0.8239745497703552,0.6713866591453552,0.5187987685203552,100.0,33659.0,1.0
15:29:35.097787,198079.203125,173535.734375,238637.78125,205788.5,198298.78125,167244.171875,686448.125,200962.578125,0.07568359375,0.9921875,-0.20703125,-0.8239745497703552,0.6408690810203552,0.6408690810203552,100.0,33660.0,1.0
15:29:35.097819,198077.40625,173534.296875,238630.984375,205781.34375,198290.203125,167240.234375,686409.9375,200950.953125,0.0751953125,0.99267578125,-0.2080078125,-0.7324218153953552,0.4882812201976776,0.6103515028953552,100.0,33661.0,1.0
15:29:35.107029,198071.875,173521.15625,238621.15625,205784.828125,198281.984375,167209.75,686406.75,200960.78125,0.075439453125,0.99267578125,-0.20751953125,-0.8544921278953552,0.4577636420726776,0.4577636420726776,100.0,33662.0,1.0
15:29:35.107127,198071.6875,173520.796875,238618.828125,205785.015625,198279.390625,167204.734375,686481.8125,200960.875,0.074951171875,0.98974609375,-0.209228515625,-0.8239745497703552,0.3051757514476776,0.3967284858226776,100.0,33663.0,1.0
15:29:35.107158,198073.921875,173525.8125,238628.390625,205782.59375,198290.109375,167233.53125,686471.625,200958.28125,0.07373046875,0.989501953125,-0.20751953125,-0.7629393935203552,0.2746581733226776,0.3662109076976776,100.0,33664.0,1.0
15:29:35.107183,198073.65625,173525.1875,238624.640625,205779.015625,198285.828125,167237.375,686421.5,200947.375,0.074462890625,0.98876953125,-0.20849609375,-0.8850097060203552,0.1220703050494194,0.3662109076976776,100.0,33665.0,1.0
15:29:35.109585,198071.609375,173515.609375,238616.78125,205791.625,198279.296875,167211.703125,686405.375,200959.453125,0.073974609375,0.987548828125,-0.20751953125,-0.9155272841453552,0.0610351525247097,0.3051757514476776,100.0,33666.0,1.0
15:29:35.109628,198073.484375,173515.265625,238617.484375,205799.046875,198280.015625,167204.734375,686478.0625,200964.90625,0.0751953125,0.98583984375,-0.210693359375,-0.9460448622703552,-0.03051757626235485,0.3356933295726776,100.0,33667.0,1.0
15:29:35.111465,198074.375,173519.109375,238625.359375,205792.796875,198288.6875,167229.5,686489.0,200960.078125,0.076171875,0.986083984375,-0.21044921875,-0.8850097060203552,-0.1220703050494194,0.3967284858226776,100.0,33668.0,1.0
15:29:35.114061,198076.15625,173523.484375,238626.875,205781.078125,198288.140625,167240.40625,686430.0,200949.171875,0.07666015625,0.98681640625,-0.212158203125,-0.8850097060203552,-0.2136230319738388,0.3051757514476776,100.0,33669.0,1.0
15:29:35.116394,198072.046875,173513.734375,238616.59375,205778.125,198277.328125,167212.328125,686390.1875,200951.21875,0.077880859375,0.98828125,-0.2099609375,-0.8850097060203552,-0.1525878757238388,0.4882812201976776,100.0,33670.0,1.0
15:29:35.122913,198069.8125,173507.125,238613.28125,205783.21875,198274.375,167196.234375,686438.9375,200955.875,0.08056640625,0.9892578125,-0.2099609375,-1.0070799589157104,-0.2746581733226776,0.4577636420726776,100.0,33671.0,1.0
15:29:35.125192,198069.90625,173511.953125,238618.5625,205778.03125,198280.8125,167219.9375,686473.6875,200950.59375,0.080078125,0.988037109375,-0.2099609375,-1.0375975370407104,-0.2136230319738388,0.5187987685203552,100.0,33672.0,1.0
15:29:35.127625,198071.609375,173520.71875,238625.09375,205772.3125,198286.71875,167242.109375,686420.25,200944.0625,0.07861328125,0.9873046875,-0.20849609375,-1.0375975370407104,-0.1831054538488388,0.6713866591453552,100.0,33673.0,1.0
15:29:35.132738,198064.0,173509.8125,238610.34375,205762.03125,198270.984375,167217.515625,686377.9375,200938.703125,0.07958984375,0.988037109375,-0.208740234375,-1.0375975370407104,-0.1831054538488388,0.6713866591453552,100.0,33674.0,1.0
15:29:35.135223,198061.59375,173502.75,238607.828125,205770.96875,198267.40625,167199.015625,686437.8125,200949.078125,0.078125,0.98876953125,-0.21044921875,-1.0681151151657104,-0.3051757514476776,0.7019042372703552,100.0,33675.0,1.0
15:29:35.137743,198059.078125,173503.453125,238607.921875,205769.359375,198269.90625,167210.546875,686509.25,200943.171875,0.076171875,0.98828125,-0.211181640625,-1.0681151151657104,-0.2441406100988388,0.7019042372703552,100.0,33676.0,1.0
15:29:35.140078,198053.8125,173499.34375,238607.125,205762.84375,198270.984375,167225.125,686440.25,200932.625,0.073974609375,0.988037109375,-0.21044921875,-1.0070799589157104,-0.2441406100988388,0.5187987685203552,100.0,33677.0,1.0
15:29:35.142570,198050.859375,173493.53125,238596.03125,205753.546875,198260.515625,167208.40625,686395.125,200929.765625,0.0732421875,0.98876953125,-0.209228515625,-1.0375975370407104,-0.3356933295726776,0.4577636420726776,100.0,33678.0,1.0
15:29:35.145168,198049.15625,173488.265625,238593.171875,205762.21875,198258.28125,167185.15625,686445.6875,200944.0625,0.072509765625,0.990234375,-0.2099609375,-1.0375975370407104,-0.3967284858226776,0.3967284858226776,100.0,33679.0,1.0
15:29:35.148252,198044.0625,173485.578125,238588.703125,205754.25,198253.90625,167188.828125,686504.875,200934.859375,0.07373046875,0.9892578125,-0.21044921875,-1.1291502714157104,-0.6103515028953552,0.3356933295726776,100.0,33680.0,1.0
15:29:35.148263,198049.609375,173495.140625,238602.5625,205757.734375,198267.84375,167219.125,686436.75,200935.84375,0.073486328125,0.98974609375,-0.2119140625,-1.0986326932907104,-0.7019042372703552,0.1831054538488388,100.0,33681.0,1.0
15:29:35.150073,198053.359375,173498.359375,238599.78125,205757.03125,198264.453125,167214.125,686402.8125,200933.15625,0.07275390625,0.98974609375,-0.210693359375,-1.2207030057907104,-0.7324218153953552,0.2746581733226776,100.0,33682.0,1.0
15:29:35.152582,198051.9375,173492.28125,238594.78125,205766.859375,198261.859375,167192.125,686404.5,200947.015625,0.07470703125,0.990234375,-0.21240234375,-1.1901854276657104,-0.8850097060203552,0.2441406100988388,100.0,33683.0,1.0
15:29:35.155102,198044.78125,173487.625,238586.828125,205758.546875,198254.078125,167188.546875,686489.8125,200935.75,0.073974609375,0.989990234375,-0.2119140625,-1.3427733182907104,-0.8850097060203552,0.2136230319738388,100.0,33684.0,1.0
15:29:35.157741,198049.609375,173497.375,238600.6875,205761.765625,198268.296875,167221.1875,686449.1875,200936.5625,0.076416015625,0.991943359375,-0.2119140625,-1.3427733182907104,-0.9155272841453552,0.3051757514476776,100.0,33685.0,1.0
15:29:35.160691,198051.03125,173498.1875,238599.15625,205753.890625,198263.375,167217.96875,686405.8125,200928.953125,0.076904296875,0.99169921875,-0.2119140625,-1.4343260526657104,-0.8850097060203552,0.1525878757238388,100.0,33686.0,1.0
15:29:35.160703,198052.296875,173493.890625,238595.671875,205763.640625,198262.484375,167195.796875,686402.8125,200945.140625,0.078125,0.99072265625,-0.213623046875,-1.4648436307907104,-0.9155272841453552,0.1525878757238388,100.0,33687.0,1.0
15:29:35.185794,198052.375,173493.359375,238594.78125,205762.125,198260.96875,167192.671875,686476.125,200942.90625,0.078857421875,0.99169921875,-0.212646484375,-1.4648436307907104,-0.9155272841453552,0.2136230319738388,100.0,33688.0,1.0
15:29:35.185833,198056.140625,173500.78125,238606.046875,205763.203125,198273.75,167222.078125,686466.875,200940.5,0.081298828125,0.99072265625,-0.212158203125,-1.4343260526657104,-0.8850097060203552,0.3662109076976776,100.0,33689.0,1.0
15:29:35.188211,198057.5625,173503.90625,238605.234375,205757.109375,198271.25,167226.90625,686415.25,200930.5625,0.08203125,0.989501953125,-0.212890625,-1.4038084745407104,-0.7324218153953552,0.2746581733226776,100.0,33690.0,1.0
15:29:35.188243,198060.609375,173501.40625,238601.75,205766.140625,198269.453125,167205.71875,686405.5625,200945.140625,0.082763671875,0.990966796875,-0.21044921875,-1.4648436307907104,-0.7019042372703552,0.3662109076976776,100.0,33691.0,1.0
15:29:35.190479,198061.859375,173502.203125,238601.125,205769.625,198268.5625,167197.765625,686471.125,200950.328125,0.084228515625,0.990966796875,-0.210205078125,-1.4953612089157104,-0.7019042372703552,0.3662109076976776,100.0,33692.0,1.0
15:29:35.192613,198066.421875,173512.84375,238611.671875,205769.625,198280.1875,167227.0,686473.625,200948.890625,0.08349609375,0.99072265625,-0.21044921875,-1.4953612089157104,-0.5187987685203552,0.5798339247703552,100.0,33693.0,1.0
15:29:35.195154,198067.578125,173518.203125,238614.546875,205760.25,198280.90625,167238.359375,686413.25,200938.078125,0.083251953125,0.990234375,-0.208251953125,-1.5563963651657104,-0.4577636420726776,0.7019042372703552,100.0,33694.0,1.0
15:29:35.198023,198064.265625,173510.25,238606.3125,205760.6875,198273.484375,167214.125,686390.8125,200943.796875,0.083984375,0.98974609375,-0.209716796875,-1.7089842557907104,-0.3662109076976776,0.8239745497703552,100.0,33695.0,1.0
15:29:35.200171,198063.203125,173506.140625,238602.296875,205766.859375,198272.328125,167199.640625,686451.8125,200951.40625,0.08203125,0.98974609375,-0.2109375,-1.7700194120407104,-0.3051757514476776,0.7019042372703552,100.0,33696.0,1.0
15:29:35.208696,198062.21875,173508.375,238606.5,205761.234375,198275.71875,167219.75,686495.25,200943.890625,0.08154296875,0.991455078125,-0.212158203125,-1.7089842557907104,-0.2441406100988388,0.7934569716453552,100.0,33697.0,1.0
15:29:35.208784,198065.171875,173514.90625,238614.09375,205760.875,198281.703125,167240.140625,686431.375,200938.890625,0.080078125,0.990478515625,-0.21240234375,-1.8920897245407104,-0.1220703050494194,0.7934569716453552,100.0,33698.0,1.0
15:29:35.214509,198061.40625,173506.859375,238602.46875,205756.578125,198269.28125,167216.71875,686387.3125,200937.71875,0.080078125,0.990478515625,-0.2138671875,-1.8920897245407104,-0.0610351525247097,0.8239745497703552,100.0,33699.0,1.0
15:29:35.214587,198060.875,173501.9375,238599.78125,205766.953125,198268.125,167197.40625,686427.9375,200948.8125,0.079345703125,0.9892578125,-0.210205078125,-1.9836424589157104,-0.0915527269244194,0.8239745497703552,100.0,33700.0,1.0
15:29:35.222058,198069.90625,173511.5,238609.265625,205770.078125,198280.015625,167219.671875,686499.25,200950.15625,0.0791015625,0.99072265625,-0.205810546875,-1.9226073026657104,-0.0610351525247097,0.8239745497703552,100.0,33701.0,1.0
15:29:35.222149,198076.4375,173521.34375,238621.25,205772.578125,198294.84375,167247.65625,686438.5625,200950.78125,0.07958984375,0.990478515625,-0.20849609375,-1.9531248807907104,0.03051757626235485,0.7934569716453552,100.0,33702.0,1.0
15:29:35.231912,198068.296875,173510.875,238606.3125,205757.734375,198279.828125,167227.796875,686394.9375,200940.046875,0.079345703125,0.990234375,-0.210693359375,-2.014159917831421,0.0610351525247097,0.7019042372703552,100.0,33703.0,1.0
15:29:35.231944,198061.140625,173498.8125,238597.28125,205763.828125,198268.828125,167198.296875,686409.875,200947.640625,0.07763671875,0.990478515625,-0.210205078125,-1.9836424589157104,0.2441406100988388,0.7019042372703552,100.0,33704.0,1.0
15:29:35.231951,198059.625,173498.8125,238596.65625,205761.140625,198268.921875,167204.734375,686499.8125,200943.09375,0.080322265625,0.98974609375,-0.208984375,-1.9836424589157104,0.0,0.7629393935203552,100.0,33705.0,1.0
15:29:35.247087,198061.765625,173504.890625,238606.21875,205760.421875,198281.078125,167231.46875,686447.75,200942.8125,0.080810546875,0.98779296875,-0.207275390625,-1.9531248807907104,0.1220703050494194,0.6713866591453552,100.0,33706.0,1.0
15:29:35.247112,198062.65625,173504.796875,238599.96875,205753.09375,198274.5625,167223.421875,686397.0,200938.703125,0.080810546875,0.98828125,-0.208740234375,-1.9226073026657104,0.0610351525247097,0.7019042372703552,100.0,33707.0,1.0
15:29:35.272561,198055.78125,173491.828125,238589.328125,205759.4375,198266.328125,167193.203125,686414.4375,200948.890625,0.080322265625,0.9853515625,-0.206787109375,-1.9836424589157104,0.2136230319738388,0.6408690810203552,100.0,33708.0,1.0
15:29:35.272587,198058.734375,173494.0625,238592.015625,205761.9375,198266.328125,167197.765625,686487.5625,200948.0,0.078369140625,0.988525390625,-0.206298828125,-2.014159917831421,0.2746581733226776,0.6103515028953552,100.0,33709.0,1.0
15:29:35.272593,198066.328125,173505.609375,238608.109375,205768.65625,198282.515625,167230.9375,686440.625,200951.9375,0.0810546875,0.987060546875,-0.206787109375,-1.9836424589157104,0.3356933295726776,0.5798339247703552,100.0,33710.0,1.0
15:29:35.277704,198063.734375,173503.28125,238601.390625,205757.734375,198275.359375,167224.671875,686401.0,200940.671875,0.08056640625,0.988525390625,-0.2080078125,-1.9531248807907104,0.2746581733226776,0.4882812201976776,100.0,33711.0,1.0
15:29:35.281232,198061.59375,173495.40625,238595.859375,205766.859375,198271.25,167198.5625,686405.625,200952.75,0.0791015625,0.986328125,-0.20751953125,-1.8920897245407104,0.2746581733226776,0.4882812201976776,100.0,33712.0,1.0
15:29:35.281243,198063.28125,173496.9375,238596.296875,205770.703125,198271.25,167195.890625,686485.6875,200954.984375,0.07958984375,0.989501953125,-0.211181640625,-2.014159917831421,0.3356933295726776,0.4882812201976776,100.0,33713.0,1.0
15:29:35.281247,198060.421875,173500.0625,238602.734375,205764.71875,198278.84375,167221.640625,686470.1875,200950.953125,0.0771484375,0.98779296875,-0.2109375,-1.8005369901657104,0.2746581733226776,0.4272460639476776,100.0,33714.0,1.0
15:29:35.284430,198056.21875,173498.453125,238595.40625,205753.09375,198271.875,167222.53125,686419.75,200938.53125,0.078857421875,0.99072265625,-0.211181640625,-1.7700194120407104,0.3662109076976776,0.4272460639476776,100.0,33715.0,1.0
15:29:35.284454,198052.015625,173490.21875,238586.375,205758.546875,198262.75,167196.15625,686397.9375,200946.75,0.077880859375,0.98974609375,-0.20703125,-1.7395018339157104,0.2746581733226776,0.4272460639476776,100.0,33716.0,1.0
15:29:35.292021,198049.25,173486.828125,238581.734375,205759.4375,198257.921875,167185.515625,686461.6875,200946.125,0.076171875,0.988525390625,-0.2060546875,-1.8310545682907104,0.3967284858226776,0.3051757514476776,100.0,33717.0,1.0
15:29:35.292034,198049.34375,173491.296875,238585.125,205757.296875,198264.28125,167209.203125,686479.125,200940.765625,0.076171875,0.9892578125,-0.20361328125,-1.7700194120407104,0.3356933295726776,0.3967284858226776,100.0,33718.0,1.0
15:29:35.293804,198050.40625,173494.96875,238586.5625,205750.40625,198264.71875,167222.703125,686419.25,200931.546875,0.077392578125,0.9892578125,-0.205322265625,-1.7089842557907104,0.3967284858226776,0.3662109076976776,100.0,33719.0,1.0
15:29:35.297075,198050.765625,173492.1875,238581.09375,205753.625,198259.171875,167203.65625,686386.4375,200938.078125,0.075927734375,0.988037109375,-0.20751953125,-1.7395018339157104,0.3662109076976776,0.3967284858226776,100.0,33720.0,1.0
15:29:35.297087,198051.125,173489.328125,238580.65625,205762.75,198258.546875,167187.125,686433.5625,200946.3125,0.07763671875,0.98828125,-0.2080078125,-1.7089842557907104,0.3662109076976776,0.3967284858226776,100.0,33721.0,1.0
15:29:35.306307,198052.828125,173493.0,238587.1875,205760.15625,198264.8125,167205.453125,686475.1875,200942.375,0.076904296875,0.98779296875,-0.20849609375,-1.6784666776657104,0.3356933295726776,0.3662109076976776,100.0,33722.0,1.0
15:29:35.310686,198051.84375,173497.640625,238591.734375,205751.84375,198267.40625,167223.0625,686422.9375,200932.09375,0.07568359375,0.98828125,-0.20703125,-1.6784666776657104,0.1831054538488388,0.3967284858226776,100.0,33723.0,1.0
15:29:35.310704,198046.203125,173492.28125,238578.15625,205744.328125,198256.046875,167201.421875,686383.5,200929.5,0.0751953125,0.990234375,-0.2099609375,-1.6174315214157104,0.0915527269244194,0.4882812201976776,100.0,33724.0,1.0
15:29:35.316942,198038.4375,173481.28125,238567.421875,205746.75,198247.109375,167175.953125,686428.4375,200933.875,0.07666015625,0.990234375,-0.210693359375,-1.6784666776657104,0.0915527269244194,0.4272460639476776,100.0,33725.0,1.0
15:29:35.316965,198043.53125,173490.140625,238574.390625,205749.515625,198254.890625,167195.796875,686488.875,200933.78125,0.075927734375,0.990234375,-0.207763671875,-1.7395018339157104,0.03051757626235485,0.4272460639476776,100.0,33726.0,1.0
15:29:35.327022,198043.265625,173495.046875,238580.828125,205746.75,198261.859375,167220.921875,686432.1875,200928.25,0.076416015625,0.991455078125,-0.209716796875,-1.7089842557907104,0.0,0.4882812201976776,100.0,33727.0,1.0
15:29:35.327037,198034.953125,173487.453125,238567.78125,205734.234375,198247.5625,167202.5,686389.5625,200918.953125,0.07666015625,0.989990234375,-0.204833984375,-1.7395018339157104,0.0610351525247097,0.5187987685203552,100.0,33728.0,1.0
15:29:35.329477,198031.015625,173480.03125,238564.296875,205743.25,198244.421875,167178.1875,686419.6875,200931.46875,0.076171875,0.9892578125,-0.205810546875,-1.6784666776657104,0.0,0.4882812201976776,100.0,33729.0,1.0
15:29:35.329484,198030.5625,173482.0,238563.84375,205737.453125,198244.15625,167186.234375,686493.4375,200924.671875,0.074951171875,0.989013671875,-0.20556640625,-1.7089842557907104,-0.0610351525247097,0.6408690810203552,100.0,33730.0,1.0
15:29:35.338830,198031.546875,173488.796875,238571.890625,205734.5,198254.265625,167215.90625,686436.5,200921.453125,0.07275390625,0.98779296875,-0.20654296875,-1.7395018339157104,-0.0915527269244194,0.5798339247703552,100.0,33731.0,1.0
15:29:35.345640,198025.734375,173481.90625,238558.484375,205723.59375,198240.671875,167202.5,686396.8125,200908.9375,0.074951171875,0.98974609375,-0.20751953125,-1.6784666776657104,-0.1831054538488388,0.5798339247703552,100.0,33732.0,1.0
15:29:35.345655,198023.40625,173473.0625,238552.578125,205733.25,198237.09375,167174.875,686412.625,200924.21875,0.07666015625,0.989990234375,-0.20703125,-1.6784666776657104,-0.2136230319738388,0.6408690810203552,100.0,33733.0,1.0
15:29:35.353181,198025.203125,173475.734375,238554.09375,205731.90625,198238.078125,167177.28125,686495.25,200923.6875,0.0751953125,0.989501953125,-0.208251953125,-1.7089842557907104,-0.1525878757238388,0.6713866591453552,100.0,33734.0,1.0
15:29:35.353193,198023.765625,173478.875,238560.71875,205727.34375,198246.296875,167204.28125,686465.3125,200918.140625,0.07568359375,0.9912109375,-0.205810546875,-1.6174315214157104,-0.2441406100988388,0.7019042372703552,100.0,33735.0,1.0
15:29:35.359630,198026.359375,173483.703125,238560.09375,205721.359375,198243.890625,167206.875,686407.625,200912.78125,0.076171875,0.989990234375,-0.205078125,-1.5869139432907104,-0.2441406100988388,0.7629393935203552,100.0,33736.0,1.0
15:29:35.359655,198020.546875,173473.15625,238551.15625,205726.1875,198236.015625,167178.8125,686393.9375,200922.796875,0.076416015625,0.989501953125,-0.20849609375,-1.4648436307907104,-0.2441406100988388,0.7934569716453552,100.0,33737.0,1.0
15:29:35.361462,198016.171875,173469.390625,238543.734375,205724.484375,198230.390625,167167.71875,686469.875,200918.40625,0.07666015625,0.988037109375,-0.207275390625,-1.5869139432907104,-0.2746581733226776,0.7934569716453552,100.0,33738.0,1.0
15:29:35.371349,198021.71875,173480.84375,238556.421875,205730.203125,198245.671875,167200.359375,686454.8125,200920.109375,0.078369140625,0.9892578125,-0.2060546875,-1.5869139432907104,-0.2441406100988388,0.8239745497703552,100.0,33739.0,1.0
15:29:35.378119,198024.21875,173484.765625,238558.03125,205726.625,198245.59375,167207.6875,686401.1875,200912.59375,0.076904296875,0.98876953125,-0.208251953125,-1.5869139432907104,-0.3356933295726776,0.8239745497703552,100.0,33740.0,1.0
15:29:35.378128,198022.515625,173478.875,238551.953125,205731.1875,198240.484375,167183.8125,686389.75,200922.703125,0.077880859375,0.990966796875,-0.209228515625,-1.6174315214157104,-0.3356933295726776,0.8239745497703552,100.0,33741.0,1.0
15:29:35.385650,198026.359375,173480.65625,238554.015625,205738.96875,198241.125,167177.015625,686465.375,200931.109375,0.077392578125,0.98876953125,-0.209228515625,-1.6174315214157104,-0.3356933295726776,0.7629393935203552,100.0,33742.0,1.0
15:29:35.385659,198033.25,173491.125,238566.703125,205742.359375,198254.0,167206.609375,686479.25,200931.734375,0.07861328125,0.9873046875,-0.208984375,-1.5869139432907104,-0.3356933295726776,0.9155272841453552,100.0,33743.0,1.0
15:29:35.391938,198038.796875,173497.734375,238573.234375,205741.828125,198258.734375,167222.171875,686423.5625,200925.5625,0.07958984375,0.988525390625,-0.207275390625,-1.5258787870407104,-0.3662109076976776,0.8850097060203552,100.0,33744.0,1.0
15:29:35.391948,198036.015625,173490.3125,238562.5,205743.34375,198251.578125,167197.40625,686389.0,200929.140625,0.079833984375,0.98974609375,-0.2060546875,-1.5258787870407104,-0.2441406100988388,0.9155272841453552,100.0,33745.0,1.0
15:29:35.393862,198036.90625,173488.796875,238560.890625,205751.296875,198251.75,167183.375,686447.5,200937.1875,0.0791015625,0.989501953125,-0.208251953125,-1.5563963651657104,-0.2441406100988388,0.8544921278953552,100.0,33746.0,1.0
15:29:35.410216,198038.703125,173494.96875,238567.875,205746.828125,198256.765625,167205.8125,686473.3125,200931.28125,0.0791015625,0.989990234375,-0.209716796875,-1.4953612089157104,-0.1220703050494194,0.8544921278953552,100.0,33747.0,1.0
15:29:35.413247,198040.75,173501.140625,238574.84375,205742.09375,198260.96875,167225.390625,686421.75,200924.484375,0.080078125,0.99072265625,-0.2119140625,-1.4648436307907104,-0.0915527269244194,0.8850097060203552,100.0,33748.0,1.0
15:29:35.413333,198037.71875,173493.09375,238563.9375,205738.703125,198251.578125,167204.46875,686390.25,200924.40625,0.080078125,0.99072265625,-0.211669921875,-1.4648436307907104,-0.0610351525247097,0.7934569716453552,100.0,33749.0,1.0
15:29:35.415781,198035.578125,173484.328125,238559.640625,205748.625,198248.890625,167182.828125,686436.6875,200937.0,0.080322265625,0.990234375,-0.2119140625,-1.4953612089157104,-0.0915527269244194,0.9155272841453552,100.0,33750.0,1.0
15:29:35.415863,198038.609375,173489.59375,238564.296875,205748.796875,198255.609375,167199.109375,686503.8125,200937.71875,0.080078125,0.989501953125,-0.2080078125,-1.5258787870407104,0.03051757626235485,0.7934569716453552,100.0,33751.0,1.0
15:29:35.417678,198044.59375,173499.875,238577.25,205750.5,198269.375,167228.96875,686444.25,200936.921875,0.080078125,0.989990234375,-0.209716796875,-1.5258787870407104,-0.03051757626235485,0.7629393935203552,100.0,33752.0,1.0
15:29:35.442798,198042.1875,173494.34375,238566.34375,205741.828125,198258.1875,167212.609375,686393.5625,200929.859375,0.080322265625,0.9921875,-0.20654296875,-1.4648436307907104,0.0,0.8239745497703552,100.0,33753.0,1.0
15:29:35.464708,198040.75,173488.078125,238562.5,205751.390625,198256.9375,167189.359375,686404.3125,200942.546875,0.08154296875,0.9921875,-0.206298828125,-1.4343260526657104,0.1525878757238388,0.8544921278953552,100.0,33754.0,1.0
15:29:35.494010,198044.15625,173493.171875,238567.15625,205751.21875,198261.0625,167199.375,686488.875,200940.21875,0.08056640625,0.989013671875,-0.205810546875,-1.4343260526657104,0.2136230319738388,0.8239745497703552,100.0,33755.0,1.0
15:29:35.496472,198048.796875,173501.671875,238577.53125,205750.5,198271.6875,167228.875,686432.3125,200935.84375,0.081787109375,0.990966796875,-0.207275390625,-1.4038084745407104,0.1525878757238388,0.7934569716453552,100.0,33756.0,1.0
15:29:35.498933,198048.796875,173501.3125,238571.265625,205741.203125,198263.296875,167220.375,686389.375,200927.703125,0.079833984375,0.988037109375,-0.2060546875,-1.4953612089157104,0.2441406100988388,0.7324218153953552,100.0,33757.0,1.0
15:29:35.501419,198044.515625,173491.828125,238562.6875,205748.359375,198258.46875,167193.921875,686397.625,200939.234375,0.080810546875,0.98828125,-0.20458984375,-1.4648436307907104,0.2746581733226776,0.6713866591453552,100.0,33758.0,1.0
15:29:35.504616,198046.65625,173493.625,238563.21875,205748.53125,198260.25,167196.78125,686491.3125,200938.609375,0.078857421875,0.9892578125,-0.203369140625,-1.4953612089157104,0.3356933295726776,0.7934569716453552,100.0,33759.0,1.0
15:29:35.506484,198045.859375,173497.109375,238570.28125,205745.046875,198267.9375,167223.0625,686460.625,200932.71875,0.0791015625,0.990966796875,-0.207763671875,-1.4648436307907104,0.2746581733226776,0.7629393935203552,100.0,33760.0,1.0
15:29:35.508832,198044.328125,173496.578125,238565.28125,205735.296875,198261.40625,167219.9375,686401.0,200922.34375,0.078857421875,0.98828125,-0.208984375,-1.4953612089157104,0.3967284858226776,0.7019042372703552,100.0,33761.0,1.0
15:29:35.511413,198041.5625,173490.046875,238559.640625,205744.515625,198259.359375,167196.328125,686397.8125,200937.09375,0.078369140625,0.9892578125,-0.207763671875,-1.4953612089157104,0.3662109076976776,0.7019042372703552,100.0,33762.0,1.0
15:29:35.513910,198045.5,173494.96875,238562.953125,205754.34375,198264.1875,167197.671875,686468.4375,200943.359375,0.079345703125,0.988525390625,-0.20849609375,-1.5258787870407104,0.3356933295726776,0.7629393935203552,100.0,33763.0,1.0
15:29:35.516451,198047.734375,173500.953125,238572.15625,205756.40625,198275.71875,167234.234375,686452.9375,200942.640625,0.080078125,0.98876953125,-0.209716796875,-1.4648436307907104,0.4577636420726776,0.7629393935203552,100.0,33764.0,1.0
15:29:35.519546,198041.734375,173495.234375,238564.734375,205745.40625,198266.328125,167257.484375,686404.3125,200928.953125,0.07763671875,0.988525390625,-0.2099609375,-1.4648436307907104,0.4577636420726776,0.7019042372703552,100.0,33765.0,1.0
15:29:35.519598,198034.046875,173483.34375,238552.21875,205745.9375,198255.421875,167233.53125,686386.6875,200935.046875,0.078125,0.989501953125,-0.209228515625,-1.4648436307907104,0.4577636420726776,0.6713866591453552,100.0,33766.0,1.0
15:29:35.522054,198028.6875,173477.34375,238547.03125,205745.578125,198249.34375,167216.625,686453.0625,200936.296875,0.078125,0.98974609375,-0.207275390625,-1.4648436307907104,0.4577636420726776,0.7019042372703552,100.0,33767.0,1.0
15:29:35.522135,198029.21875,173479.5,238552.046875,205741.921875,198255.875,167232.984375,686493.0,200930.125,0.07763671875,0.988037109375,-0.207763671875,-1.4953612089157104,0.4272460639476776,0.6713866591453552,100.0,33768.0,1.0
15:29:35.525311,198031.1875,173481.1875,238554.28125,205735.21875,198256.046875,167239.421875,686421.125,200921.8125,0.0791015625,0.990234375,-0.20703125,-1.4953612089157104,0.3356933295726776,0.6103515028953552,100.0,33769.0,1.0
15:29:35.525362,198032.078125,173477.4375,238547.84375,205737.890625,198249.703125,167216.453125,686382.4375,200929.3125,0.076416015625,0.990478515625,-0.206298828125,-1.5563963651657104,0.3051757514476776,0.5798339247703552,100.0,33770.0,1.0
15:29:35.525379,198026.265625,173470.203125,238540.6875,205743.171875,198243.265625,167193.828125,686434.0,200933.515625,0.076171875,0.989013671875,-0.209228515625,-1.4648436307907104,0.2746581733226776,0.5798339247703552,100.0,33771.0,1.0
15:29:35.528225,198021.171875,173470.28125,238540.234375,205735.84375,198242.8125,167206.078125,686480.6875,200923.78125,0.07763671875,0.989013671875,-0.208740234375,-1.5258787870407104,0.2746581733226776,0.5493163466453552,100.0,33772.0,1.0
15:29:35.528293,198021.625,173476.1875,238546.234375,205728.421875,198246.65625,167223.875,686419.4375,200916.359375,0.07763671875,0.991455078125,-0.20703125,-1.5563963651657104,0.2746581733226776,0.4882812201976776,100.0,33773.0,1.0
15:29:35.530782,198017.78125,173472.34375,238536.125,205721.53125,198237.546875,167203.21875,686378.375,200915.640625,0.0771484375,0.99072265625,-0.203125,-1.4953612089157104,0.1831054538488388,0.5798339247703552,100.0,33774.0,1.0
15:29:35.530833,198014.5625,173466.359375,238530.046875,205729.484375,198233.875,167180.859375,686418.1875,200926.015625,0.07763671875,0.988525390625,-0.204345703125,-1.4648436307907104,0.1831054538488388,0.6408690810203552,100.0,33775.0,1.0
15:29:35.533229,198016.96875,173468.953125,238532.90625,205728.953125,198236.203125,167193.65625,686487.625,200921.453125,0.076416015625,0.987548828125,-0.208740234375,-1.4953612089157104,0.1525878757238388,0.7934569716453552,100.0,33776.0,1.0
15:29:35.533269,198015.453125,173469.578125,238538.625,205723.40625,198238.34375,167213.9375,686430.0,200911.796875,0.076416015625,0.98974609375,-0.208984375,-1.4648436307907104,0.0915527269244194,0.6713866591453552,100.0,33777.0,1.0
15:29:35.536013,198015.453125,173466.796875,238531.03125,205717.78125,198230.296875,167199.640625,686388.125,200908.3125,0.076416015625,0.98876953125,-0.20947265625,-1.5563963651657104,0.0,0.6103515028953552,100.0,33778.0,1.0
15:29:35.538401,198010.09375,173455.890625,238521.46875,205725.109375,198225.46875,167172.546875,686410.75,200918.59375,0.07763671875,0.98876953125,-0.209228515625,-1.5258787870407104,-0.0915527269244194,0.6713866591453552,100.0,33779.0,1.0
15:29:35.538497,198009.828125,173457.234375,238521.5625,205722.15625,198225.296875,167177.28125,686477.375,200912.421875,0.077392578125,0.9873046875,-0.208740234375,-1.5258787870407104,-0.1220703050494194,0.6103515028953552,100.0,33780.0,1.0
15:29:35.540651,198013.75,173467.15625,238534.4375,205721.0,198237.09375,167207.6875,686430.3125,200911.890625,0.07861328125,0.98974609375,-0.205322265625,-1.5563963651657104,-0.1831054538488388,0.6713866591453552,100.0,33781.0,1.0
15:29:35.543286,198010.8125,173466.0,238526.921875,205706.515625,198228.328125,167199.1875,686400.5625,200900.53125,0.078369140625,0.990478515625,-0.206298828125,-1.6479490995407104,-0.1525878757238388,0.6713866591453552,100.0,33782.0,1.0
15:29:35.543370,198009.28125,173458.84375,238525.125,205715.546875,198224.578125,167174.609375,686406.75,200913.671875,0.07861328125,0.98974609375,-0.210205078125,-1.6479490995407104,-0.1525878757238388,0.7934569716453552,100.0,33783.0,1.0
15:29:35.550144,198012.421875,173462.59375,238526.65625,205717.234375,198226.359375,167178.453125,686480.5625,200912.953125,0.07763671875,0.98876953125,-0.208251953125,-1.7089842557907104,-0.0915527269244194,0.7629393935203552,100.0,33784.0,1.0
15:29:35.556949,198022.078125,173477.171875,238544.09375,205724.125,198244.25,167214.75,686443.125,200917.515625,0.079345703125,0.99169921875,-0.209228515625,-1.6174315214157104,-0.0915527269244194,0.6713866591453552,100.0,33785.0,1.0
15:29:35.556983,198027.078125,173486.109375,238547.578125,205720.90625,198243.984375,167220.375,686415.25,200914.203125,0.0810546875,0.990478515625,-0.21044921875,-1.6174315214157104,-0.1220703050494194,0.7324218153953552,100.0,33786.0,1.0
15:29:35.567104,198028.515625,173485.390625,238544.0,205736.1875,198243.53125,167201.609375,686411.0,200932.0,0.079833984375,0.987060546875,-0.2080078125,-1.6174315214157104,-0.1220703050494194,0.7324218153953552,100.0,33787.0,1.0
15:29:35.567196,198027.703125,173483.875,238542.5625,205745.84375,198241.46875,167194.90625,686473.25,200932.625,0.08154296875,0.9892578125,-0.20947265625,-1.6784666776657104,-0.1831054538488388,0.8239745497703552,100.0,33788.0,1.0
15:29:35.569545,198035.84375,173496.578125,238557.3125,205753.625,198258.109375,167228.96875,686461.0625,200934.6875,0.080322265625,0.987060546875,-0.20703125,-1.7395018339157104,-0.0915527269244194,0.7934569716453552,100.0,33789.0,1.0
15:29:35.569624,198032.0,173494.78125,238551.78125,205739.859375,198251.578125,167231.375,686409.6875,200920.828125,0.079345703125,0.98828125,-0.20849609375,-1.8005369901657104,-0.1525878757238388,0.7934569716453552,100.0,33790.0,1.0
15:29:35.579065,198014.828125,173472.4375,238530.9375,205727.34375,198230.84375,167190.78125,686382.875,200916.625,0.080078125,0.988037109375,-0.20703125,-1.7089842557907104,-0.2136230319738388,0.8544921278953552,100.0,33791.0,1.0
15:29:35.582078,198004.8125,173458.390625,238517.265625,205723.140625,198217.25,167166.5625,686451.6875,200910.1875,0.079833984375,0.98779296875,-0.206298828125,-1.6784666776657104,-0.2746581733226776,0.7934569716453552,100.0,33792.0,1.0
15:29:35.582169,198001.0625,173456.609375,238516.1875,205723.046875,198217.875,167182.734375,686481.9375,200900.890625,0.07958984375,0.98828125,-0.206298828125,-1.6784666776657104,-0.1525878757238388,0.7019042372703552,100.0,33793.0,1.0
15:29:35.583908,198006.15625,173464.390625,238523.4375,205722.34375,198222.96875,167200.984375,686410.9375,200895.4375,0.08056640625,0.987548828125,-0.209716796875,-1.6784666776657104,-0.1831054538488388,0.6103515028953552,100.0,33794.0,1.0
15:29:35.595181,198009.109375,173464.390625,238518.25,205721.625,198219.390625,167186.140625,686375.5,200903.03125,0.080322265625,0.98779296875,-0.208984375,-1.6479490995407104,-0.1831054538488388,0.6103515028953552,100.0,33795.0,1.0
15:29:35.598166,198002.84375,173457.0625,238509.75,205717.953125,198209.921875,167163.25,686444.875,200904.015625,0.080810546875,0.990234375,-0.20849609375,-1.7089842557907104,-0.2136230319738388,0.7324218153953552,100.0,33796.0,1.0
15:29:35.598187,198005.265625,173463.046875,238515.296875,205714.375,198214.65625,167182.828125,686487.9375,200898.828125,0.079345703125,0.98828125,-0.206298828125,-1.7700194120407104,-0.2746581733226776,0.6713866591453552,100.0,33797.0,1.0
15:29:35.600080,198010.625,173470.90625,238525.9375,205712.140625,198223.859375,167205.8125,686417.5625,200894.625,0.080810546875,0.987548828125,-0.20703125,-1.7395018339157104,-0.2441406100988388,0.7629393935203552,100.0,33798.0,1.0
15:29:35.608829,198011.609375,173468.59375,238522.0,205710.359375,198216.796875,167187.84375,686372.6875,200895.96875,0.079833984375,0.987548828125,-0.20849609375,-1.6784666776657104,-0.1220703050494194,0.7324218153953552,100.0,33799.0,1.0
15:29:35.619446,198012.328125,173463.9375,238521.5625,205721.359375,198215.09375,167166.375,686410.6875,200909.015625,0.081298828125,0.988525390625,-0.209716796875,-1.6479490995407104,-0.0915527269244194,0.6408690810203552,100.0,33800.0,1.0
15:29:35.619473,198018.5,173471.265625,238526.734375,205723.765625,198222.34375,167183.015625,686491.5,200908.84375,0.080322265625,0.987060546875,-0.208984375,-1.6174315214157104,-0.0915527269244194,0.7019042372703552,100.0,33801.0,1.0
15:29:35.622169,198019.203125,173476.09375,238531.65625,205721.703125,198228.515625,167207.6875,686429.8125,200903.125,0.079833984375,0.987060546875,-0.208251953125,-1.5869139432907104,-0.0610351525247097,0.8544921278953552,100.0,33802.0,1.0
15:29:35.622213,198018.671875,173474.125,238521.28125,205714.640625,198219.125,167192.125,686385.6875,200899.359375,0.078125,0.98828125,-0.208740234375,-1.5563963651657104,-0.03051757626235485,0.8850097060203552,100.0,33803.0,1.0
15:29:35.630421,198017.78125,173466.796875,238517.796875,205723.671875,198218.234375,167167.71875,686415.125,200914.390625,0.078369140625,0.988525390625,-0.20947265625,-1.6479490995407104,-0.1525878757238388,0.7324218153953552,100.0,33804.0,1.0
15:29:35.634554,198016.96875,173467.25,238517.53125,205718.671875,198217.875,167172.734375,686489.0625,200909.203125,0.078857421875,0.98876953125,-0.208984375,-1.5563963651657104,0.0,0.8544921278953552,100.0,33805.0,1.0
15:29:35.634588,198024.84375,173479.765625,238533.359375,205723.765625,198234.5,167206.609375,686439.0,200911.53125,0.07861328125,0.988037109375,-0.207275390625,-1.4953612089157104,-0.03051757626235485,0.7629393935203552,100.0,33806.0,1.0
15:29:35.643967,198024.9375,173482.53125,238529.953125,205717.234375,198228.78125,167201.515625,686399.5625,200904.546875,0.080810546875,0.98828125,-0.2080078125,-1.4953612089157104,0.0,0.6713866591453552,100.0,33807.0,1.0
15:29:35.646980,198022.078125,173475.46875,238524.859375,205728.140625,198226.8125,167178.453125,686406.25,200920.015625,0.08056640625,0.98876953125,-0.206787109375,-1.5258787870407104,0.0915527269244194,0.6103515028953552,100.0,33808.0,1.0
15:29:35.647005,198024.03125,173476.28125,238526.921875,205734.765625,198229.234375,167181.046875,686476.8125,200921.0,0.080810546875,0.988037109375,-0.20703125,-1.4648436307907104,0.1220703050494194,0.5798339247703552,100.0,33809.0,1.0
15:29:35.648899,198027.34375,173484.40625,238536.484375,205739.859375,198242.09375,167212.328125,686440.1875,200920.28125,0.08251953125,0.987060546875,-0.20556640625,-1.4953612089157104,0.0915527269244194,0.5798339247703552,100.0,33810.0,1.0
15:29:35.660178,198028.953125,173489.875,238534.15625,205732.4375,198238.796875,167216.359375,686399.9375,200912.15625,0.08251953125,0.9873046875,-0.2080078125,-1.5563963651657104,0.1525878757238388,0.7019042372703552,100.0,33811.0,1.0
15:29:35.664470,198026.90625,173483.78125,238528.078125,205739.765625,198234.953125,167193.203125,686381.0625,200924.046875,0.08203125,0.98681640625,-0.21142578125,-1.4343260526657104,0.1525878757238388,0.7934569716453552,100.0,33812.0,1.0
15:29:35.664537,198021.359375,173476.28125,238520.296875,205737.453125,198227.078125,167179.078125,686466.875,200919.390625,0.080810546875,0.98681640625,-0.20947265625,-1.4648436307907104,0.2441406100988388,0.8239745497703552,100.0,33813.0,1.0
15:29:35.666359,198025.5625,173482.453125,238531.21875,205741.828125,198239.78125,167208.046875,686475.1875,200920.828125,0.080322265625,0.986572265625,-0.20751953125,-1.5563963651657104,0.2136230319738388,0.8850097060203552,100.0,33814.0,1.0
15:29:35.678900,198025.828125,173486.015625,238531.296875,205734.859375,198238.34375,167216.0,686404.9375,200912.328125,0.07958984375,0.988037109375,-0.20947265625,-1.5869139432907104,0.1525878757238388,0.8544921278953552,100.0,33815.0,1.0
15:29:35.682575,198024.3125,173482.09375,238524.78125,205738.515625,198232.890625,167192.484375,686381.5,200920.640625,0.0791015625,0.988037109375,-0.208251953125,-1.5563963651657104,0.1525878757238388,0.9155272841453552,100.0,33816.0,1.0
15:29:35.682605,198021.4375,173477.796875,238521.203125,205742.09375,198228.328125,167178.890625,686443.8125,200922.25,0.078857421875,0.988525390625,-0.208984375,-1.4953612089157104,0.2136230319738388,0.9155272841453552,100.0,33817.0,1.0
15:29:35.682612,198020.1875,173480.84375,238525.046875,205740.3125,198233.421875,167201.703125,686479.3125,200914.828125,0.07958984375,0.987548828125,-0.206298828125,-1.4648436307907104,0.2136230319738388,0.7324218153953552,100.0,33818.0,1.0
15:29:35.685076,198019.296875,173484.5,238526.296875,205733.0625,198235.125,167216.453125,686415.9375,200905.53125,0.078857421875,0.989013671875,-0.208251953125,-1.4648436307907104,0.3356933295726776,0.8239745497703552,100.0,33819.0,1.0
15:29:35.688831,198013.046875,173475.03125,238514.9375,205729.84375,198225.734375,167192.046875,686378.9375,200908.578125,0.078125,0.9873046875,-0.209228515625,-1.4953612089157104,0.3051757514476776,0.7019042372703552,100.0,33820.0,1.0
15:29:35.697587,198009.46875,173467.15625,238510.5625,205734.234375,198221.265625,167172.1875,686426.9375,200915.109375,0.078369140625,0.9873046875,-0.209228515625,-1.5258787870407104,0.2441406100988388,0.7934569716453552,100.0,33821.0,1.0
15:29:35.701937,198011.609375,173472.703125,238514.5,205733.421875,198227.078125,167193.203125,686483.625,200911.703125,0.07958984375,0.989013671875,-0.209228515625,-1.4648436307907104,0.1831054538488388,0.7324218153953552,100.0,33822.0,1.0
15:29:35.701968,198011.4375,173475.828125,238519.046875,205727.34375,198230.84375,167210.8125,686425.4375,200904.109375,0.0791015625,0.989013671875,-0.210205078125,-1.4648436307907104,0.1831054538488388,0.7324218153953552,100.0,33823.0,1.0
15:29:35.708868,198009.734375,173471.453125,238511.71875,205722.609375,198222.34375,167192.390625,686388.125,200905.359375,0.079833984375,0.990478515625,-0.208740234375,-1.4038084745407104,0.2136230319738388,0.5493163466453552,100.0,33824.0,1.0
15:29:35.713164,198007.859375,173465.453125,238507.15625,205731.359375,198220.546875,167170.9375,686436.6875,200918.140625,0.07861328125,0.993408203125,-0.208251953125,-1.4953612089157104,0.1525878757238388,0.4577636420726776,100.0,33825.0,1.0
15:29:35.713192,198009.90625,173469.75,238509.125,205727.609375,198224.046875,167184.34375,686500.625,200913.40625,0.07861328125,0.994873046875,-0.209716796875,-1.4648436307907104,0.0610351525247097,0.4882812201976776,100.0,33826.0,1.0
15:29:35.725220,198012.59375,173476.453125,238517.625,205726.0,198232.796875,167210.09375,686442.875,200908.578125,0.077392578125,0.990966796875,-0.20849609375,-1.5258787870407104,0.1220703050494194,0.3051757514476776,100.0,33827.0,1.0
15:29:35.727654,198009.28125,173474.9375,238506.625,205717.953125,198221.71875,167195.609375,686403.25,200902.234375,0.076171875,0.991943359375,-0.208251953125,-1.5563963651657104,0.03051757626235485,0.1831054538488388,100.0,33828.0,1.0
15:29:35.730093,198001.421875,173462.859375,238497.0625,205726.09375,198214.296875,167165.9375,686419.5,200912.59375,0.07421875,0.992431640625,-0.207275390625,-1.5563963651657104,0.0610351525247097,0.0610351525247097,100.0,33829.0,1.0
15:29:35.745687,198003.203125,173464.390625,238498.40625,205729.40625,198216.4375,167171.390625,686488.625,200911.171875,0.07373046875,0.991943359375,-0.205322265625,-1.5869139432907104,-0.0610351525247097,0.0610351525247097,100.0,33830.0,1.0
15:29:35.745722,198004.28125,173467.25,238506.625,205731.09375,198224.484375,167196.421875,686429.8125,200906.34375,0.0751953125,0.990966796875,-0.207275390625,-1.6479490995407104,-0.1831054538488388,0.0610351525247097,100.0,33831.0,1.0
15:29:35.747612,197999.453125,173461.703125,238496.875,205718.21875,198212.15625,167185.78125,686391.625,200893.28125,0.0751953125,0.9921875,-0.208251953125,-1.6174315214157104,-0.2746581733226776,-0.03051757626235485,100.0,33832.0,1.0
15:29:35.750113,197995.15625,173451.78125,238489.28125,205723.671875,198206.875,167158.953125,686405.375,200905.171875,0.07568359375,0.992919921875,-0.20654296875,-1.7089842557907104,-0.3662109076976776,-0.0915527269244194,100.0,33833.0,1.0
15:29:35.753204,197994.984375,173452.5,238487.3125,205722.421875,198205.265625,167159.40625,686477.375,200903.390625,0.077880859375,0.9912109375,-0.205810546875,-1.7089842557907104,-0.3356933295726776,-0.0915527269244194,100.0,33834.0,1.0
15:29:35.753222,198000.796875,173464.125,238501.796875,205725.109375,198219.125,167195.171875,686437.375,200904.46875,0.0771484375,0.99072265625,-0.208740234375,-1.6784666776657104,-0.3967284858226776,0.0,100.0,33835.0,1.0
15:29:35.755105,198005.53125,173470.828125,238501.265625,205717.953125,198216.53125,167199.90625,686403.25,200897.671875,0.076904296875,0.98974609375,-0.20703125,-1.7089842557907104,-0.3356933295726776,0.0915527269244194,100.0,33836.0,1.0
15:29:35.768161,198000.171875,173461.078125,238492.140625,205721.53125,198209.5625,167171.203125,686396.5625,200907.59375,0.079345703125,0.988037109375,-0.203857421875,-1.6479490995407104,-0.5187987685203552,0.1220703050494194,100.0,33837.0,1.0
15:29:35.768183,197999.71875,173462.59375,238490.890625,205722.6875,198208.484375,167166.828125,686483.875,200907.140625,0.081298828125,0.988037109375,-0.203369140625,-1.7089842557907104,-0.4272460639476776,0.3051757514476776,100.0,33838.0,1.0
15:29:35.770669,198004.546875,173471.71875,238502.421875,205723.046875,198221.625,167198.828125,686495.6875,200906.078125,0.082275390625,0.988525390625,-0.203857421875,-1.6479490995407104,-0.3051757514476776,0.3662109076976776,100.0,33839.0,1.0
15:29:35.770683,198008.921875,173475.921875,238505.28125,205716.34375,198222.609375,167208.671875,686438.125,200897.84375,0.0849609375,0.987548828125,-0.205078125,-1.6174315214157104,-0.3967284858226776,0.4882812201976776,100.0,33840.0,1.0
15:29:35.772640,198009.546875,173469.296875,238499.46875,205723.953125,198216.53125,167182.109375,686411.625,200907.140625,0.084716796875,0.988037109375,-0.204833984375,-1.6174315214157104,-0.3051757514476776,0.6103515028953552,100.0,33841.0,1.0
15:29:35.801409,198011.703125,173467.6875,238500.09375,205729.75,198214.828125,167169.421875,686466.75,200912.15625,0.0830078125,0.98828125,-0.205078125,-1.6479490995407104,-0.3051757514476776,0.7324218153953552,100.0,33842.0,1.0
15:29:35.835720,198014.375,173472.171875,238505.828125,205726.0,198223.0625,167192.484375,686465.3125,200908.671875,0.08349609375,0.987548828125,-0.20751953125,-1.6174315214157104,-0.0915527269244194,0.7629393935203552,100.0,33843.0,1.0
15:29:35.835744,198021.0,173481.46875,238514.578125,205722.609375,198231.015625,167212.328125,686423.875,200904.546875,0.080810546875,0.9892578125,-0.2060546875,-1.6174315214157104,-0.0915527269244194,0.9460448622703552,100.0,33844.0,1.0
15:29:35.838335,198021.359375,173479.671875,238508.40625,205719.828125,198225.921875,167194.453125,686390.0,200906.78125,0.078369140625,0.989990234375,-0.204345703125,-1.6174315214157104,-0.0915527269244194,1.0986326932907104,100.0,33845.0,1.0
15:29:35.842057,198022.703125,173476.1875,238506.359375,205728.6875,198225.375,167178.09375,686426.9375,200915.1875,0.079345703125,0.98779296875,-0.205078125,-1.7089842557907104,-0.03051757626235485,1.1901854276657104,100.0,33846.0,1.0
15:29:35.842592,198029.671875,173485.484375,238515.296875,205731.71875,198233.96875,167198.5625,686494.25,200913.5,0.0771484375,0.988037109375,-0.205810546875,-1.7089842557907104,0.0,1.1901854276657104,100.0,33847.0,1.0
15:29:35.845282,198033.78125,173493.171875,238523.25,205727.171875,198240.84375,167221.8125,686428.0,200908.84375,0.07763671875,0.989501953125,-0.203369140625,-1.6784666776657104,-0.03051757626235485,1.1901854276657104,100.0,33848.0,1.0
15:29:35.858250,198032.4375,173491.65625,238514.046875,205723.671875,198233.609375,167206.703125,686385.8125,200908.3125,0.0791015625,0.989501953125,-0.203857421875,-1.7700194120407104,-0.03051757626235485,1.0986326932907104,100.0,33849.0,1.0
15:29:35.858270,198031.546875,173486.5625,238511.1875,205733.875,198230.84375,167186.671875,686417.875,200921.265625,0.07763671875,0.98828125,-0.20458984375,-1.7700194120407104,0.0,1.0986326932907104,100.0,33850.0,1.0
15:29:35.858274,198036.375,173494.15625,238516.109375,205731.359375,198237.1875,167203.21875,686494.625,200919.296875,0.07861328125,0.98828125,-0.20263671875,-1.7395018339157104,0.03051757626235485,1.0986326932907104,100.0,33851.0,1.0
15:29:35.858817,198040.40625,173502.921875,238526.203125,205729.125,198249.078125,167232.1875,686436.3125,200916.796875,0.078125,0.987548828125,-0.20458984375,-1.8310545682907104,0.0915527269244194,0.9765624403953552,100.0,33852.0,1.0
15:29:35.861379,198038.96875,173498.625,238518.25,205722.15625,198240.484375,167218.140625,686393.9375,200911.4375,0.0771484375,0.987548828125,-0.20458984375,-1.8310545682907104,0.0915527269244194,0.8239745497703552,100.0,33853.0,1.0
15:29:35.863870,198038.34375,173492.546875,238517.4375,205733.609375,198240.140625,167197.3125,686406.875,200928.25,0.078369140625,0.989013671875,-0.202880859375,-1.8615721464157104,0.1220703050494194,0.8544921278953552,100.0,33854.0,1.0
15:29:35.866388,198035.390625,173489.6875,238514.84375,205729.9375,198238.875,167198.5625,686490.0625,200921.09375,0.080078125,0.988037109375,-0.203125,-1.7089842557907104,0.03051757626235485,0.8544921278953552,100.0,33855.0,1.0
15:29:35.868818,198037.453125,173494.25,238525.9375,205731.8125,198249.25,167225.828125,686444.0,200920.28125,0.080810546875,0.987548828125,-0.205078125,-1.6784666776657104,0.03051757626235485,0.7629393935203552,100.0,33856.0,1.0
15:29:35.871319,198036.28125,173493.359375,238520.125,205722.421875,198241.125,167219.578125,686399.6875,200913.046875,0.082275390625,0.98681640625,-0.205322265625,-1.7089842557907104,0.1220703050494194,0.7019042372703552,100.0,33857.0,1.0
15:29:35.874816,198026.90625,173478.78125,238507.609375,205724.390625,198231.640625,167188.46875,686400.1875,200921.265625,0.084228515625,0.985107421875,-0.20703125,-1.7089842557907104,0.0915527269244194,0.7019042372703552,100.0,33858.0,1.0
15:29:35.874830,198024.125,173476.546875,238505.546875,205724.65625,198226.8125,167184.890625,686476.5625,200916.796875,0.0849609375,0.986572265625,-0.2099609375,-1.6479490995407104,0.1525878757238388,0.7324218153953552,100.0,33859.0,1.0
15:29:35.876913,198028.6875,173486.109375,238520.578125,205729.578125,198239.421875,167217.515625,686460.375,200917.25,0.0859375,0.985107421875,-0.205810546875,-1.5258787870407104,0.3051757514476776,0.7629393935203552,100.0,33860.0,1.0
15:29:35.876935,198028.859375,173489.421875,238516.640625,205721.890625,198235.578125,167221.09375,686413.0,200907.328125,0.085693359375,0.985107421875,-0.205810546875,-1.4648436307907104,0.3051757514476776,0.8544921278953552,100.0,33861.0,1.0
15:29:35.878934,198026.90625,173482.0,238508.234375,205726.890625,198229.9375,167196.234375,686398.25,200919.484375,0.085205078125,0.984375,-0.204345703125,-1.4038084745407104,0.4577636420726776,0.8850097060203552,100.0,33862.0,1.0
15:29:35.882004,198020.1875,173474.84375,238500.09375,205721.984375,198222.4375,167183.28125,686466.25,200916.171875,0.0859375,0.98388671875,-0.2080078125,-1.2817381620407104,0.5187987685203552,0.7629393935203552,100.0,33863.0,1.0
15:29:35.882015,198023.140625,173481.734375,238509.9375,205723.953125,198234.5,167211.078125,686467.375,200915.015625,0.08544921875,0.987060546875,-0.2080078125,-1.2512205839157104,0.6103515028953552,0.7629393935203552,100.0,33864.0,1.0
15:29:35.884383,198031.640625,173492.375,238518.0625,205724.21875,198240.046875,167226.015625,686412.0625,200911.890625,0.085205078125,0.98681640625,-0.2060546875,-1.1901854276657104,0.7324218153953552,0.7324218153953552,100.0,33865.0,1.0
15:29:35.884390,198026.265625,173482.53125,238511.0,205721.703125,198230.390625,167198.75,686388.5,200916.984375,0.08447265625,0.9873046875,-0.20703125,-1.1291502714157104,0.7629393935203552,0.7934569716453552,100.0,33866.0,1.0
15:29:35.886285,198020.640625,173474.40625,238505.015625,205720.375,198224.21875,167180.859375,686450.375,200918.40625,0.083251953125,0.98974609375,-0.20703125,-1.1596678495407104,0.9155272841453552,0.7629393935203552,100.0,33867.0,1.0
15:29:35.889453,198021.359375,173478.953125,238508.59375,205718.484375,198232.171875,167204.734375,686484.9375,200913.84375,0.08349609375,0.98828125,-0.208740234375,-1.0681151151657104,0.8850097060203552,0.6408690810203552,100.0,33868.0,1.0
15:29:35.889465,198020.1875,173480.921875,238509.21875,205711.875,198231.90625,167216.625,686419.0625,200903.390625,0.083740234375,0.98876953125,-0.20556640625,-1.0681151151657104,0.9155272841453552,0.6103515028953552,100.0,33869.0,1.0
15:29:35.891302,198017.59375,173473.328125,238500.453125,205708.75,198221.453125,167191.421875,686378.8125,200905.265625,0.080078125,0.9912109375,-0.208740234375,-0.9765624403953552,0.8850097060203552,0.6103515028953552,100.0,33870.0,1.0
15:29:35.903185,198016.96875,173467.25,238499.5625,205716.875,198219.484375,167171.296875,686422.9375,200915.734375,0.07958984375,0.98828125,-0.204833984375,-0.9765624403953552,0.9155272841453552,0.6103515028953552,100.0,33871.0,1.0
15:29:35.903198,198020.90625,173474.40625,238507.34375,205719.296875,198228.78125,167191.859375,686481.9375,200915.734375,0.077880859375,0.98974609375,-0.20458984375,-0.9765624403953552,0.8850097060203552,0.5187987685203552,100.0,33872.0,1.0
15:29:35.905046,198024.03125,173483.15625,238513.59375,205715.984375,198235.484375,167215.546875,686428.25,200908.9375,0.076416015625,0.990966796875,-0.20751953125,-0.9155272841453552,0.8239745497703552,0.4882812201976776,100.0,33873.0,1.0
15:29:35.908831,198024.75,173479.140625,238505.109375,205714.296875,198225.203125,167197.578125,686382.75,200908.390625,0.073974609375,0.9921875,-0.20751953125,-0.8850097060203552,0.7019042372703552,0.4577636420726776,100.0,33874.0,1.0
15:29:35.919421,198025.015625,173473.59375,238502.875,205729.75,198225.03125,167175.953125,686411.0,200923.0625,0.0751953125,0.9921875,-0.207275390625,-0.9155272841453552,0.6713866591453552,0.4272460639476776,100.0,33875.0,1.0
15:29:35.919429,198032.703125,173481.90625,238508.6875,205732.96875,198232.09375,167192.046875,686488.8125,200921.8125,0.076171875,0.98974609375,-0.206787109375,-1.0070799589157104,0.5798339247703552,0.2136230319738388,100.0,33876.0,1.0
15:29:35.921904,198039.6875,173492.8125,238520.65625,205734.765625,198243.359375,167222.34375,686432.625,200919.296875,0.076416015625,0.989501953125,-0.20751953125,-1.0070799589157104,0.5187987685203552,0.2136230319738388,100.0,33877.0,1.0
15:29:35.921912,198031.90625,173485.484375,238508.0625,205719.75,198228.515625,167206.078125,686392.5,200906.609375,0.077392578125,0.991455078125,-0.207763671875,-1.0681151151657104,0.3662109076976776,0.2746581733226776,100.0,33878.0,1.0
15:29:35.931316,198022.25,173471.546875,238495.09375,205718.84375,198218.234375,167177.46875,686414.875,200911.796875,0.07666015625,0.990478515625,-0.207275390625,-1.0375975370407104,0.2441406100988388,0.2441406100988388,100.0,33879.0,1.0
15:29:35.960744,198022.078125,173474.40625,238493.84375,205714.640625,198217.78125,167185.0625,686487.4375,200904.546875,0.076171875,0.98779296875,-0.206787109375,-1.0681151151657104,0.1831054538488388,0.2136230319738388,100.0,33880.0,1.0
15:29:35.960783,198025.109375,173483.25,238505.90625,205717.15625,198230.03125,167215.90625,686432.3125,200902.234375,0.078125,0.986572265625,-0.20654296875,-1.0070799589157104,0.2136230319738388,0.1525878757238388,100.0,33881.0,1.0
15:29:35.960790,198028.78125,173489.234375,238506.09375,205712.953125,198228.515625,167216.453125,686399.6875,200897.578125,0.077880859375,0.98681640625,-0.20849609375,-0.9460448622703552,0.1220703050494194,0.2441406100988388,100.0,33882.0,1.0
15:29:35.960796,198027.078125,173484.5,238499.296875,205720.90625,198226.359375,167192.9375,686393.125,200913.046875,0.078857421875,0.987060546875,-0.208740234375,-0.9765624403953552,0.1220703050494194,0.2746581733226776,100.0,33883.0,1.0
15:29:35.963758,198027.078125,173484.953125,238495.890625,205721.265625,198226.015625,167191.5,686469.875,200913.40625,0.077880859375,0.987060546875,-0.2080078125,-0.9765624403953552,0.0,0.3967284858226776,100.0,33884.0,1.0
15:29:35.963776,198030.296875,173493.796875,238506.71875,205723.859375,198239.78125,167223.0625,686467.1875,200913.21875,0.0791015625,0.9853515625,-0.20849609375,-0.9765624403953552,-0.0915527269244194,0.3662109076976776,100.0,33885.0,1.0
15:29:35.963783,198028.78125,173494.609375,238503.046875,205714.5625,198234.59375,167223.875,686401.0,200903.296875,0.07958984375,0.986572265625,-0.2080078125,-1.0375975370407104,-0.0610351525247097,0.5187987685203552,100.0,33886.0,1.0
15:29:35.966949,198022.96875,173483.34375,238491.96875,205718.046875,198224.046875,167194.09375,686383.5,200910.453125,0.07861328125,0.9873046875,-0.20947265625,-1.0375975370407104,-0.1831054538488388,0.5187987685203552,100.0,33887.0,1.0
15:29:35.966959,198022.421875,173482.453125,238488.46875,205722.15625,198220.546875,167183.71875,686450.8125,200911.078125,0.07958984375,0.984619140625,-0.207763671875,-1.0375975370407104,-0.1831054538488388,0.5798339247703552,100.0,33888.0,1.0
15:29:35.968811,198025.828125,173489.953125,238497.140625,205722.609375,198232.359375,167211.625,686470.75,200909.375,0.080078125,0.9833984375,-0.21044921875,-0.9765624403953552,-0.2441406100988388,0.7629393935203552,100.0,33889.0,1.0
15:29:35.972622,198029.765625,173495.59375,238501.265625,205717.59375,198235.484375,167224.859375,686420.25,200903.5625,0.078857421875,0.98388671875,-0.20947265625,-0.8850097060203552,-0.3051757514476776,0.7019042372703552,100.0,33890.0,1.0
15:29:35.980098,198023.765625,173483.96875,238490.703125,205715.09375,198226.09375,167196.515625,686389.9375,200909.015625,0.076904296875,0.986083984375,-0.21044921875,-0.9155272841453552,-0.3356933295726776,0.7324218153953552,100.0,33891.0,1.0
15:29:35.985913,198021.4375,173478.78125,238486.953125,205717.234375,198224.21875,167181.3125,686451.8125,200913.40625,0.0771484375,0.988525390625,-0.20703125,-0.8544921278953552,-0.3662109076976776,0.7019042372703552,100.0,33892.0,1.0
15:29:35.985988,198025.5625,173485.390625,238495.8125,205717.6875,198234.40625,167205.0,686487.0,200911.34375,0.073974609375,0.98779296875,-0.211669921875,-1.0375975370407104,-0.4577636420726776,0.6103515028953552,100.0,33893.0,1.0
15:29:35.995288,198030.65625,173493.4375,238504.03125,205715.265625,198241.921875,167224.859375,686430.0,200907.6875,0.0751953125,0.99169921875,-0.20947265625,-1.0375975370407104,-0.4577636420726776,0.6103515028953552,100.0,33894.0,1.0
15:29:35.995361,198028.328125,173487.71875,238497.421875,205713.578125,198232.53125,167203.65625,686385.25,200910.09375,0.075439453125,0.991455078125,-0.207275390625,-1.0375975370407104,-0.4882812201976776,0.5493163466453552,100.0,33895.0,1.0
15:29:36.005714,198028.78125,173486.46875,238497.953125,205724.84375,198232.53125,167187.84375,686421.75,200921.265625,0.07568359375,0.99169921875,-0.21142578125,-1.1291502714157104,-0.5187987685203552,0.5493163466453552,100.0,33896.0,1.0
15:29:36.005741,198028.78125,173492.546875,238500.453125,205721.0,198235.65625,167203.65625,686491.5,200915.734375,0.075927734375,0.99169921875,-0.208740234375,-1.1596678495407104,-0.6408690810203552,0.3967284858226776,100.0,33897.0,1.0
15:29:36.008250,198029.046875,173495.671875,238507.96875,205715.90625,198239.234375,167222.609375,686434.4375,200905.890625,0.076171875,0.992431640625,-0.2099609375,-1.4038084745407104,-0.6713866591453552,0.3967284858226776,100.0,33898.0,1.0
15:29:36.008331,198030.46875,173494.96875,238503.234375,205713.75,198233.609375,167210.1875,686393.375,200905.453125,0.078369140625,0.992431640625,-0.2099609375,-1.4953612089157104,-0.7934569716453552,0.4272460639476776,100.0,33899.0,1.0
15:29:36.026377,198027.96875,173489.15625,238496.796875,205719.921875,198231.109375,167189.984375,686421.3125,200917.0625,0.07958984375,0.9931640625,-0.210205078125,-1.5258787870407104,-0.8544921278953552,0.5493163466453552,100.0,33900.0,1.0
15:29:36.026470,198025.296875,173488.96875,238494.375,205711.421875,198230.75,167199.90625,686485.5,200909.921875,0.080078125,0.99462890625,-0.21044921875,-1.6174315214157104,-0.8544921278953552,0.4577636420726776,100.0,33901.0,1.0
15:29:36.028557,198029.484375,173498.0,238504.84375,205712.6875,198243.703125,167230.75,686435.4375,200909.828125,0.0791015625,0.993408203125,-0.2109375,-1.6174315214157104,-0.7934569716453552,0.3662109076976776,100.0,33902.0,1.0
15:29:36.028636,198026.1875,173495.59375,238496.796875,205702.125,198232.796875,167218.140625,686393.0625,200900.703125,0.08056640625,0.991943359375,-0.209228515625,-1.6784666776657104,-0.7324218153953552,0.4272460639476776,100.0,33903.0,1.0
15:29:36.030880,198018.5,173482.453125,238488.125,205704.90625,198225.296875,167189.09375,686414.875,200908.578125,0.082275390625,0.98974609375,-0.210205078125,-1.7395018339157104,-0.5493163466453552,0.5187987685203552,100.0,33904.0,1.0
15:29:36.030955,198015.546875,173479.40625,238482.03125,205699.1875,198222.796875,167189.890625,686488.8125,200903.203125,0.085693359375,0.9921875,-0.20703125,-1.8310545682907104,-0.5493163466453552,0.4577636420726776,100.0,33905.0,1.0
15:29:36.041508,198020.015625,173486.46875,238494.734375,205700.703125,198236.46875,167218.59375,686458.6875,200903.5625,0.083740234375,0.9892578125,-0.20947265625,-1.8310545682907104,-0.5187987685203552,0.5187987685203552,100.0,33906.0,1.0
15:29:36.046449,198021.890625,173486.5625,238490.625,205693.90625,198229.40625,167213.140625,686408.0625,200893.90625,0.082763671875,0.9892578125,-0.20947265625,-1.9531248807907104,-0.4272460639476776,0.6408690810203552,100.0,33907.0,1.0
15:29:36.046509,198018.9375,173477.265625,238484.984375,205704.984375,198223.5,167186.140625,686408.0625,200906.34375,0.084228515625,0.9892578125,-0.206787109375,-1.9226073026657104,-0.3967284858226776,0.6713866591453552,100.0,33908.0,1.0
15:29:36.047724,198018.859375,173477.625,238485.4375,205704.640625,198221.890625,167184.0,686481.125,200903.921875,0.083251953125,0.989501953125,-0.20947265625,-1.9226073026657104,-0.2136230319738388,0.7629393935203552,100.0,33909.0,1.0
15:29:36.060988,198020.015625,173484.953125,238493.484375,205703.65625,198233.515625,167215.546875,686472.0,200900.625,0.08447265625,0.990234375,-0.208251953125,-1.9226073026657104,-0.0610351525247097,0.7629393935203552,100.0,33910.0,1.0
15:29:36.061006,198019.921875,173487.90625,238490.796875,205697.125,198229.40625,167219.125,686412.625,200892.921875,0.0830078125,0.989501953125,-0.209228515625,-2.044677495956421,0.03051757626235485,0.7019042372703552,100.0,33911.0,1.0
15:29:36.063406,198014.296875,173478.6875,238479.359375,205698.90625,198221.8125,167191.140625,686391.0625,200902.046875,0.08251953125,0.988525390625,-0.20947265625,-2.044677495956421,0.0,0.7324218153953552,100.0,33912.0,1.0
15:29:36.063483,198013.046875,173477.625,238476.859375,205699.890625,198219.65625,167183.453125,686458.5,200903.390625,0.083251953125,0.98779296875,-0.208984375,-2.136230230331421,0.0,0.8239745497703552,100.0,33913.0,1.0
15:29:36.072299,198015.09375,173485.046875,238485.796875,205699.0,198229.5,167213.765625,686455.4375,200900.890625,0.082763671875,0.98876953125,-0.21044921875,-2.014159917831421,0.1831054538488388,0.7934569716453552,100.0,33914.0,1.0
15:29:36.076968,198019.65625,173493.53125,238490.984375,205694.703125,198230.03125,167227.0,686409.875,200893.109375,0.082763671875,0.98828125,-0.211181640625,-2.105712652206421,0.1831054538488388,0.7934569716453552,100.0,33915.0,1.0
15:29:36.076998,198019.125,173488.265625,238483.375,205698.546875,198225.65625,167205.0,686385.25,200901.6875,0.083740234375,0.9892578125,-0.207763671875,-2.075195074081421,0.2746581733226776,0.8544921278953552,100.0,33916.0,1.0
15:29:36.083271,198014.5625,173478.0625,238477.296875,205701.421875,198218.40625,167186.3125,686450.5625,200905.09375,0.0810546875,0.989501953125,-0.2109375,-2.075195074081421,0.3662109076976776,0.6408690810203552,100.0,33917.0,1.0
15:29:36.083320,198015.90625,173482.0,238482.9375,205700.078125,198224.9375,167207.15625,686492.5625,200902.578125,0.081787109375,0.987548828125,-0.209228515625,-2.136230230331421,0.4882812201976776,0.7019042372703552,100.0,33918.0,1.0
15:29:36.088842,198021.796875,173491.828125,238491.609375,205701.421875,198233.421875,167228.421875,686420.875,200900.703125,0.080322265625,0.989990234375,-0.20751953125,-2.075195074081421,0.4272460639476776,0.6408690810203552,100.0,33919.0,1.0
15:29:36.099581,198021.796875,173487.546875,238485.34375,205701.6875,198227.625,167209.03125,686380.625,200904.734375,0.081787109375,0.990234375,-0.208740234375,-2.166747808456421,0.4272460639476776,0.8239745497703552,100.0,33920.0,1.0
15:29:36.099631,198018.5,173478.875,238481.328125,205709.734375,198224.125,167187.5625,686434.4375,200914.828125,0.082763671875,0.990234375,-0.211181640625,-2.166747808456421,0.4882812201976776,0.7629393935203552,100.0,33921.0,1.0
15:29:36.101938,198020.375,173481.828125,238485.96875,205709.640625,198229.40625,167204.375,686486.75,200911.796875,0.08203125,0.98974609375,-0.205322265625,-2.136230230331421,0.5493163466453552,0.6103515028953552,100.0,33922.0,1.0
15:29:36.101950,198028.515625,173491.828125,238499.65625,205712.765625,198241.03125,167231.109375,686425.0625,200912.515625,0.079833984375,0.98974609375,-0.205322265625,-2.258300542831421,0.4882812201976776,0.6103515028953552,100.0,33923.0,1.0
15:29:36.103842,198028.0625,173486.828125,238492.59375,205706.78125,198231.734375,167213.59375,686388.875,200910.28125,0.079833984375,0.9912109375,-0.20654296875,-2.197265386581421,0.5493163466453552,0.5798339247703552,100.0,33924.0,1.0
15:29:36.135096,198023.40625,173477.171875,238485.609375,205712.328125,198225.203125,167185.421875,686428.25,200919.65625,0.07958984375,0.98779296875,-0.20654296875,-2.197265386581421,0.5493163466453552,0.6713866591453552,100.0,33925.0,1.0
15:29:36.150378,198024.21875,173481.828125,238484.90625,205707.9375,198225.921875,167193.828125,686496.25,200912.59375,0.078369140625,0.9892578125,-0.2041015625,-2.136230230331421,0.5493163466453552,0.4882812201976776,100.0,33926.0,1.0
15:29:36.150407,198031.28125,173492.734375,238497.0625,205711.515625,198239.328125,167224.40625,686433.625,200912.953125,0.078857421875,0.989501953125,-0.20654296875,-2.075195074081421,0.5493163466453552,0.5493163466453552,100.0,33927.0,1.0
15:29:36.150414,198034.046875,173495.140625,238492.5,205708.84375,198234.328125,167215.546875,686385.625,200909.203125,0.078369140625,0.990478515625,-0.204345703125,-2.075195074081421,0.5493163466453552,0.5187987685203552,100.0,33928.0,1.0
15:29:36.150420,198027.875,173485.125,238482.9375,205719.296875,198229.234375,167188.015625,686393.3125,200921.1875,0.077392578125,0.989501953125,-0.2041015625,-2.014159917831421,0.4272460639476776,0.4882812201976776,100.0,33929.0,1.0
15:29:36.150425,198023.859375,173482.265625,238477.75,205713.75,198226.546875,167189.359375,686473.3125,200914.828125,0.076904296875,0.987548828125,-0.202392578125,-1.8615721464157104,0.3356933295726776,0.5493163466453552,100.0,33930.0,1.0
15:29:36.152727,198026.984375,173489.59375,238490.359375,205714.203125,198239.0625,167219.9375,686442.5625,200915.1875,0.075927734375,0.9873046875,-0.200927734375,-1.9531248807907104,0.3662109076976776,0.6103515028953552,100.0,33931.0,1.0
15:29:36.179106,198028.0625,173490.671875,238485.96875,205706.421875,198233.25,167216.71875,686394.5,200907.859375,0.078857421875,0.98779296875,-0.2021484375,-1.9226073026657104,0.3356933295726776,0.4882812201976776,100.0,33932.0,1.0
15:29:36.198985,198026.453125,173485.125,238480.515625,205715.359375,198228.875,167190.609375,686393.5,200920.90625,0.077880859375,0.98779296875,-0.204345703125,-1.8005369901657104,0.2441406100988388,0.4577636420726776,100.0,33933.0,1.0
15:29:36.201708,198032.703125,173490.765625,238486.78125,205725.375,198234.328125,167192.21875,686477.625,200925.03125,0.07763671875,0.98779296875,-0.2041015625,-1.7089842557907104,0.3051757514476776,0.4882812201976776,100.0,33934.0,1.0
15:29:36.203870,198034.234375,173496.125,238495.53125,205726.0,198243.984375,167221.546875,686449.375,200919.9375,0.078857421875,0.988525390625,-0.20556640625,-1.6784666776657104,0.3051757514476776,0.4272460639476776,100.0,33935.0,1.0
15:29:36.212746,198027.171875,173491.65625,238484.546875,205715.0,198230.125,167218.765625,686397.6875,200898.296875,0.0771484375,0.9892578125,-0.205322265625,-1.6174315214157104,0.2136230319738388,0.3967284858226776,100.0,33936.0,1.0
15:29:36.212816,198026.0,173487.90625,238477.84375,205724.296875,198226.015625,167196.421875,686389.125,200910.984375,0.077392578125,0.9892578125,-0.202880859375,-1.5563963651657104,0.1220703050494194,0.5493163466453552,100.0,33937.0,1.0
15:29:36.212820,198026.90625,173488.609375,238475.875,205726.984375,198226.984375,167191.421875,686465.625,200917.421875,0.076171875,0.98828125,-0.20263671875,-1.5563963651657104,0.0915527269244194,0.5493163466453552,100.0,33938.0,1.0
15:29:36.213847,198026.265625,173491.5625,238480.078125,205719.125,198233.703125,167215.375,686467.375,200912.328125,0.076171875,0.987548828125,-0.20458984375,-1.5563963651657104,0.03051757626235485,0.6408690810203552,100.0,33939.0,1.0
15:29:36.216326,198026.546875,173495.40625,238481.6875,205708.390625,198233.421875,167225.03125,686415.9375,200902.046875,0.07666015625,0.9892578125,-0.2060546875,-1.5563963651657104,-0.0915527269244194,0.6103515028953552,100.0,33940.0,1.0
15:29:36.218836,198025.5625,173491.828125,238474.4375,205711.515625,198228.78125,167205.0,686391.1875,200910.625,0.077392578125,0.988037109375,-0.203369140625,-1.6479490995407104,-0.0915527269244194,0.6103515028953552,100.0,33941.0,1.0
15:29:36.221316,198022.421875,173485.9375,238470.59375,205716.4375,198224.484375,167188.640625,686450.4375,200915.28125,0.079345703125,0.9892578125,-0.20361328125,-1.5563963651657104,-0.0610351525247097,0.5187987685203552,100.0,33942.0,1.0
15:29:36.223917,198030.125,173497.015625,238482.65625,205720.8125,198237.8125,167217.15625,686492.9375,200916.625,0.077880859375,0.989013671875,-0.203369140625,-1.5563963651657104,-0.1525878757238388,0.5798339247703552,100.0,33943.0,1.0
15:29:36.226297,198033.609375,173503.546875,238487.578125,205718.140625,198243.4375,167236.390625,686432.5,200909.734375,0.077880859375,0.98876953125,-0.205078125,-1.6174315214157104,-0.2441406100988388,0.5798339247703552,100.0,33944.0,1.0
15:29:36.228879,198032.0,173499.34375,238480.421875,205719.03125,198236.203125,167216.8125,686390.0,200911.703125,0.076171875,0.9892578125,-0.202392578125,-1.4343260526657104,-0.1525878757238388,0.4882812201976776,100.0,33945.0,1.0
15:29:36.231321,198030.5625,173494.96875,238477.484375,205727.25,198232.984375,167197.84375,686431.9375,200921.265625,0.07568359375,0.9892578125,-0.203369140625,-1.4648436307907104,-0.2136230319738388,0.5798339247703552,100.0,33946.0,1.0
15:29:36.233933,198032.984375,173500.859375,238481.40625,205721.984375,198237.546875,167216.890625,686492.625,200916.625,0.076904296875,0.98974609375,-0.205810546875,-1.3732908964157104,-0.3051757514476776,0.6713866591453552,100.0,33947.0,1.0
15:29:36.236327,198032.53125,173505.15625,238486.78125,205714.640625,198243.171875,167240.765625,686431.125,200909.203125,0.07763671875,0.989013671875,-0.204833984375,-1.4038084745407104,-0.3356933295726776,0.6103515028953552,100.0,33948.0,1.0
15:29:36.239410,198033.96875,173505.96875,238481.328125,205711.703125,198237.453125,167232.09375,686391.6875,200909.828125,0.076416015625,0.98828125,-0.203369140625,-1.4343260526657104,-0.3662109076976776,0.6713866591453552,100.0,33949.0,1.0
15:29:36.239417,198032.4375,173499.4375,238478.109375,205722.609375,198235.84375,167216.359375,686424.4375,200925.296875,0.07666015625,0.98974609375,-0.20556640625,-1.4953612089157104,-0.4272460639476776,0.6408690810203552,100.0,33950.0,1.0
15:29:36.241310,198029.671875,173498.890625,238475.15625,205715.8125,198233.875,167223.875,686499.0625,200917.875,0.0791015625,0.990234375,-0.203857421875,-1.4648436307907104,-0.4272460639476776,0.6713866591453552,100.0,33951.0,1.0
15:29:36.244991,198033.15625,173507.65625,238485.171875,205717.0625,198247.109375,167254.453125,686445.1875,200916.984375,0.07861328125,0.98828125,-0.204833984375,-1.4953612089157104,-0.3967284858226776,0.7019042372703552,100.0,33952.0,1.0
15:29:36.245001,198032.984375,173507.03125,238480.15625,205709.375,198240.671875,167246.671875,686395.375,200910.359375,0.07958984375,0.99072265625,-0.2041015625,-1.4953612089157104,-0.4272460639476776,0.7324218153953552,100.0,33953.0,1.0
15:29:36.245004,198030.296875,173498.359375,238476.046875,205720.546875,198237.1875,167221.09375,686403.0625,200924.84375,0.078857421875,0.989990234375,-0.2060546875,-1.4953612089157104,-0.4272460639476776,0.7629393935203552,100.0,33954.0,1.0
15:29:36.248197,198030.296875,173498.453125,238474.34375,205721.796875,198236.375,167221.8125,686486.375,200921.625,0.078125,0.988525390625,-0.20654296875,-1.4343260526657104,-0.3967284858226776,0.7324218153953552,100.0,33955.0,1.0
15:29:36.248211,198033.34375,173506.140625,238484.90625,205723.765625,198247.375,167248.8125,686449.125,200919.65625,0.08056640625,0.988525390625,-0.206787109375,-1.4648436307907104,-0.3662109076976776,0.7629393935203552,100.0,33956.0,1.0
15:29:36.250113,198034.234375,173507.84375,238480.78125,205722.25,198241.03125,167244.703125,686397.875,200911.609375,0.08154296875,0.988525390625,-0.204833984375,-1.3427733182907104,-0.3662109076976776,0.7629393935203552,100.0,33957.0,1.0
15:29:36.255686,198027.4375,173496.578125,238470.59375,205727.609375,198232.453125,167216.1875,686400.125,200920.109375,0.08251953125,0.989501953125,-0.202880859375,-1.3732908964157104,-0.3356933295726776,0.7324218153953552,100.0,33958.0,1.0
15:29:36.255707,198026.359375,173494.34375,238468.0,205724.21875,198229.40625,167210.8125,686476.125,200917.609375,0.084228515625,0.98779296875,-0.203369140625,-1.3732908964157104,-0.4272460639476776,0.7324218153953552,100.0,33959.0,1.0
15:29:36.257634,198028.421875,173500.59375,238477.5625,205723.5,198239.421875,167239.15625,686452.5625,200915.546875,0.084228515625,0.986083984375,-0.203857421875,-1.4038084745407104,-0.2441406100988388,0.7629393935203552,100.0,33960.0,1.0
15:29:36.260234,198030.921875,173506.046875,238479.53125,205717.6875,198238.4375,167246.21875,686406.5625,200909.921875,0.08251953125,0.985595703125,-0.20458984375,-1.4038084745407104,-0.1831054538488388,0.7934569716453552,100.0,33961.0,1.0
15:29:36.263169,198028.78125,173498.890625,238471.484375,205724.21875,198234.328125,167220.734375,686389.5,200922.4375,0.08349609375,0.988525390625,-0.2041015625,-1.3122557401657104,-0.1525878757238388,0.7324218153953552,100.0,33962.0,1.0
15:29:36.263191,198029.140625,173496.484375,238469.609375,205729.40625,198233.25,167211.53125,686457.75,200926.546875,0.083251953125,0.98876953125,-0.207275390625,-1.3122557401657104,-0.0610351525247097,0.7629393935203552,100.0,33963.0,1.0
15:29:36.273944,198034.5,173504.625,238482.21875,205734.3125,198245.765625,167240.140625,686473.9375,200926.546875,0.0830078125,0.98876953125,-0.207275390625,-1.3122557401657104,0.0,0.7324218153953552,100.0,33964.0,1.0
15:29:36.277061,198040.40625,173514.640625,238487.21875,205731.640625,198250.328125,167255.421875,686414.125,200921.71875,0.08203125,0.990478515625,-0.208251953125,-1.3122557401657104,0.0,0.7019042372703552,100.0,33965.0,1.0
15:29:36.277162,198037.265625,173512.046875,238477.5625,205729.84375,198244.421875,167234.0625,686377.5,200927.4375,0.08544921875,0.989990234375,-0.2080078125,-1.2207030057907104,0.03051757626235485,0.6713866591453552,100.0,33966.0,1.0
