Timestamp,Fz,FC3,FCz,FC4,Cz,C3,C4
15:31:01.465221,196998.625,174419.34375,234980.234375,204611.0,198486.984375,168048.203125,686542.875,200216.75,0.105712890625,0.98095703125,-0.224609375,-1.3427733182907104,-0.6408690810203552,1.3427733182907104,100.0,55271.0,1.0
15:31:01.465308,197000.59375,174421.046875,234980.859375,204615.828125,198490.03125,168051.0625,686582.0625,200216.75,0.107666015625,0.97998046875,-0.223876953125,-1.3427733182907104,-0.4882812201976776,1.1596678495407104,100.0,55272.0,1.0
15:31:01.467250,197010.515625,174436.0625,234998.65625,204623.796875,198513.359375,168095.3125,686572.25,200223.71875,0.109619140625,0.981201171875,-0.223388671875,-1.4038084745407104,-0.3356933295726776,0.9765624403953552,100.0,55273.0,1.0
15:31:01.467288,197009.09375,174435.703125,234992.65625,204615.125,198506.65625,168092.546875,686578.6875,200215.21875,0.111083984375,0.98095703125,-0.223388671875,-1.4343260526657104,-0.2441406100988388,1.0070799589157104,100.0,55274.0,1.0
15:31:01.467294,196996.578125,174417.90625,234975.671875,204611.546875,198490.390625,168052.84375,686564.1875,200218.265625,0.110107421875,0.983154296875,-0.223876953125,-1.2817381620407104,-0.3051757514476776,1.0375975370407104,100.0,55275.0,1.0
15:31:01.470748,196992.734375,174413.171875,234968.34375,204606.984375,198484.65625,168044.71875,686580.375,200214.6875,0.11083984375,0.98388671875,-0.22314453125,-1.2817381620407104,-0.1220703050494194,1.0375975370407104,100.0,55276.0,1.0
15:31:01.470762,196994.15625,174420.328125,234976.65625,204608.234375,198498.15625,168077.96875,686572.375,200214.328125,0.1123046875,0.986328125,-0.220458984375,-1.3732908964157104,0.0610351525247097,0.9765624403953552,100.0,55277.0,1.0
15:31:01.470767,196997.28125,174429.265625,234977.46875,204601.703125,198500.671875,168092.28125,686571.0625,200208.78125,0.110595703125,0.98486328125,-0.221435546875,-1.3732908964157104,0.2441406100988388,0.8239745497703552,100.0,55278.0,1.0
15:31:01.475134,196994.515625,174422.65625,234967.71875,204604.484375,198492.0,168065.375,686562.8125,200219.6875,0.110107421875,0.9853515625,-0.21923828125,-1.3732908964157104,0.3356933295726776,0.7324218153953552,100.0,55279.0,1.0
15:31:01.475149,196990.84375,174418.359375,234961.109375,204605.28125,198486.09375,168052.40625,686555.9375,200218.984375,0.107666015625,0.98486328125,-0.220458984375,-1.3732908964157104,0.3662109076976776,0.5798339247703552,100.0,55280.0,1.0
15:31:01.475153,196987.984375,174418.71875,234963.96875,204612.34375,198493.15625,168075.5625,686590.125,200213.078125,0.107421875,0.983154296875,-0.221923828125,-1.2817381620407104,0.4882812201976776,0.6103515028953552,100.0,55281.0,1.0
15:31:01.475156,196989.234375,174423.453125,234965.21875,204619.859375,198494.59375,168084.859375,686564.6875,200205.484375,0.107666015625,0.985107421875,-0.220947265625,-1.4343260526657104,0.5493163466453552,0.5493163466453552,100.0,55282.0,1.0
15:31:01.477084,196984.859375,174414.15625,234951.796875,204621.109375,198480.90625,168053.125,686569.4375,200208.609375,0.1064453125,0.98486328125,-0.2216796875,-1.4343260526657104,0.5493163466453552,0.4882812201976776,100.0,55283.0,1.0
15:31:01.479527,196976.90625,174404.140625,234940.890625,204618.25,198469.109375,168029.15625,686548.8125,200206.90625,0.106201171875,0.98291015625,-0.22314453125,-1.4953612089157104,0.6713866591453552,0.4882812201976776,100.0,55284.0,1.0
15:31:01.482105,196975.03125,174406.828125,234944.03125,204618.078125,198475.71875,168051.953125,686591.0625,200202.703125,0.105224609375,0.982177734375,-0.2236328125,-1.4648436307907104,0.7324218153953552,0.4272460639476776,100.0,55285.0,1.0
15:31:01.484545,196976.359375,174411.203125,234950.734375,204616.8125,198481.53125,168074.75,686569.0625,200196.890625,0.104736328125,0.981689453125,-0.22314453125,-1.4343260526657104,0.7629393935203552,0.4272460639476776,100.0,55286.0,1.0
15:31:01.487019,196976.015625,174407.8125,234946.53125,204614.3125,198473.046875,168054.546875,686576.0,200199.484375,0.102294921875,0.9833984375,-0.2216796875,-1.4038084745407104,0.7934569716453552,0.5187987685203552,100.0,55287.0,1.0
15:31:01.490118,196970.5625,174397.53125,234936.78125,204615.75,198462.484375,168025.578125,686538.125,200205.203125,0.103271484375,0.984619140625,-0.22412109375,-1.3427733182907104,0.8239745497703552,0.5187987685203552,100.0,55288.0,1.0
15:31:01.490130,196974.84375,174403.703125,234941.078125,204616.46875,198469.28125,168046.59375,686591.1875,200203.15625,0.103271484375,0.985595703125,-0.224609375,-1.3732908964157104,0.7934569716453552,0.5493163466453552,100.0,55289.0,1.0
15:31:01.500107,196977.4375,174410.671875,234951.625,204619.234375,198481.09375,168075.734375,686564.625,200199.9375,0.104248046875,0.985107421875,-0.225341796875,-1.3427733182907104,0.8239745497703552,0.5798339247703552,100.0,55290.0,1.0
15:31:01.500119,196972.796875,174402.984375,234940.890625,204610.03125,198469.46875,168056.515625,686569.0625,200195.28125,0.10400390625,0.97998046875,-0.2236328125,-1.3732908964157104,0.8239745497703552,0.5187987685203552,100.0,55291.0,1.0
15:31:01.502689,196969.75,174395.203125,234933.46875,204612.4375,198461.0625,168028.0,686537.375,200205.65625,0.1005859375,0.974609375,-0.22119140625,-1.2817381620407104,0.7934569716453552,0.5493163466453552,100.0,55292.0,1.0
15:31:01.502749,196971.1875,174401.640625,234936.15625,204606.0,198465.4375,168042.125,686590.25,200201.1875,0.096435546875,0.976318359375,-0.2216796875,-1.0070799589157104,0.7934569716453552,0.6103515028953552,100.0,55293.0,1.0
15:31:01.518325,196968.59375,174406.640625,234944.734375,204599.65625,198476.078125,168073.328125,686564.625,200196.0,0.09619140625,0.9794921875,-0.2236328125,-1.0375975370407104,0.6408690810203552,0.7934569716453552,100.0,55294.0,1.0
15:31:01.521510,196969.75,174407.625,234940.359375,204593.484375,198471.15625,168067.875,686571.6875,200191.703125,0.0966796875,0.982666015625,-0.223876953125,-1.0681151151657104,0.3662109076976776,0.9155272841453552,100.0,55295.0,1.0
15:31:01.521522,196969.296875,174399.765625,234933.828125,204600.90625,198466.875,168039.703125,686546.0,200206.1875,0.099365234375,0.98486328125,-0.2236328125,-1.0986326932907104,0.2441406100988388,0.9155272841453552,100.0,55296.0,1.0
15:31:01.526421,196972.796875,174401.109375,234934.90625,204598.578125,198467.671875,168041.859375,686585.625,200204.140625,0.10009765625,0.987548828125,-0.222900390625,-1.0986326932907104,0.2136230319738388,0.8850097060203552,100.0,55297.0,1.0
15:31:01.526451,196974.484375,174404.765625,234945.359375,204597.59375,198478.046875,168068.671875,686587.6875,200200.734375,0.1015625,0.98779296875,-0.22314453125,-1.1291502714157104,0.1831054538488388,0.8544921278953552,100.0,55298.0,1.0
15:31:01.528308,196976.8125,174405.390625,234944.03125,204589.546875,198472.6875,168066.703125,686586.0625,200192.15625,0.101806640625,0.988037109375,-0.221435546875,-1.1596678495407104,0.1220703050494194,0.7934569716453552,100.0,55299.0,1.0
15:31:01.532056,196978.515625,174401.546875,234940.0,204599.75,198467.765625,168038.453125,686559.875,200205.84375,0.102294921875,0.98828125,-0.22119140625,-1.3122557401657104,0.0915527269244194,0.7629393935203552,100.0,55300.0,1.0
15:31:01.551432,196978.953125,174402.4375,234938.484375,204599.921875,198464.359375,168032.46875,686563.375,200201.546875,0.101806640625,0.98583984375,-0.220947265625,-1.3732908964157104,-0.03051757626235485,0.8544921278953552,100.0,55301.0,1.0
15:31:01.551448,196983.515625,174410.578125,234952.875,204603.234375,198479.484375,168066.890625,686565.9375,200200.46875,0.10205078125,0.98388671875,-0.2216796875,-1.4343260526657104,-0.0610351525247097,0.8544921278953552,100.0,55302.0,1.0
15:31:01.553328,196981.828125,174413.171875,234953.234375,204593.9375,198476.171875,168076.09375,686574.75,200190.09375,0.102294921875,0.983154296875,-0.220703125,-1.4648436307907104,-0.0915527269244194,0.7934569716453552,100.0,55303.0,1.0
15:31:01.558340,196974.21875,174399.9375,234938.21875,204592.859375,198463.03125,168039.890625,686563.75,200195.015625,0.1025390625,0.98095703125,-0.222900390625,-1.4648436307907104,-0.0610351525247097,0.9155272841453552,100.0,55304.0,1.0
15:31:01.560937,196967.875,174390.46875,234928.375,204591.34375,198453.90625,168018.15625,686568.625,200192.515625,0.103515625,0.980712890625,-0.220458984375,-1.5258787870407104,-0.1220703050494194,0.8544921278953552,100.0,55305.0,1.0
15:31:01.563310,196972.34375,174399.5,234941.34375,204591.421875,198469.109375,168051.953125,686613.875,200192.0625,0.1044921875,0.98388671875,-0.224853515625,-1.4953612089157104,-0.2746581733226776,0.9155272841453552,100.0,55306.0,1.0
15:31:01.566679,196977.703125,174409.421875,234950.015625,204590.359375,198475.625,168073.140625,686587.125,200186.96875,0.10400390625,0.981689453125,-0.224609375,-1.4953612089157104,-0.2746581733226776,0.9155272841453552,100.0,55307.0,1.0
15:31:01.566702,196975.03125,174400.203125,234939.90625,204590.984375,198465.796875,168043.90625,686582.875,200191.4375,0.104248046875,0.98193359375,-0.22216796875,-1.4648436307907104,-0.3051757514476776,0.9155272841453552,100.0,55308.0,1.0
15:31:01.568354,196973.6875,174393.328125,234933.203125,204594.828125,198458.734375,168021.46875,686560.0625,200197.34375,0.103759765625,0.982421875,-0.224365234375,-1.3427733182907104,-0.3967284858226776,0.7934569716453552,100.0,55309.0,1.0
15:31:01.575857,196972.171875,174397.078125,234937.40625,204591.609375,198465.703125,168045.15625,686597.1875,200191.890625,0.103759765625,0.982177734375,-0.22119140625,-1.4038084745407104,-0.3051757514476776,0.7629393935203552,100.0,55310.0,1.0
15:31:01.586450,196968.40625,174398.953125,234940.265625,204583.5625,198469.109375,168065.375,686567.75,200180.984375,0.1044921875,0.979248046875,-0.221435546875,-1.4343260526657104,-0.2746581733226776,0.8239745497703552,100.0,55311.0,1.0
15:31:01.586465,196968.3125,174396.453125,234932.578125,204583.203125,198462.125,168047.484375,686572.375,200184.5625,0.10498046875,0.98095703125,-0.22021484375,-1.3122557401657104,-0.3662109076976776,0.6713866591453552,100.0,55312.0,1.0
15:31:01.588966,196972.34375,174398.875,234931.234375,204593.125,198461.140625,168029.25,686551.125,200197.4375,0.103759765625,0.980224609375,-0.221435546875,-1.4953612089157104,-0.3051757514476776,0.6713866591453552,100.0,55313.0,1.0
15:31:01.588975,196978.515625,174409.421875,234939.375,204595.453125,198472.6875,168054.375,686592.3125,200198.59375,0.104736328125,0.97998046875,-0.221435546875,-1.4343260526657104,-0.3356933295726776,0.6103515028953552,100.0,55314.0,1.0
15:31:01.590812,196981.734375,174416.84375,234949.5625,204596.34375,198483.765625,168085.84375,686563.625,200196.0,0.103271484375,0.979736328125,-0.224609375,-1.3427733182907104,-0.3967284858226776,0.6408690810203552,100.0,55315.0,1.0
15:31:01.607202,196976.359375,174406.828125,234938.125,204587.84375,198470.890625,168061.171875,686578.5625,200190.90625,0.1044921875,0.98095703125,-0.22509765625,-1.3427733182907104,-0.3356933295726776,0.5187987685203552,100.0,55316.0,1.0
15:31:01.610152,196974.84375,174397.796875,234932.40625,204594.640625,198464.28125,168029.421875,686535.125,200202.265625,0.10546875,0.97998046875,-0.223876953125,-1.3122557401657104,-0.1831054538488388,0.4882812201976776,100.0,55317.0,1.0
15:31:01.610165,196977.34375,174402.0,234934.1875,204596.34375,198467.859375,168040.515625,686586.0,200200.828125,0.10595703125,0.980224609375,-0.223388671875,-1.2817381620407104,-0.2441406100988388,0.4577636420726776,100.0,55318.0,1.0
15:31:01.612599,196983.25,174413.703125,234946.625,204601.984375,198482.96875,168075.65625,686566.3125,200202.890625,0.106201171875,0.981201171875,-0.226318359375,-1.1596678495407104,-0.1831054538488388,0.2746581733226776,100.0,55319.0,1.0
15:31:01.612603,196982.625,174412.015625,234941.703125,204596.96875,198474.015625,168067.78125,686570.0625,200196.359375,0.103759765625,0.9814453125,-0.224365234375,-1.1596678495407104,-0.1831054538488388,0.2136230319738388,100.0,55320.0,1.0
15:31:01.618321,196977.796875,174401.1875,234932.765625,204601.890625,198465.265625,168035.140625,686544.5625,200206.109375,0.1044921875,0.982421875,-0.224609375,-1.2512205839157104,-0.1220703050494194,0.1525878757238388,100.0,55321.0,1.0
15:31:01.631545,196984.5,174414.6875,234937.859375,204604.21875,198468.84375,168042.125,686580.25,200208.078125,0.104248046875,0.983642578125,-0.22509765625,-1.2817381620407104,-0.1525878757238388,0.1525878757238388,100.0,55322.0,1.0
15:31:01.631557,196984.953125,174422.5625,234948.140625,204603.5,198480.453125,168075.109375,686569.875,200205.84375,0.103759765625,0.98046875,-0.225830078125,-1.1901854276657104,-0.0610351525247097,0.1220703050494194,100.0,55323.0,1.0
15:31:01.633853,196979.140625,174415.59375,234938.21875,204593.21875,198470.71875,168068.859375,686569.875,200193.671875,0.1044921875,0.9833984375,-0.226318359375,-1.2512205839157104,0.0,0.0610351525247097,100.0,55324.0,1.0
15:31:01.633857,196977.703125,174407.625,234931.953125,204602.515625,198465.4375,168038.28125,686547.5625,200207.359375,0.10595703125,0.98388671875,-0.2265625,-1.1901854276657104,-0.1831054538488388,0.0915527269244194,100.0,55325.0,1.0
15:31:01.635842,196978.25,174407.359375,234929.359375,204598.9375,198461.953125,168034.34375,686574.875,200205.390625,0.104248046875,0.98486328125,-0.224609375,-1.3427733182907104,-0.0915527269244194,0.03051757626235485,100.0,55326.0,1.0
15:31:01.642126,196981.015625,174414.875,234939.46875,204598.484375,198475.8125,168069.390625,686603.25,200204.046875,0.10302734375,0.986083984375,-0.22119140625,-1.3732908964157104,-0.03051757626235485,0.0,100.0,55327.0,1.0
15:31:01.650194,196982.53125,174417.203125,234942.234375,204593.390625,198477.328125,168080.125,686588.9375,200198.0625,0.10400390625,0.986328125,-0.222900390625,-1.4038084745407104,-0.0610351525247097,0.0,100.0,55328.0,1.0
15:31:01.650203,196979.671875,174410.765625,234934.015625,204598.40625,198468.84375,168051.859375,686590.125,200206.8125,0.103271484375,0.9873046875,-0.22216796875,-1.4343260526657104,-0.0610351525247097,0.0,100.0,55329.0,1.0
15:31:01.656411,196977.4375,174405.21875,234927.390625,204604.21875,198463.203125,168035.859375,686585.625,200208.15625,0.10498046875,0.985107421875,-0.22265625,-1.5563963651657104,-0.1220703050494194,0.1220703050494194,100.0,55330.0,1.0
15:31:01.656432,196985.21875,174417.015625,234942.59375,204612.703125,198480.28125,168074.578125,686620.5625,200211.296875,0.10498046875,0.98486328125,-0.22265625,-1.5258787870407104,-0.0915527269244194,0.1220703050494194,100.0,55331.0,1.0
15:31:01.658341,196994.421875,174431.328125,234955.203125,204611.8125,198490.296875,168099.609375,686597.4375,200209.859375,0.103759765625,0.984375,-0.220703125,-1.6174315214157104,-0.0610351525247097,0.0,100.0,55332.0,1.0
15:31:01.668545,196992.453125,174426.765625,234947.875,204609.046875,198482.421875,168075.828125,686608.1875,200216.65625,0.10302734375,0.986572265625,-0.221923828125,-1.5563963651657104,-0.0915527269244194,0.0915527269244194,100.0,55333.0,1.0
15:31:01.672643,196985.390625,174411.125,234938.390625,204609.3125,198470.984375,168046.953125,686572.3125,200218.265625,0.10205078125,0.983642578125,-0.221923828125,-1.6479490995407104,-0.03051757626235485,0.0,100.0,55334.0,1.0
15:31:01.672651,196979.046875,174408.96875,234936.96875,204604.578125,198470.171875,168060.8125,686600.375,200205.65625,0.10009765625,0.98291015625,-0.22265625,-1.6174315214157104,-0.1525878757238388,0.0,100.0,55335.0,1.0
15:31:01.682091,196975.734375,174411.296875,234938.484375,204600.1875,198471.515625,168079.21875,686559.4375,200195.546875,0.101318359375,0.97998046875,-0.2236328125,-1.6784666776657104,-0.0915527269244194,0.03051757626235485,100.0,55336.0,1.0
15:31:01.688853,196961.4375,174392.703125,234916.21875,204594.203125,198450.0625,168043.015625,686561.6875,200184.5625,0.10009765625,0.981689453125,-0.22119140625,-1.6784666776657104,-0.1220703050494194,0.0,100.0,55337.0,1.0
15:31:01.688861,196960.09375,174387.609375,234910.765625,204599.65625,198444.421875,168015.75,686532.0,200193.5,0.097412109375,0.982177734375,-0.220458984375,-1.7089842557907104,-0.2136230319738388,0.0610351525247097,100.0,55338.0,1.0
15:31:01.690792,196959.203125,174390.375,234913.09375,204592.859375,198448.359375,168032.015625,686574.375,200188.484375,0.099365234375,0.9814453125,-0.2236328125,-1.6479490995407104,-0.2136230319738388,0.1831054538488388,100.0,55339.0,1.0
15:31:01.694517,196954.640625,174392.078125,234915.234375,204585.4375,198451.84375,168055.890625,686554.4375,200179.46875,0.099609375,0.983154296875,-0.222412109375,-1.7089842557907104,-0.3051757514476776,0.2441406100988388,100.0,55340.0,1.0
15:31:01.705247,196949.015625,174383.484375,234903.796875,204574.890625,198438.890625,168034.078125,686568.125,200172.75,0.098876953125,0.98193359375,-0.221923828125,-1.6784666776657104,-0.2136230319738388,0.2746581733226776,100.0,55341.0,1.0
15:31:01.705298,196943.734375,174375.4375,234895.75,204577.75,198429.765625,168003.234375,686546.0,200181.34375,0.099365234375,0.983154296875,-0.221435546875,-1.6174315214157104,-0.3967284858226776,0.2746581733226776,100.0,55342.0,1.0
15:31:01.707681,196944.890625,174380.8125,234897.4375,204576.234375,198433.25,168017.71875,686587.0625,200177.40625,0.10009765625,0.982177734375,-0.223388671875,-1.6784666776657104,-0.3967284858226776,0.3967284858226776,100.0,55343.0,1.0
15:31:01.707695,196945.796875,174388.046875,234906.203125,204577.125,198444.15625,168050.53125,686557.1875,200173.03125,0.100341796875,0.982421875,-0.2216796875,-1.5869139432907104,-0.3662109076976776,0.3967284858226776,100.0,55344.0,1.0
15:31:01.717084,196945.34375,174387.421875,234899.328125,204569.703125,198435.484375,168042.203125,686570.1875,200166.40625,0.099365234375,0.982177734375,-0.222900390625,-1.5258787870407104,-0.3356933295726776,0.3662109076976776,100.0,55345.0,1.0
15:31:01.720211,196946.421875,174382.234375,234895.65625,204581.234375,198432.0,168016.734375,686557.0,200181.421875,0.100830078125,0.981689453125,-0.22412109375,-1.5258787870407104,-0.3662109076976776,0.3662109076976776,100.0,55346.0,1.0
15:31:01.720227,196952.234375,174387.953125,234899.5,204582.046875,198436.65625,168025.3125,686575.5,200183.84375,0.101806640625,0.98193359375,-0.22119140625,-1.4953612089157104,-0.3051757514476776,0.4272460639476776,100.0,55347.0,1.0
15:31:01.725816,196958.484375,174399.765625,234913.53125,204584.28125,198455.15625,168062.15625,686560.5,200185.359375,0.1015625,0.981689453125,-0.224365234375,-1.4648436307907104,-0.3051757514476776,0.4272460639476776,100.0,55348.0,1.0
15:31:01.732640,196945.4375,174387.0625,234896.8125,204563.71875,198437.984375,168048.46875,686576.4375,200163.90625,0.10107421875,0.984619140625,-0.224853515625,-1.4343260526657104,-0.2746581733226776,0.4882812201976776,100.0,55349.0,1.0
15:31:01.732650,196935.328125,174372.765625,234882.25,204561.203125,198423.421875,168014.9375,686557.8125,200166.9375,0.102294921875,0.98486328125,-0.224609375,-1.4038084745407104,-0.3662109076976776,0.4272460639476776,100.0,55350.0,1.0
15:31:01.739539,196935.6875,174366.765625,234879.921875,204563.984375,198419.484375,168001.359375,686574.625,200166.671875,0.102783203125,0.984130859375,-0.22314453125,-1.4343260526657104,-0.5187987685203552,0.4272460639476776,100.0,55351.0,1.0
15:31:01.747794,196944.265625,174377.234375,234896.109375,204571.3125,198437.546875,168032.375,686596.375,200171.234375,0.1044921875,0.98486328125,-0.224365234375,-1.5563963651657104,-0.5798339247703552,0.4272460639476776,100.0,55352.0,1.0
15:31:01.747807,196946.0625,174383.3125,234899.046875,204565.40625,198437.28125,168046.234375,686587.875,200164.625,0.104248046875,0.985595703125,-0.221923828125,-1.6479490995407104,-0.4272460639476776,0.4577636420726776,100.0,55353.0,1.0
15:31:01.755143,196941.140625,174371.328125,234889.046875,204568.453125,198427.53125,168012.796875,686560.5,200174.0,0.10498046875,0.984130859375,-0.222900390625,-1.7700194120407104,-0.3356933295726776,0.6408690810203552,100.0,55354.0,1.0
15:31:01.755149,196935.859375,174362.296875,234879.46875,204566.125,198417.421875,167990.71875,686559.375,200168.203125,0.1064453125,0.985595703125,-0.219482421875,-1.6174315214157104,-0.3356933295726776,0.6103515028953552,100.0,55355.0,1.0
15:31:01.757743,196936.84375,174366.6875,234887.609375,204561.203125,198426.8125,168018.515625,686586.25,200160.59375,0.105712890625,0.984130859375,-0.220947265625,-1.6174315214157104,-0.2441406100988388,0.6103515028953552,100.0,55356.0,1.0
15:31:01.757749,196941.765625,174375.0,234897.265625,204555.578125,198433.078125,168041.140625,686567.9375,200153.796875,0.10595703125,0.98291015625,-0.222900390625,-1.8005369901657104,-0.2136230319738388,0.7629393935203552,100.0,55357.0,1.0
15:31:01.765842,196938.8125,174371.875,234892.171875,204557.546875,198424.3125,168019.328125,686572.875,200160.6875,0.104736328125,0.982177734375,-0.224853515625,-1.8310545682907104,-0.2136230319738388,0.7629393935203552,100.0,55358.0,1.0
15:31:01.773858,196935.234375,174364.0,234885.90625,204560.140625,198416.53125,167992.234375,686556.5,200164.625,0.104736328125,0.982666015625,-0.2236328125,-1.8310545682907104,-0.2746581733226776,0.7934569716453552,100.0,55359.0,1.0
15:31:01.773869,196934.796875,174364.453125,234890.109375,204559.0625,198424.765625,168009.484375,686600.3125,200160.421875,0.10400390625,0.982177734375,-0.224853515625,-1.8310545682907104,-0.2746581733226776,0.8850097060203552,100.0,55360.0,1.0
15:31:01.780703,196937.46875,174371.59375,234897.71875,204557.28125,198433.25,168033.984375,686572.5625,200155.5,0.101806640625,0.983642578125,-0.2265625,-1.9531248807907104,-0.3051757514476776,0.8544921278953552,100.0,55361.0,1.0
15:31:01.780728,196933.265625,174367.578125,234885.90625,204551.28125,198420.5625,168013.0625,686575.0625,200153.09375,0.1025390625,0.983154296875,-0.225341796875,-1.9531248807907104,-0.2136230319738388,0.8239745497703552,100.0,55362.0,1.0
15:31:01.822144,196923.796875,174356.84375,234872.5,204547.96875,198407.5,167979.359375,686547.8125,200152.546875,0.10302734375,0.984130859375,-0.22607421875,-2.044677495956421,-0.2441406100988388,0.7324218153953552,100.0,55363.0,1.0
15:31:01.825191,196931.03125,174370.171875,234881.890625,204549.234375,198417.609375,168003.9375,686604.875,200153.265625,0.1015625,0.988037109375,-0.227783203125,-2.136230230331421,-0.3051757514476776,0.6408690810203552,100.0,55364.0,1.0
15:31:01.825196,196937.03125,174378.84375,234895.828125,204551.640625,198430.921875,168037.203125,686575.875,200151.484375,0.103271484375,0.98828125,-0.22607421875,-2.105712652206421,-0.3356933295726776,0.6408690810203552,100.0,55365.0,1.0
15:31:01.830724,196933.984375,174373.65625,234886.265625,204545.109375,198419.125,168022.1875,686583.0625,200145.046875,0.1044921875,0.988525390625,-0.2255859375,-2.136230230331421,-0.3967284858226776,0.5493163466453552,100.0,55366.0,1.0
15:31:01.830754,196926.125,174360.15625,234871.421875,204547.4375,198405.53125,167985.4375,686565.0625,200151.5625,0.10546875,0.986328125,-0.223388671875,-2.227782964706421,-0.4577636420726776,0.4882812201976776,100.0,55367.0,1.0
15:31:01.830760,196926.125,174360.0625,234871.609375,204544.9375,198406.078125,167992.59375,686608.4375,200148.4375,0.104736328125,0.985595703125,-0.22314453125,-2.197265386581421,-0.4577636420726776,0.3967284858226776,100.0,55368.0,1.0
15:31:01.835749,196933.984375,174371.15625,234887.609375,204551.46875,198423.421875,168027.546875,686583.75,200150.578125,0.103759765625,0.984619140625,-0.22265625,-2.136230230331421,-0.4272460639476776,0.3051757514476776,100.0,55369.0,1.0
15:31:01.835756,196934.609375,174370.078125,234883.671875,204545.03125,198416.71875,168019.046875,686585.1875,200142.53125,0.104736328125,0.984619140625,-0.22509765625,-2.105712652206421,-0.3662109076976776,0.1525878757238388,100.0,55370.0,1.0
15:31:01.835757,196938.640625,174371.15625,234882.25,204554.40625,198414.03125,167995.359375,686553.5625,200158.0,0.10205078125,0.984619140625,-0.224609375,-2.197265386581421,-0.3967284858226776,0.0915527269244194,100.0,55371.0,1.0
15:31:01.838516,196942.65625,174374.734375,234884.84375,204554.765625,198415.640625,168000.8125,686577.5,200156.75,0.10009765625,0.983154296875,-0.221923828125,-2.349853277206421,-0.3967284858226776,-0.0915527269244194,100.0,55372.0,1.0
15:31:01.840809,196952.671875,174388.046875,234904.15625,204566.21875,198435.9375,168043.46875,686574.8125,200163.375,0.0986328125,0.98388671875,-0.220947265625,-2.349853277206421,-0.4577636420726776,-0.2136230319738388,100.0,55373.0,1.0
15:31:01.843296,196952.5,174387.953125,234902.359375,204563.71875,198434.5,168043.90625,686572.875,200157.5625,0.0986328125,0.98388671875,-0.21923828125,-2.288818120956421,-0.5798339247703552,-0.3967284858226776,100.0,55374.0,1.0
15:31:01.845803,196938.375,174370.53125,234883.671875,204559.6875,198417.96875,168002.609375,686548.4375,200157.921875,0.09716796875,0.984130859375,-0.220947265625,-2.380370855331421,-0.6713866591453552,-0.5798339247703552,100.0,55375.0,1.0
15:31:01.848351,196937.65625,174369.625,234880.640625,204562.015625,198414.390625,167995.625,686568.5625,200156.125,0.098388671875,0.9833984375,-0.218505859375,-2.349853277206421,-0.7324218153953552,-0.7019042372703552,100.0,55376.0,1.0
15:31:01.850824,196938.640625,174378.484375,234891.28125,204564.96875,198428.0625,168031.390625,686598.4375,200155.046875,0.0986328125,0.982421875,-0.222900390625,-2.319335699081421,-0.7629393935203552,-0.7019042372703552,100.0,55377.0,1.0
15:31:01.855811,196937.828125,174380.890625,234891.453125,204563.265625,198427.4375,168040.78125,686590.1875,200146.203125,0.099609375,0.983154296875,-0.2216796875,-2.319335699081421,-0.7934569716453552,-0.8239745497703552,100.0,55378.0,1.0
15:31:01.858286,196939.703125,174378.84375,234887.25,204574.703125,198420.921875,168017.171875,686556.8125,200155.046875,0.0986328125,0.98046875,-0.2236328125,-2.288818120956421,-0.7629393935203552,-0.8544921278953552,100.0,55379.0,1.0
15:31:01.861409,196939.359375,174375.796875,234881.34375,204577.296875,198416.265625,168002.0625,686552.75,200158.8125,0.101318359375,0.982421875,-0.222900390625,-2.288818120956421,-0.8239745497703552,-0.8239745497703552,100.0,55380.0,1.0
15:31:01.861429,196940.421875,174380.265625,234887.875,204575.25,198427.078125,168029.421875,686596.0625,200156.84375,0.100830078125,0.9794921875,-0.218505859375,-2.197265386581421,-0.8850097060203552,-0.7934569716453552,100.0,55381.0,1.0
15:31:01.863290,196942.21875,174386.703125,234892.609375,204566.484375,198431.734375,168048.828125,686570.0,200150.21875,0.10302734375,0.9814453125,-0.220458984375,-2.166747808456421,-0.9155272841453552,-0.7324218153953552,100.0,55382.0,1.0
15:31:01.894588,196940.609375,174382.328125,234883.859375,204563.71875,198423.6875,168025.84375,686571.0625,200156.578125,0.1025390625,0.981201171875,-0.21875,-2.136230230331421,-0.8239745497703552,-0.7019042372703552,100.0,55383.0,1.0
15:31:01.907660,196939.625,174378.3125,234878.765625,204567.015625,198419.125,168009.046875,686553.625,200162.390625,0.10400390625,0.98046875,-0.217529296875,-2.136230230331421,-0.7629393935203552,-0.6408690810203552,100.0,55384.0,1.0
15:31:01.907673,196937.828125,174376.421875,234882.328125,204563.625,198425.296875,168024.59375,686602.5,200158.890625,0.103759765625,0.98095703125,-0.2216796875,-2.105712652206421,-0.7324218153953552,-0.4577636420726776,100.0,55385.0,1.0
15:31:01.909522,196938.453125,174379.640625,234887.96875,204569.96875,198431.734375,168045.609375,686582.4375,200153.984375,0.10302734375,0.9794921875,-0.22314453125,-2.075195074081421,-0.7019042372703552,-0.1525878757238388,100.0,55386.0,1.0
15:31:01.912010,196938.8125,174378.21875,234881.0,204571.671875,198423.859375,168029.609375,686588.9375,200155.859375,0.102783203125,0.97998046875,-0.21875,-2.105712652206421,-0.7324218153953552,-0.1220703050494194,100.0,55387.0,1.0
15:31:01.914570,196932.921875,174366.5,234869.640625,204571.84375,198412.953125,167996.875,686549.125,200160.859375,0.10107421875,0.983154296875,-0.218017578125,-2.136230230331421,-0.7324218153953552,0.03051757626235485,100.0,55388.0,1.0
15:31:01.917015,196934.609375,174370.53125,234872.953125,204568.0,198418.046875,168012.96875,686606.1875,200155.765625,0.10009765625,0.98388671875,-0.220458984375,-2.105712652206421,-0.7629393935203552,-0.0610351525247097,100.0,55389.0,1.0
15:31:01.922015,196939.984375,174377.671875,234886.09375,204569.796875,198430.84375,168041.3125,686576.875,200154.875,0.100341796875,0.9833984375,-0.216796875,-2.014159917831421,-0.7324218153953552,0.1525878757238388,100.0,55390.0,1.0
15:31:01.924555,196942.578125,174378.03125,234882.78125,204566.65625,198425.03125,168029.25,686588.0625,200157.28125,0.099853515625,0.982421875,-0.217041015625,-2.044677495956421,-0.7629393935203552,0.3051757514476776,100.0,55391.0,1.0
15:31:01.927051,196940.15625,174372.3125,234877.6875,204571.9375,198418.40625,168002.0625,686559.8125,200167.390625,0.0986328125,0.9833984375,-0.21533203125,-2.105712652206421,-0.6408690810203552,0.3967284858226776,100.0,55392.0,1.0
15:31:01.929635,196944.1875,174380.546875,234881.171875,204571.578125,198422.25,168016.46875,686597.625,200165.0625,0.096923828125,0.983154296875,-0.211669921875,-2.075195074081421,-0.6408690810203552,0.4577636420726776,100.0,55393.0,1.0
15:31:01.932030,196946.234375,174386.0,234891.28125,204574.34375,198432.890625,168047.125,686569.8125,200164.796875,0.096435546875,0.982421875,-0.213134765625,-2.136230230331421,-0.5798339247703552,0.4272460639476776,100.0,55394.0,1.0
15:31:01.934571,196945.609375,174386.890625,234887.25,204564.78125,198425.296875,168042.125,686586.0625,200156.03125,0.094970703125,0.984619140625,-0.215576171875,-2.044677495956421,-0.6408690810203552,0.3967284858226776,100.0,55395.0,1.0
15:31:01.937054,196943.734375,174378.3125,234884.03125,204570.6875,198420.921875,168009.84375,686559.25,200168.734375,0.095703125,0.984619140625,-0.21826171875,-1.9836424589157104,-0.6408690810203552,0.5187987685203552,100.0,55396.0,1.0
15:31:01.940198,196935.59375,174367.390625,234874.734375,204558.078125,198412.328125,167997.328125,686589.125,200153.53125,0.09716796875,0.982666015625,-0.219482421875,-1.9531248807907104,-0.6103515028953552,0.5187987685203552,100.0,55397.0,1.0
15:31:01.940201,196935.78125,174370.96875,234885.28125,204557.90625,198424.21875,168027.28125,686592.5,200148.53125,0.09765625,0.9814453125,-0.2158203125,-1.9836424589157104,-0.6713866591453552,0.5798339247703552,100.0,55398.0,1.0
15:31:01.942035,196940.515625,174376.96875,234887.4375,204554.5,198423.859375,168034.515625,686574.1875,200142.359375,0.09716796875,0.9814453125,-0.213623046875,-1.9836424589157104,-0.7324218153953552,0.6713866591453552,100.0,55399.0,1.0
15:31:01.944540,196942.65625,174370.703125,234882.328125,204562.8125,198419.84375,168006.71875,686566.5625,200155.328125,0.0986328125,0.980712890625,-0.217529296875,-2.044677495956421,-0.7629393935203552,0.6408690810203552,100.0,55400.0,1.0
15:31:01.948224,196944.53125,174370.796875,234880.8125,204563.890625,198418.6875,168000.453125,686582.875,200156.484375,0.101318359375,0.97802734375,-0.214599609375,-1.9531248807907104,-0.6408690810203552,0.4272460639476776,100.0,55401.0,1.0
15:31:01.948249,196945.96875,174376.421875,234891.8125,204564.6875,198429.859375,168031.921875,686586.5,200154.875,0.103271484375,0.979736328125,-0.2197265625,-1.9531248807907104,-0.4882812201976776,0.4882812201976776,100.0,55402.0,1.0
15:31:01.948251,196947.84375,174383.046875,234892.703125,204558.53125,198429.953125,168044.359375,686581.5,200146.65625,0.103759765625,0.979248046875,-0.222412109375,-1.8615721464157104,-0.4577636420726776,0.4577636420726776,100.0,55403.0,1.0
15:31:01.951478,196939.890625,174368.921875,234876.96875,204558.171875,198415.734375,168006.8125,686562.625,200151.65625,0.10498046875,0.979248046875,-0.2177734375,-1.7089842557907104,-0.4577636420726776,0.4272460639476776,100.0,55404.0,1.0
15:31:01.951545,196931.9375,174358.453125,234866.0625,204554.328125,198405.09375,167985.171875,686562.5,200149.234375,0.107666015625,0.97998046875,-0.217529296875,-1.5563963651657104,-0.3356933295726776,0.3662109076976776,100.0,55405.0,1.0
15:31:01.953331,196933.1875,174363.109375,234876.703125,204556.296875,198418.140625,168015.484375,686598.75,200149.515625,0.109375,0.9794921875,-0.218994140625,-1.3732908964157104,-0.3051757514476776,0.3967284858226776,100.0,55406.0,1.0
15:31:01.965883,196931.65625,174364.625,234881.265625,204550.75,198418.953125,168029.875,686569.0,200141.109375,0.109619140625,0.97900390625,-0.218994140625,-1.3122557401657104,-0.0915527269244194,0.4882812201976776,100.0,55407.0,1.0
15:31:01.972731,196929.15625,174357.296875,234872.953125,204553.609375,198408.84375,168004.921875,686575.8125,200148.796875,0.109130859375,0.979248046875,-0.218994140625,-1.2817381620407104,0.03051757626235485,0.4272460639476776,100.0,55408.0,1.0
15:31:01.972810,196927.734375,174351.296875,234864.359375,204560.40625,198403.65625,167981.421875,686552.9375,200155.859375,0.10888671875,0.98193359375,-0.220703125,-1.1596678495407104,0.1220703050494194,0.3967284858226776,100.0,55409.0,1.0
15:31:01.974589,196932.5625,174357.203125,234873.296875,204563.078125,198415.015625,168004.921875,686592.8125,200156.390625,0.1064453125,0.982177734375,-0.2216796875,-1.1901854276657104,0.3051757514476776,0.3967284858226776,100.0,55410.0,1.0
15:31:01.978377,196932.375,174360.875,234879.65625,204560.578125,198422.609375,168026.46875,686569.25,200151.296875,0.1083984375,0.983154296875,-0.222900390625,-1.2512205839157104,0.4577636420726776,0.4577636420726776,100.0,55411.0,1.0
15:31:01.985145,196920.9375,174346.75,234861.6875,204553.15625,198404.28125,167996.171875,686577.875,200141.734375,0.108154296875,0.984375,-0.22119140625,-1.2512205839157104,0.6103515028953552,0.3967284858226776,100.0,55412.0,1.0
15:31:01.985167,196914.9375,174336.640625,234858.640625,204558.703125,198394.0,167965.859375,686542.1875,200146.921875,0.107666015625,0.985595703125,-0.223388671875,-1.1596678495407104,0.8239745497703552,0.2746581733226776,100.0,55413.0,1.0
15:31:01.990979,196920.484375,174345.046875,234864.359375,204559.953125,198400.625,167987.765625,686589.1875,200145.046875,0.104248046875,0.985595703125,-0.223388671875,-1.1596678495407104,0.8850097060203552,0.2746581733226776,100.0,55414.0,1.0
15:31:01.995124,196930.40625,174358.71875,234877.78125,204566.390625,198417.78125,168027.734375,686574.875,200147.453125,0.10400390625,0.984375,-0.224365234375,-1.1901854276657104,0.9460448622703552,0.1831054538488388,100.0,55415.0,1.0
15:31:01.995140,196933.0,174355.59375,234872.40625,204560.765625,198412.6875,168011.640625,686585.8125,200144.328125,0.103759765625,0.983642578125,-0.22509765625,-1.1596678495407104,0.9155272841453552,0.1220703050494194,100.0,55416.0,1.0
15:31:02.004712,196932.640625,174345.5,234866.953125,204569.515625,198410.359375,167975.6875,686554.5,200157.921875,0.1025390625,0.982421875,-0.222412109375,-1.0070799589157104,1.0070799589157104,0.0610351525247097,100.0,55417.0,1.0
15:31:02.007686,196934.4375,174347.90625,234868.203125,204562.640625,198412.328125,167983.203125,686594.3125,200152.8125,0.10302734375,0.982421875,-0.221923828125,-1.0375975370407104,0.9765624403953552,0.0,100.0,55418.0,1.0
15:31:02.007702,196939.625,174357.828125,234883.671875,204562.375,198427.53125,168019.234375,686582.25,200152.546875,0.09814453125,0.985107421875,-0.22021484375,-1.0681151151657104,1.0070799589157104,-0.0610351525247097,100.0,55419.0,1.0
15:31:02.009656,196948.109375,174368.921875,234888.859375,204562.109375,198431.5625,168025.140625,686586.0625,200154.34375,0.09716796875,0.985107421875,-0.22412109375,-1.1291502714157104,1.0681151151657104,-0.1220703050494194,100.0,55420.0,1.0
15:31:02.025440,196947.9375,174362.296875,234881.625,204569.96875,198425.921875,167994.921875,686548.0625,200167.84375,0.095703125,0.986572265625,-0.220458984375,-1.0375975370407104,1.1596678495407104,-0.1525878757238388,100.0,55421.0,1.0
15:31:02.025529,196951.421875,174364.453125,234882.515625,204571.125,198425.296875,167995.0,686576.6875,200166.140625,0.097412109375,0.986328125,-0.220947265625,-1.0986326932907104,1.0681151151657104,-0.1525878757238388,100.0,55422.0,1.0
15:31:02.035995,196959.640625,174381.078125,234905.578125,204577.75,198446.125,168039.625,686587.625,200170.34375,0.095947265625,0.988525390625,-0.220458984375,-1.0986326932907104,0.9155272841453552,-0.1220703050494194,100.0,55423.0,1.0
15:31:02.036088,196962.0625,174384.109375,234906.46875,204573.546875,198443.53125,168043.640625,686577.5625,200165.328125,0.09521484375,0.987548828125,-0.22265625,-1.0986326932907104,0.8544921278953552,-0.1525878757238388,100.0,55424.0,1.0
15:31:02.036114,196955.359375,174368.015625,234892.34375,204574.890625,198430.125,168003.5,686556.5,200170.078125,0.097900390625,0.986328125,-0.222900390625,-1.1596678495407104,0.8544921278953552,-0.1525878757238388,100.0,55425.0,1.0
15:31:02.038931,196956.515625,174367.484375,234889.578125,204573.90625,198427.171875,167994.734375,686560.625,200169.625,0.096923828125,0.985595703125,-0.22021484375,-1.1596678495407104,0.7934569716453552,-0.2441406100988388,100.0,55426.0,1.0
15:31:02.038972,196962.59375,174376.875,234903.34375,204584.90625,198443.71875,168030.859375,686573.5625,200174.1875,0.095458984375,0.9853515625,-0.21923828125,-1.1901854276657104,0.7019042372703552,-0.1220703050494194,100.0,55427.0,1.0
15:31:02.040959,196963.40625,174381.078125,234904.328125,204586.0625,198441.125,168041.578125,686563.375,200164.796875,0.094482421875,0.98193359375,-0.218994140625,-1.1596678495407104,0.5493163466453552,-0.03051757626235485,100.0,55428.0,1.0
15:31:02.056561,196956.875,174368.296875,234889.578125,204584.1875,198426.546875,168008.953125,686556.375,200164.625,0.094482421875,0.98095703125,-0.222900390625,-1.1901854276657104,0.5493163466453552,-0.0610351525247097,100.0,55429.0,1.0
15:31:02.056589,196954.546875,174363.546875,234881.0,204583.296875,198419.21875,167992.234375,686547.375,200165.25,0.09326171875,0.9794921875,-0.22314453125,-1.1901854276657104,0.4577636420726776,-0.03051757626235485,100.0,55430.0,1.0
15:31:02.058337,196952.859375,174367.578125,234884.84375,204579.09375,198425.390625,168017.4375,686594.3125,200158.8125,0.0947265625,0.98193359375,-0.22509765625,-1.0986326932907104,0.4272460639476776,0.1525878757238388,100.0,55431.0,1.0
15:31:02.062016,196953.390625,174371.15625,234888.59375,204575.0625,198428.421875,168035.234375,686562.8125,200150.578125,0.094970703125,0.982177734375,-0.22265625,-1.0681151151657104,0.2136230319738388,0.1831054538488388,100.0,55432.0,1.0
15:31:02.072819,196952.9375,174368.65625,234883.3125,204581.40625,198421.90625,168014.140625,686565.875,200158.1875,0.095947265625,0.98193359375,-0.222412109375,-1.0375975370407104,0.1831054538488388,0.2746581733226776,100.0,55433.0,1.0
15:31:02.072844,196950.4375,174365.609375,234878.765625,204583.65625,198416.09375,167994.46875,686550.6875,200163.453125,0.094482421875,0.98193359375,-0.222412109375,-1.0375975370407104,0.0915527269244194,0.3967284858226776,100.0,55434.0,1.0
15:31:02.081463,196947.75,174367.390625,234881.171875,204576.765625,198420.5625,168014.046875,686597.1875,200158.453125,0.092529296875,0.982421875,-0.222412109375,-1.0986326932907104,-0.0610351525247097,0.5187987685203552,100.0,55435.0,1.0
15:31:02.081499,196947.125,174369.453125,234886.53125,204571.125,198427.890625,168039.265625,686573.125,200155.40625,0.09228515625,0.982177734375,-0.22265625,-1.0986326932907104,-0.1525878757238388,0.5493163466453552,100.0,55436.0,1.0
15:31:02.087661,196942.578125,174361.140625,234874.90625,204564.609375,198416.0,168014.859375,686586.6875,200152.734375,0.091064453125,0.98193359375,-0.224609375,-1.0070799589157104,-0.3051757514476776,0.5493163466453552,100.0,55437.0,1.0
15:31:02.087695,196939.359375,174351.75,234870.4375,204570.6875,198409.109375,167984.359375,686555.4375,200159.34375,0.088623046875,0.9833984375,-0.222900390625,-1.0986326932907104,-0.2441406100988388,0.5187987685203552,100.0,55438.0,1.0
15:31:02.090216,196944.625,174361.40625,234877.78125,204573.90625,198417.515625,168005.015625,686597.1875,200158.0,0.09033203125,0.983154296875,-0.22314453125,-1.0681151151657104,-0.3662109076976776,0.5493163466453552,100.0,55439.0,1.0
15:31:02.090240,196943.28125,174366.234375,234881.703125,204569.078125,198424.40625,168033.71875,686568.8125,200147.984375,0.0908203125,0.988037109375,-0.22216796875,-1.0375975370407104,-0.3967284858226776,0.5493163466453552,100.0,55440.0,1.0
15:31:02.105208,196940.421875,174364.53125,234871.421875,204560.140625,198414.03125,168020.3125,686581.5,200141.1875,0.09228515625,0.988037109375,-0.2236328125,-1.1901854276657104,-0.4272460639476776,0.6103515028953552,100.0,55441.0,1.0
15:31:02.105235,196938.015625,174359.890625,234866.328125,204565.046875,198410.09375,167993.84375,686539.0625,200154.421875,0.09130859375,0.98876953125,-0.2216796875,-1.1901854276657104,-0.6408690810203552,0.6408690810203552,100.0,55442.0,1.0
15:31:02.105242,196940.875,174366.328125,234872.859375,204566.578125,198414.5625,168005.109375,686591.375,200154.875,0.091796875,0.99072265625,-0.221923828125,-1.4648436307907104,-0.7629393935203552,0.6408690810203552,100.0,55443.0,1.0
15:31:02.114620,196941.765625,174373.390625,234883.3125,204567.015625,198426.1875,168039.890625,686580.25,200153.09375,0.095458984375,0.98974609375,-0.22216796875,-1.4038084745407104,-0.8544921278953552,0.7019042372703552,100.0,55444.0,1.0
15:31:02.118949,196939.171875,174373.03125,234872.328125,204559.859375,198416.625,168035.328125,686571.25,200141.375,0.0966796875,0.987548828125,-0.219970703125,-1.5563963651657104,-1.0070799589157104,0.7019042372703552,100.0,55445.0,1.0
15:31:02.118959,196937.296875,174367.125,234862.21875,204568.453125,198411.796875,168003.140625,686543.875,200154.96875,0.09765625,0.986328125,-0.22216796875,-1.7089842557907104,-0.9765624403953552,0.6713866591453552,100.0,55446.0,1.0
15:31:02.129004,196940.421875,174369.359375,234863.640625,204568.09375,198415.1875,168002.609375,686569.6875,200155.5,0.09814453125,0.986328125,-0.22265625,-1.7395018339157104,-1.0070799589157104,0.7934569716453552,100.0,55447.0,1.0
15:31:02.129033,196941.046875,174373.75,234873.390625,204569.078125,198427.703125,168036.046875,686568.625,200153.09375,0.100830078125,0.9853515625,-0.22216796875,-1.7700194120407104,-1.1291502714157104,0.7629393935203552,100.0,55448.0,1.0
15:31:02.144248,196944.0,174378.65625,234872.859375,204564.609375,198425.921875,168042.921875,686560.5,200146.65625,0.099853515625,0.986083984375,-0.22265625,-1.7395018339157104,-1.0375975370407104,0.7019042372703552,100.0,55449.0,1.0
15:31:02.144278,196944.71875,174373.921875,234867.578125,204571.671875,198421.71875,168015.921875,686543.3125,200159.703125,0.100341796875,0.985595703125,-0.2236328125,-1.7700194120407104,-1.0070799589157104,0.7324218153953552,100.0,55450.0,1.0
15:31:02.146647,196943.90625,174371.234375,234864.71875,204571.578125,198419.9375,168007.4375,686562.5,200159.53125,0.102294921875,0.9853515625,-0.220703125,-1.9226073026657104,-0.8544921278953552,0.6713866591453552,100.0,55451.0,1.0
15:31:02.146661,196947.046875,174377.140625,234878.671875,204575.609375,198434.859375,168040.421875,686581.25,200160.859375,0.101806640625,0.98583984375,-0.2197265625,-1.9226073026657104,-0.7934569716453552,0.7629393935203552,100.0,55452.0,1.0
15:31:02.148373,196946.234375,174380.1875,234880.09375,204565.953125,198433.703125,168049.71875,686558.1875,200151.203125,0.10009765625,0.986328125,-0.222900390625,-1.9836424589157104,-0.7629393935203552,0.9155272841453552,100.0,55453.0,1.0
15:31:02.173321,196942.125,174374.015625,234870.796875,204565.953125,198423.6875,168021.015625,686556.3125,200157.46875,0.1005859375,0.985595703125,-0.220947265625,-2.044677495956421,-0.6713866591453552,0.8239745497703552,100.0,55454.0,1.0
15:31:02.197732,196936.671875,174366.5,234863.296875,204567.28125,198414.65625,168002.96875,686547.5625,200158.8125,0.101806640625,0.98486328125,-0.2216796875,-2.136230230331421,-0.6103515028953552,0.7934569716453552,100.0,55455.0,1.0
15:31:02.197773,196941.59375,174374.90625,234874.5625,204569.875,198428.875,168033.453125,686588.3125,200160.421875,0.103759765625,0.984619140625,-0.224365234375,-2.105712652206421,-0.4882812201976776,0.7629393935203552,100.0,55456.0,1.0
15:31:02.200299,196941.40625,174380.09375,234877.328125,204562.546875,198431.734375,168052.046875,686565.0625,200150.84375,0.105224609375,0.9853515625,-0.2236328125,-2.105712652206421,-0.4577636420726776,0.7629393935203552,100.0,55457.0,1.0
15:31:02.200316,196936.140625,174372.765625,234864.8125,204560.140625,198418.765625,168026.203125,686572.0625,200151.296875,0.1064453125,0.984130859375,-0.22265625,-2.136230230331421,-0.3356933295726776,0.9155272841453552,100.0,55458.0,1.0
15:31:02.202710,196932.640625,174366.0625,234856.140625,204560.84375,198411.609375,168001.171875,686544.9375,200155.59375,0.10498046875,0.984375,-0.22412109375,-2.258300542831421,-0.2441406100988388,0.8544921278953552,100.0,55459.0,1.0
15:31:02.202729,196935.5,174368.828125,234862.671875,204558.703125,198418.765625,168020.125,686594.375,200154.0625,0.104736328125,0.985107421875,-0.22314453125,-2.319335699081421,-0.1525878757238388,0.8544921278953552,100.0,55460.0,1.0
15:31:02.204597,196936.671875,174372.765625,234869.640625,204554.5,198426.375,168044.453125,686566.25,200149.15625,0.10400390625,0.983642578125,-0.222900390625,-2.227782964706421,-0.0610351525247097,0.7629393935203552,100.0,55461.0,1.0
15:31:02.207756,196937.921875,174373.203125,234862.578125,204552.0,198417.609375,168026.921875,686576.4375,200150.765625,0.104248046875,0.982177734375,-0.22119140625,-2.227782964706421,-0.0610351525247097,0.8544921278953552,100.0,55462.0,1.0
15:31:02.207831,196932.203125,174362.03125,234852.65625,204554.6875,198408.484375,167994.015625,686555.4375,200155.234375,0.10400390625,0.982666015625,-0.219970703125,-2.288818120956421,0.03051757626235485,0.8239745497703552,100.0,55463.0,1.0
15:31:02.212352,196933.71875,174363.640625,234854.703125,204556.5625,198414.03125,168007.796875,686593.875,200153.0,0.1025390625,0.983154296875,-0.22021484375,-2.288818120956421,0.1831054538488388,0.9460448622703552,100.0,55464.0,1.0
15:31:02.212440,196941.5,174376.421875,234870.171875,204561.75,198430.21875,168045.609375,686560.875,200154.609375,0.10205078125,0.98193359375,-0.218994140625,-2.288818120956421,0.2136230319738388,0.7324218153953552,100.0,55465.0,1.0
15:31:02.214743,196943.375,174375.984375,234866.6875,204556.921875,198424.578125,168034.4375,686575.0625,200152.8125,0.10107421875,0.9833984375,-0.221435546875,-2.227782964706421,0.3051757514476776,0.7019042372703552,100.0,55466.0,1.0
15:31:02.217191,196939.0,174366.0625,234858.640625,204564.25,198416.625,168001.796875,686543.3125,200164.890625,0.100830078125,0.982666015625,-0.220458984375,-2.319335699081421,0.3967284858226776,0.7019042372703552,100.0,55467.0,1.0
15:31:02.219750,196940.0625,174371.234375,234863.5625,204565.046875,198419.65625,168010.296875,686586.4375,200163.015625,0.099853515625,0.985595703125,-0.220458984375,-2.258300542831421,0.4272460639476776,0.6103515028953552,100.0,55468.0,1.0
15:31:02.222194,196946.421875,174383.765625,234880.90625,204573.28125,198437.984375,168048.015625,686572.9375,200165.25,0.100341796875,0.986083984375,-0.220458984375,-2.227782964706421,0.4577636420726776,0.6408690810203552,100.0,55469.0,1.0
15:31:02.224796,196946.765625,174384.109375,234878.484375,204568.359375,198431.46875,168044.71875,686574.5625,200160.15625,0.102783203125,0.9853515625,-0.218994140625,-2.227782964706421,0.5187987685203552,0.5798339247703552,100.0,55470.0,1.0
15:31:02.227678,196938.90625,174372.9375,234867.3125,204568.890625,198418.765625,168013.15625,686566.3125,200165.78125,0.100830078125,0.983642578125,-0.217529296875,-2.166747808456421,0.5493163466453552,0.4882812201976776,100.0,55471.0,1.0
15:31:02.227691,196936.40625,174371.6875,234863.828125,204563.625,198414.828125,168009.046875,686584.1875,200161.578125,0.1015625,0.98291015625,-0.215087890625,-2.166747808456421,0.3967284858226776,0.5493163466453552,100.0,55472.0,1.0
15:31:02.232712,196939.703125,174379.375,234875.09375,204562.640625,198429.5,168040.515625,686561.875,200162.03125,0.101806640625,0.98193359375,-0.216796875,-2.227782964706421,0.5187987685203552,0.4882812201976776,100.0,55473.0,1.0
15:31:02.232721,196940.15625,174382.15625,234871.421875,204555.21875,198425.5625,168044.796875,686562.75,200153.09375,0.1015625,0.983154296875,-0.216796875,-2.105712652206421,0.5187987685203552,0.5187987685203552,100.0,55474.0,1.0
15:31:02.235149,196939.359375,174372.046875,234864.09375,204561.65625,198419.21875,168014.046875,686555.75,200164.4375,0.10205078125,0.983154296875,-0.21826171875,-2.166747808456421,0.4882812201976776,0.3967284858226776,100.0,55475.0,1.0
15:31:02.235156,196939.984375,174369.90625,234860.515625,204560.671875,198414.03125,168004.03125,686561.875,200163.8125,0.1025390625,0.981689453125,-0.218994140625,-2.136230230331421,0.4577636420726776,0.4272460639476776,100.0,55476.0,1.0
15:31:02.237012,196944.09375,174378.9375,234873.296875,204566.125,198427.890625,168036.671875,686566.4375,200163.28125,0.099365234375,0.98291015625,-0.21875,-2.075195074081421,0.4882812201976776,0.4272460639476776,100.0,55477.0,1.0
15:31:02.252712,196947.125,174383.765625,234876.25,204564.0625,198429.5,168049.1875,686558.0,200156.390625,0.099609375,0.984619140625,-0.2158203125,-1.9531248807907104,0.5187987685203552,0.2746581733226776,100.0,55478.0,1.0
15:31:02.252726,196944.453125,174376.34375,234867.9375,204567.203125,198421.90625,168021.828125,686559.0,200165.6875,0.0986328125,0.983642578125,-0.214599609375,-1.9531248807907104,0.4272460639476776,0.0610351525247097,100.0,55479.0,1.0
15:31:02.254621,196943.828125,174372.578125,234863.921875,204568.984375,198416.890625,168003.859375,686545.875,200168.828125,0.099365234375,0.983642578125,-0.218994140625,-1.8920897245407104,0.4272460639476776,0.2136230319738388,100.0,55480.0,1.0
15:31:02.257047,196946.421875,174379.921875,234872.046875,204566.21875,198428.6875,168032.28125,686576.875,200166.234375,0.1005859375,0.982666015625,-0.2177734375,-1.8005369901657104,0.5187987685203552,0.2746581733226776,100.0,55481.0,1.0
15:31:02.261015,196951.15625,174392.25,234881.078125,204566.125,198436.828125,168058.390625,686567.5,200161.84375,0.099853515625,0.984130859375,-0.217041015625,-1.7395018339157104,0.5187987685203552,0.1831054538488388,100.0,55482.0,1.0
15:31:02.271411,196946.0625,174380.984375,234869.546875,204564.609375,198425.46875,168031.484375,686573.0,200164.53125,0.09814453125,0.983154296875,-0.215087890625,-1.6174315214157104,0.3662109076976776,0.1220703050494194,100.0,55483.0,1.0
15:31:02.271426,196949.359375,174383.484375,234871.0625,204574.265625,198424.671875,168015.296875,686556.1875,200175.34375,0.09716796875,0.98193359375,-0.2158203125,-1.6784666776657104,0.3356933295726776,0.0610351525247097,100.0,55484.0,1.0
15:31:02.273962,196948.109375,174387.25,234873.578125,204569.171875,198427.4375,168036.9375,686592.8125,200168.734375,0.0966796875,0.9833984375,-0.216552734375,-1.4953612089157104,0.3662109076976776,0.2136230319738388,100.0,55485.0,1.0
15:31:02.273980,196947.40625,174389.03125,234877.859375,204564.78125,198432.890625,168060.1875,686555.875,200159.96875,0.095947265625,0.984130859375,-0.21533203125,-1.3732908964157104,0.3051757514476776,0.2136230319738388,100.0,55486.0,1.0
15:31:02.280881,196948.5625,174387.78125,234871.96875,204563.890625,198426.015625,168042.484375,686566.6875,200160.6875,0.096435546875,0.98388671875,-0.216796875,-1.4038084745407104,0.2746581733226776,0.2136230319738388,100.0,55487.0,1.0
15:31:02.287090,196944.625,174378.484375,234865.34375,204569.34375,198418.234375,168011.71875,686538.6875,200168.28125,0.097900390625,0.9833984375,-0.213134765625,-1.3122557401657104,0.2441406100988388,0.2441406100988388,100.0,55488.0,1.0
15:31:02.293948,196943.734375,174381.078125,234868.390625,204564.609375,198421.453125,168025.140625,686587.625,200162.296875,0.098388671875,0.983642578125,-0.2158203125,-1.3732908964157104,0.1831054538488388,0.2136230319738388,100.0,55489.0,1.0
15:31:02.293959,196949.359375,174391.625,234882.6875,204568.453125,198437.09375,168061.25,686562.8125,200163.546875,0.098388671875,0.984130859375,-0.218017578125,-1.3427733182907104,-0.03051757626235485,0.2746581733226776,100.0,55490.0,1.0
15:31:02.296141,196948.828125,174392.15625,234875.1875,204563.265625,198430.578125,168052.21875,686565.875,200159.34375,0.096923828125,0.9833984375,-0.2158203125,-1.2512205839157104,-0.03051757626235485,0.2746581733226776,100.0,55491.0,1.0
15:31:02.302182,196944.0,174382.234375,234865.703125,204568.09375,198422.703125,168020.21875,686536.75,200169.890625,0.09619140625,0.983154296875,-0.217041015625,-1.3427733182907104,-0.0610351525247097,0.3051757514476776,100.0,55492.0,1.0
15:31:02.310195,196944.8125,174382.859375,234865.96875,204565.234375,198424.578125,168026.296875,686584.3125,200168.28125,0.094970703125,0.9833984375,-0.217529296875,-1.2817381620407104,-0.1525878757238388,0.3051757514476776,100.0,55493.0,1.0
15:31:02.310245,196946.0625,174390.375,234875.265625,204566.03125,198437.28125,168061.078125,686565.4375,200166.9375,0.096435546875,0.984375,-0.21728515625,-1.2512205839157104,-0.1831054538488388,0.3967284858226776,100.0,55494.0,1.0
15:31:02.317779,196945.703125,174393.765625,234871.609375,204560.21875,198431.109375,168057.59375,686565.9375,200159.4375,0.097412109375,0.984130859375,-0.215576171875,-1.2207030057907104,-0.1831054538488388,0.2441406100988388,100.0,55495.0,1.0
15:31:02.317795,196935.953125,174378.484375,234857.84375,204559.421875,198418.59375,168021.296875,686552.9375,200164.53125,0.096923828125,0.985107421875,-0.2158203125,-1.1901854276657104,-0.1831054538488388,0.3967284858226776,100.0,55496.0,1.0
15:31:02.323972,196930.40625,174373.203125,234850.328125,204549.40625,198410.71875,168014.765625,686577.9375,200154.515625,0.09619140625,0.9853515625,-0.21826171875,-1.2512205839157104,-0.3051757514476776,0.3662109076976776,100.0,55497.0,1.0
15:31:02.323986,196930.953125,174378.9375,234857.75,204548.25,198420.203125,168045.34375,686583.3125,200149.953125,0.097900390625,0.984619140625,-0.221435546875,-1.2512205839157104,-0.3662109076976776,0.4272460639476776,100.0,55498.0,1.0
15:31:02.325877,196935.234375,174386.890625,234860.34375,204545.109375,198419.9375,168052.578125,686571.75,200145.390625,0.09814453125,0.983642578125,-0.2197265625,-1.2817381620407104,-0.4577636420726776,0.5798339247703552,100.0,55499.0,1.0
15:31:02.333359,196935.6875,174382.78125,234855.6875,204556.203125,198416.171875,168027.640625,686562.75,200158.984375,0.097900390625,0.983642578125,-0.219970703125,-1.2207030057907104,-0.3356933295726776,0.6103515028953552,100.0,55500.0,1.0
15:31:02.344051,196936.40625,174379.734375,234851.125,204559.78125,198412.25,168016.734375,686573.8125,200159.796875,0.099365234375,0.984619140625,-0.218505859375,-1.2207030057907104,-0.3662109076976776,0.7324218153953552,100.0,55501.0,1.0
15:31:02.344127,196936.765625,174386.0,234858.46875,204561.921875,198424.046875,168047.3125,686590.4375,200157.5625,0.101318359375,0.984130859375,-0.216064453125,-1.2512205839157104,-0.3662109076976776,0.7019042372703552,100.0,55502.0,1.0
15:31:02.345912,196941.140625,174395.03125,234864.546875,204559.421875,198428.609375,168064.65625,686572.25,200152.109375,0.099365234375,0.984375,-0.21875,-1.2207030057907104,-0.4272460639476776,0.7019042372703552,100.0,55503.0,1.0
15:31:02.352048,196940.6875,174391.453125,234855.953125,204561.03125,198420.296875,168039.625,686562.3125,200158.8125,0.1015625,0.983642578125,-0.221923828125,-1.3122557401657104,-0.3662109076976776,0.7324218153953552,100.0,55504.0,1.0
15:31:02.362728,196936.671875,174382.421875,234846.484375,204560.046875,198411.078125,168018.25,686561.375,200158.890625,0.101318359375,0.98388671875,-0.22021484375,-1.2817381620407104,-0.3662109076976776,0.7019042372703552,100.0,55505.0,1.0
15:31:02.362739,196938.1875,174386.359375,234855.6875,204559.515625,198421.71875,168046.5,686601.875,200156.75,0.1005859375,0.984619140625,-0.21875,-1.3427733182907104,-0.3051757514476776,0.7934569716453552,100.0,55506.0,1.0
15:31:02.365146,196935.0625,174386.625,234857.03125,204551.8125,198421.984375,168060.09375,686571.5,200144.765625,0.100341796875,0.9833984375,-0.22021484375,-1.3732908964157104,-0.2746581733226776,0.7934569716453552,100.0,55507.0,1.0
15:31:02.365150,196930.859375,174378.84375,234844.875,204548.6875,198410.453125,168033.265625,686568.3125,200144.140625,0.10107421875,0.985107421875,-0.222900390625,-1.3427733182907104,-0.3051757514476776,0.7019042372703552,100.0,55508.0,1.0
15:31:02.375291,196929.703125,174373.390625,234838.53125,204551.375,198405.625,168011.71875,686542.375,200150.578125,0.10009765625,0.986083984375,-0.222900390625,-1.3427733182907104,-0.2136230319738388,0.6713866591453552,100.0,55509.0,1.0
15:31:02.375307,196929.875,174378.578125,234842.734375,204546.1875,198412.15625,168033.09375,686599.75,200145.671875,0.1015625,0.985107421875,-0.21826171875,-1.3732908964157104,-0.2746581733226776,0.7324218153953552,100.0,55510.0,1.0
15:31:02.377794,196934.4375,174387.15625,234852.46875,204546.28125,198421.359375,168059.28125,686570.625,200143.609375,0.1015625,0.984130859375,-0.219482421875,-1.2817381620407104,-0.2441406100988388,0.7629393935203552,100.0,55511.0,1.0
15:31:02.377833,196936.84375,174386.171875,234848.265625,204546.28125,198416.4375,168045.421875,686574.5625,200146.828125,0.1005859375,0.98388671875,-0.216796875,-1.2207030057907104,-0.1831054538488388,0.6713866591453552,100.0,55512.0,1.0
15:31:02.386043,196931.03125,174375.625,234838.609375,204549.3125,198406.703125,168014.3125,686535.125,200153.625,0.1015625,0.9853515625,-0.220947265625,-1.1901854276657104,-0.0915527269244194,0.7019042372703552,100.0,55513.0,1.0
15:31:02.395256,196926.65625,174372.5,234836.203125,204542.25,198404.015625,168020.9375,686589.375,200145.046875,0.102294921875,0.984130859375,-0.223388671875,-1.1596678495407104,0.03051757626235485,0.7019042372703552,100.0,55514.0,1.0
15:31:02.395269,196932.921875,174381.875,234849.796875,204545.109375,198416.796875,168052.5,686569.4375,200143.96875,0.10302734375,0.982666015625,-0.222412109375,-1.1901854276657104,0.03051757626235485,0.6713866591453552,100.0,55515.0,1.0
15:31:02.399747,196935.78125,174383.671875,234846.921875,204541.890625,198411.890625,168042.296875,686570.0625,200142.265625,0.103515625,0.982421875,-0.22314453125,-1.2817381620407104,0.1220703050494194,0.7629393935203552,100.0,55516.0,1.0
15:31:02.402352,196930.046875,174373.03125,234837.359375,204546.015625,198403.578125,168010.296875,686536.5625,200150.671875,0.102294921875,0.982666015625,-0.220703125,-1.2512205839157104,0.1220703050494194,0.7629393935203552,100.0,55517.0,1.0
15:31:02.406408,196930.328125,174375.4375,234836.734375,204544.75,198405.09375,168016.375,686593.9375,200146.828125,0.100830078125,0.98291015625,-0.222900390625,-1.2207030057907104,0.1831054538488388,0.6713866591453552,100.0,55518.0,1.0
15:31:02.406419,196934.609375,174385.546875,234847.640625,204548.78125,198418.6875,168051.6875,686594.375,200148.078125,0.1025390625,0.983154296875,-0.221435546875,-1.2512205839157104,0.2746581733226776,0.7019042372703552,100.0,55519.0,1.0
15:31:02.420967,196936.40625,174387.953125,234844.78125,204542.875,198412.515625,168047.390625,686587.0,200142.0,0.10107421875,0.983154296875,-0.221923828125,-1.2207030057907104,0.2136230319738388,0.6408690810203552,100.0,55520.0,1.0
15:31:02.449340,196930.765625,174375.53125,234837.09375,204544.671875,198401.15625,168011.28125,686549.0,200148.34375,0.101318359375,0.9853515625,-0.220458984375,-1.2817381620407104,0.2441406100988388,0.7934569716453552,100.0,55521.0,1.0
15:31:02.449404,196934.078125,174379.921875,234837.09375,204545.109375,198400.890625,168012.703125,686580.625,200148.4375,0.099365234375,0.986083984375,-0.220703125,-1.2512205839157104,0.3051757514476776,0.7324218153953552,100.0,55522.0,1.0
15:31:02.449414,196938.09375,174390.828125,234848.8125,204547.171875,198417.25,168051.0625,686589.625,200147.8125,0.101318359375,0.984375,-0.22119140625,-1.3427733182907104,0.3051757514476776,0.7629393935203552,100.0,55523.0,1.0
15:31:02.449422,196932.375,174386.4375,234841.296875,204533.84375,198407.234375,168050.34375,686578.125,200132.875,0.10009765625,0.988037109375,-0.22216796875,-1.3732908964157104,0.3051757514476776,0.8544921278953552,100.0,55524.0,1.0
15:31:02.449434,196924.953125,174374.1875,234827.34375,204535.015625,198396.15625,168016.546875,686558.1875,200138.515625,0.101806640625,0.98583984375,-0.2216796875,-1.4343260526657104,0.4882812201976776,0.9765624403953552,100.0,55525.0,1.0
15:31:02.452769,196921.109375,174364.71875,234822.4375,204532.421875,198389.53125,167998.671875,686560.25,200136.90625,0.102294921875,0.985107421875,-0.220947265625,-1.5258787870407104,0.3967284858226776,0.8239745497703552,100.0,55526.0,1.0
15:31:02.452823,196930.328125,174378.84375,234840.21875,204539.84375,198408.484375,168034.96875,686577.5625,200142.171875,0.099853515625,0.986328125,-0.224365234375,-1.4343260526657104,0.5798339247703552,0.8850097060203552,100.0,55527.0,1.0
15:31:02.452833,196926.03125,174376.703125,234836.015625,204529.015625,198403.484375,168040.328125,686565.25,200129.390625,0.100830078125,0.985107421875,-0.22216796875,-1.4038084745407104,0.5493163466453552,1.0070799589157104,100.0,55528.0,1.0
15:31:02.452843,196921.375,174367.21875,234823.5,204528.65625,198389.984375,168008.859375,686571.5625,200132.25,0.10009765625,0.985107421875,-0.224365234375,-1.4343260526657104,0.3967284858226776,1.0070799589157104,100.0,55529.0,1.0
15:31:02.454683,196923.4375,174367.9375,234822.078125,204538.234375,198387.484375,167994.921875,686563.0,200138.515625,0.09814453125,0.9853515625,-0.222412109375,-1.4343260526657104,0.4272460639476776,1.0986326932907104,100.0,55530.0,1.0
15:31:02.457247,196924.0625,174371.421875,234828.421875,204537.25,198397.3125,168022.71875,686580.1875,200135.65625,0.098388671875,0.985107421875,-0.2216796875,-1.5563963651657104,0.4272460639476776,0.9460448622703552,100.0,55531.0,1.0
15:31:02.461023,196922.640625,174374.375,234829.859375,204527.140625,198399.546875,168039.625,686554.0,200126.71875,0.097900390625,0.9853515625,-0.22021484375,-1.5563963651657104,0.4577636420726776,1.0681151151657104,100.0,55532.0,1.0
15:31:02.470180,196917.984375,174366.0625,234817.96875,204524.375,198386.140625,168013.59375,686571.3125,200127.96875,0.09619140625,0.984619140625,-0.220947265625,-1.5869139432907104,0.4577636420726776,1.0375975370407104,100.0,55533.0,1.0
15:31:02.470191,196919.59375,174362.296875,234814.75,204533.40625,198382.5625,167991.96875,686551.125,200136.1875,0.0986328125,0.98681640625,-0.22314453125,-1.5869139432907104,0.3662109076976776,1.1596678495407104,100.0,55534.0,1.0
15:31:02.476400,196924.953125,174369.625,234824.125,204535.1875,198392.75,168017.53125,686602.625,200135.109375,0.099609375,0.98583984375,-0.219482421875,-1.7395018339157104,0.2441406100988388,1.1901854276657104,100.0,55535.0,1.0
15:31:02.476403,196928.0,174376.875,234836.203125,204537.609375,198403.578125,168046.234375,686574.5625,200131.1875,0.100341796875,0.985595703125,-0.221923828125,-1.6479490995407104,0.1831054538488388,1.2512205839157104,100.0,55536.0,1.0
15:31:02.486404,196930.40625,174381.25,234833.703125,204541.1875,198401.515625,168035.234375,686573.5625,200134.125,0.099609375,0.985595703125,-0.220947265625,-1.6479490995407104,0.1525878757238388,1.2207030057907104,100.0,55537.0,1.0
15:31:02.486423,196928.984375,174373.5625,234829.5,204549.671875,198398.109375,168007.609375,686534.0625,200146.5625,0.099609375,0.984130859375,-0.2236328125,-1.7395018339157104,0.2441406100988388,1.2817381620407104,100.0,55538.0,1.0
15:31:02.488290,196932.109375,174379.28125,234834.40625,204547.625,198401.328125,168022.625,686587.125,200141.546875,0.0986328125,0.985595703125,-0.223876953125,-1.7395018339157104,0.2441406100988388,1.2817381620407104,100.0,55539.0,1.0
15:31:02.492051,196933.546875,174383.9375,234846.03125,204548.609375,198413.671875,168052.578125,686568.4375,200140.75,0.09765625,0.98388671875,-0.2197265625,-1.8005369901657104,0.1220703050494194,1.2512205839157104,100.0,55540.0,1.0
15:31:02.503943,196932.5625,174381.703125,234839.421875,204544.671875,198407.6875,168040.875,686577.6875,200137.96875,0.099365234375,0.9833984375,-0.21875,-1.8005369901657104,0.0915527269244194,1.3427733182907104,100.0,55541.0,1.0
15:31:02.503958,196931.75,174377.140625,234831.8125,204552.625,198401.96875,168013.875,686546.625,200149.15625,0.099853515625,0.983154296875,-0.220947265625,-1.8005369901657104,0.0915527269244194,1.3427733182907104,100.0,55542.0,1.0
15:31:02.531403,196932.109375,174379.640625,234831.640625,204550.921875,198402.671875,168021.734375,686577.25,200144.40625,0.10009765625,0.984130859375,-0.220458984375,-1.7700194120407104,0.0610351525247097,1.3122557401657104,100.0,55543.0,1.0
15:31:02.531420,196937.46875,174387.25,234847.46875,204555.671875,198420.109375,168054.109375,686567.9375,200146.65625,0.101318359375,0.984375,-0.219970703125,-1.7395018339157104,0.03051757626235485,1.1901854276657104,100.0,55544.0,1.0
15:31:02.570984,196935.6875,174382.234375,234840.484375,204548.328125,198411.890625,168045.25,686567.8125,200139.234375,0.100830078125,0.986328125,-0.22265625,-1.7700194120407104,0.03051757626235485,1.2512205839157104,100.0,55545.0,1.0
15:31:02.577226,196928.625,174368.65625,234826.28125,204550.296875,198398.921875,168007.703125,686542.375,200146.375,0.101806640625,0.98583984375,-0.22265625,-1.7395018339157104,0.0,1.2207030057907104,100.0,55546.0,1.0
15:31:02.579777,196930.859375,174370.078125,234824.578125,204548.78125,198398.921875,168006.8125,686572.875,200145.671875,0.1005859375,0.9833984375,-0.22119140625,-1.8005369901657104,0.0610351525247097,1.2207030057907104,100.0,55547.0,1.0
15:31:02.582260,196937.390625,174384.390625,234840.484375,204552.453125,198418.59375,168048.640625,686579.375,200149.875,0.10205078125,0.982666015625,-0.221435546875,-1.8005369901657104,0.0610351525247097,1.1901854276657104,100.0,55548.0,1.0
15:31:02.584785,196939.171875,174389.125,234841.296875,204548.609375,198417.609375,168056.78125,686574.375,200144.953125,0.101318359375,0.983154296875,-0.215576171875,-1.8005369901657104,0.0610351525247097,1.1291502714157104,100.0,55549.0,1.0
15:31:02.589950,196933.453125,174375.625,234828.328125,204551.015625,198403.125,168019.140625,686553.5625,200150.40625,0.102294921875,0.984619140625,-0.21826171875,-1.7395018339157104,0.03051757626235485,1.0986326932907104,100.0,55550.0,1.0
15:31:02.592149,196933.265625,174373.921875,234826.453125,204550.921875,198398.5625,168007.875,686558.4375,200148.890625,0.10302734375,0.9853515625,-0.219970703125,-1.7700194120407104,0.03051757626235485,1.0681151151657104,100.0,55551.0,1.0
15:31:02.594659,196941.765625,174387.6875,234842.015625,204557.453125,198416.09375,168045.78125,686592.25,200150.3125,0.102294921875,0.98486328125,-0.2158203125,-1.7089842557907104,0.03051757626235485,1.0681151151657104,100.0,55552.0,1.0
15:31:02.597116,196939.703125,174387.328125,234838.171875,204547.078125,198413.21875,168055.078125,686574.625,200137.625,0.101806640625,0.98486328125,-0.21630859375,-1.7089842557907104,-0.03051757626235485,0.9765624403953552,100.0,55553.0,1.0
15:31:02.599587,196935.15625,174379.640625,234826.640625,204546.546875,198401.421875,168028.0,686575.0,200142.09375,0.10107421875,0.984375,-0.21728515625,-1.6479490995407104,-0.1525878757238388,1.0681151151657104,100.0,55554.0,1.0
15:31:02.602127,196935.6875,174379.734375,234823.0625,204552.453125,198397.9375,168013.59375,686569.25,200145.390625,0.1044921875,0.9833984375,-0.2177734375,-1.7089842557907104,-0.03051757626235485,0.8850097060203552,100.0,55555.0,1.0
15:31:02.604568,196937.390625,174383.671875,234832.09375,204552.625,198407.59375,168037.5625,686585.625,200144.5,0.104736328125,0.98388671875,-0.219482421875,-1.7089842557907104,-0.03051757626235485,0.7934569716453552,100.0,55556.0,1.0
15:31:02.607132,196938.015625,174388.59375,234835.9375,204545.65625,198410.359375,168055.890625,686565.6875,200136.09375,0.103759765625,0.985107421875,-0.218994140625,-1.6784666776657104,-0.1220703050494194,0.7019042372703552,100.0,55557.0,1.0
15:31:02.613307,196933.09375,174380.984375,234822.875,204541.359375,198398.109375,168030.953125,686572.9375,200135.65625,0.1025390625,0.983642578125,-0.22119140625,-1.6479490995407104,-0.0610351525247097,0.6103515028953552,100.0,55558.0,1.0
15:31:02.618315,196923.078125,174368.296875,234808.578125,204536.0,198385.6875,168001.171875,686547.625,200134.9375,0.104248046875,0.982177734375,-0.2197265625,-1.7089842557907104,0.1220703050494194,0.6408690810203552,100.0,55559.0,1.0
15:31:02.620826,196923.796875,174372.140625,234812.15625,204532.6875,198392.125,168021.109375,686594.5625,200130.5625,0.103515625,0.98388671875,-0.220458984375,-1.6784666776657104,0.1220703050494194,0.5798339247703552,100.0,55560.0,1.0
15:31:02.623320,196922.8125,174373.484375,234817.328125,204529.5625,198397.84375,168044.984375,686565.5,200123.765625,0.10205078125,0.984375,-0.219482421875,-1.7395018339157104,0.1525878757238388,0.5798339247703552,100.0,55561.0,1.0
15:31:02.625916,196917.0,174365.96875,234805.09375,204520.625,198384.96875,168022.90625,686578.3125,200117.765625,0.099609375,0.9853515625,-0.21826171875,-1.7089842557907104,0.1220703050494194,0.5493163466453552,100.0,55562.0,1.0
15:31:02.628390,196910.65625,174356.21875,234795.078125,204522.859375,198374.0625,167991.609375,686549.3125,200121.796875,0.1025390625,0.98583984375,-0.21875,-1.7089842557907104,0.0610351525247097,0.3662109076976776,100.0,55563.0,1.0
15:31:02.632082,196912.4375,174360.421875,234798.296875,204522.140625,198378.71875,168005.109375,686594.75,200118.9375,0.102294921875,0.986083984375,-0.2197265625,-1.6479490995407104,0.0915527269244194,0.4577636420726776,100.0,55564.0,1.0
15:31:02.632102,196917.359375,174379.640625,234811.703125,204524.375,198394.0,168039.890625,686575.375,200120.625,0.102783203125,0.986572265625,-0.218017578125,-1.6479490995407104,0.0610351525247097,0.5493163466453552,100.0,55565.0,1.0
15:31:02.632107,196913.421875,174376.96875,234802.140625,204514.890625,198383.984375,168026.296875,686573.3125,200113.921875,0.1044921875,0.984375,-0.21728515625,-1.6784666776657104,0.1831054538488388,0.3662109076976776,100.0,55566.0,1.0
15:31:02.636099,196912.0,174368.5625,234796.234375,204522.40625,198379.34375,167997.859375,686547.1875,200127.78125,0.102783203125,0.9853515625,-0.218994140625,-1.6784666776657104,0.1525878757238388,0.3662109076976776,100.0,55567.0,1.0
15:31:02.636175,196907.96875,174361.578125,234793.109375,204518.03125,198376.484375,167998.3125,686590.75,200121.609375,0.102294921875,0.986083984375,-0.21728515625,-1.5869139432907104,0.0,0.3967284858226776,100.0,55568.0,1.0
15:31:02.639680,196909.84375,174365.4375,234804.109375,204518.921875,198391.234375,168032.46875,686576.625,200120.359375,0.101318359375,0.984619140625,-0.21826171875,-1.6784666776657104,0.1220703050494194,0.4882812201976776,100.0,55569.0,1.0
15:31:02.639762,196910.921875,174368.296875,234802.578125,204511.859375,198388.640625,168032.90625,686573.8125,200116.25,0.10107421875,0.9853515625,-0.21875,-1.6174315214157104,0.1525878757238388,0.4882812201976776,100.0,55570.0,1.0
15:31:02.639789,196903.328125,174356.40625,234790.6875,204514.8125,198377.640625,168000.90625,686558.0,200125.015625,0.1025390625,0.98291015625,-0.21826171875,-1.5869139432907104,0.0610351525247097,0.4577636420726776,100.0,55571.0,1.0
15:31:02.649981,196897.0625,174350.859375,234783.890625,204508.8125,198370.125,167993.84375,686578.1875,200118.21875,0.102294921875,0.98046875,-0.21875,-1.6479490995407104,0.0610351525247097,0.4882812201976776,100.0,55572.0,1.0
15:31:02.650027,196896.4375,174355.78125,234797.390625,204509.625,198382.828125,168026.390625,686589.125,200115.984375,0.10302734375,0.982177734375,-0.21728515625,-1.6174315214157104,0.0915527269244194,0.3662109076976776,100.0,55573.0,1.0
15:31:02.650041,196897.328125,174358.453125,234800.4375,204505.15625,198380.328125,168032.375,686571.25,200108.296875,0.102783203125,0.983154296875,-0.218505859375,-1.6784666776657104,-0.0610351525247097,0.4272460639476776,100.0,55574.0,1.0
15:31:02.650051,196892.328125,174351.75,234790.875,204508.28125,198370.765625,167999.46875,686559.0,200116.703125,0.1015625,0.983642578125,-0.217041015625,-1.5563963651657104,-0.0915527269244194,0.4272460639476776,100.0,55575.0,1.0
15:31:02.650061,196892.140625,174349.96875,234785.6875,204509.0,198367.71875,167986.6875,686566.3125,200116.96875,0.103515625,0.98291015625,-0.216552734375,-1.6479490995407104,-0.0915527269244194,0.3967284858226776,100.0,55576.0,1.0
15:31:02.650071,196895.71875,174359.4375,234795.96875,204511.234375,198381.390625,168020.84375,686593.125,200116.34375,0.103759765625,0.982177734375,-0.217529296875,-1.6784666776657104,-0.0915527269244194,0.5187987685203552,100.0,55577.0,1.0
15:31:02.650921,196897.0625,174363.828125,234799.640625,204502.46875,198381.484375,168034.4375,686573.0,200106.765625,0.103759765625,0.98193359375,-0.215087890625,-1.6479490995407104,-0.03051757626235485,0.5187987685203552,100.0,55578.0,1.0
15:31:02.653474,196897.0625,174357.296875,234791.234375,204505.859375,198374.25,168007.609375,686571.4375,200114.640625,0.103759765625,0.982421875,-0.21533203125,-1.5563963651657104,-0.1220703050494194,0.5187987685203552,100.0,55579.0,1.0
15:31:02.656072,196894.109375,174349.25,234782.375,204507.390625,198366.015625,167986.6875,686565.6875,200116.609375,0.105224609375,0.9814453125,-0.21728515625,-1.5869139432907104,-0.1220703050494194,0.5493163466453552,100.0,55580.0,1.0
15:31:02.659034,196900.8125,174359.0,234793.203125,204511.859375,198378.53125,168018.34375,686591.0,200117.234375,0.103759765625,0.981201171875,-0.2177734375,-1.5258787870407104,-0.1831054538488388,0.4577636420726776,100.0,55581.0,1.0
15:31:02.659085,196909.578125,174372.578125,234805.890625,204515.15625,198390.421875,168048.921875,686575.1875,200116.25,0.103759765625,0.98388671875,-0.218994140625,-1.5563963651657104,-0.1525878757238388,0.4577636420726776,100.0,55582.0,1.0
15:31:02.664718,196913.6875,174372.765625,234804.546875,204518.46875,198387.484375,168033.1875,686586.875,200124.125,0.1044921875,0.9833984375,-0.216552734375,-1.5869139432907104,-0.1220703050494194,0.4882812201976776,100.0,55583.0,1.0
15:31:02.675264,196920.3125,174374.015625,234806.34375,204531.078125,198389.171875,168016.90625,686558.0,200137.4375,0.104248046875,0.98388671875,-0.21826171875,-1.7395018339157104,-0.2136230319738388,0.3356933295726776,100.0,55584.0,1.0
15:31:02.675275,196927.734375,174382.421875,234819.84375,204536.984375,198401.609375,168041.578125,686629.0,200141.90625,0.1025390625,0.983642578125,-0.219970703125,-1.7089842557907104,-0.1525878757238388,0.3662109076976776,100.0,55585.0,1.0
15:31:02.677712,196935.6875,174395.375,234835.390625,204541.09375,198417.15625,168074.046875,686597.4375,200143.15625,0.102294921875,0.98486328125,-0.21826171875,-1.6479490995407104,-0.1831054538488388,0.2136230319738388,100.0,55586.0,1.0
15:31:02.677721,196931.484375,174388.59375,234823.6875,204533.3125,198403.921875,168052.3125,686599.875,200137.53125,0.101318359375,0.985595703125,-0.21923828125,-1.7089842557907104,-0.1525878757238388,0.0,100.0,55587.0,1.0
15:31:02.689630,196921.828125,174372.671875,234807.859375,204533.9375,198388.8125,168014.765625,686565.875,200140.484375,0.1005859375,0.98681640625,-0.218505859375,-1.7089842557907104,-0.2746581733226776,0.0,100.0,55588.0,1.0
15:31:02.697011,196915.484375,174368.5625,234802.9375,204525.0,198384.265625,168019.5,686592.1875,200129.84375,0.099609375,0.98828125,-0.21875,-1.7700194120407104,-0.3051757514476776,-0.2746581733226776,100.0,55589.0,1.0
15:31:02.697031,196909.671875,174366.0625,234805.171875,204516.59375,198388.640625,168042.296875,686551.5625,200120.359375,0.099609375,0.986572265625,-0.220458984375,-1.8310545682907104,-0.3051757514476776,-0.3356933295726776,100.0,55590.0,1.0
15:31:02.697036,196907.96875,174362.5625,234798.46875,204510.96875,198380.59375,168029.609375,686559.375,200114.8125,0.10302734375,0.985107421875,-0.2197265625,-1.8310545682907104,-0.2746581733226776,-0.4882812201976776,100.0,55591.0,1.0
15:31:02.699604,196909.125,174356.484375,234795.609375,204523.65625,198377.640625,168000.8125,686536.4375,200130.46875,0.100830078125,0.9833984375,-0.22119140625,-1.7700194120407104,-0.4272460639476776,-0.5187987685203552,100.0,55592.0,1.0
15:31:02.702115,196912.078125,174358.453125,234799.359375,204529.640625,198378.984375,168005.109375,686578.1875,200127.875,0.1015625,0.985595703125,-0.224365234375,-1.7700194120407104,-0.3967284858226776,-0.5798339247703552,100.0,55593.0,1.0
15:31:02.713324,196924.59375,174376.875,234822.875,204546.28125,198402.40625,168048.828125,686565.6875,200135.03125,0.1015625,0.984619140625,-0.21923828125,-1.7395018339157104,-0.4272460639476776,-0.5493163466453552,100.0,55594.0,1.0
15:31:02.718924,196927.46875,174377.953125,234820.46875,204541.1875,198398.828125,168046.765625,686574.1875,200128.59375,0.10400390625,0.984130859375,-0.2197265625,-1.8005369901657104,-0.4577636420726776,-0.6713866591453552,100.0,55595.0,1.0
15:31:02.718941,196929.34375,174371.78125,234815.09375,204550.84375,198393.734375,168016.8125,686543.9375,200142.359375,0.10400390625,0.981689453125,-0.2197265625,-1.7089842557907104,-0.4882812201976776,-0.7019042372703552,100.0,55596.0,1.0
15:31:02.720841,196931.3125,174373.484375,234814.5625,204550.921875,198394.09375,168016.640625,686568.9375,200142.796875,0.104736328125,0.97900390625,-0.21826171875,-1.7700194120407104,-0.5493163466453552,-0.7324218153953552,100.0,55597.0,1.0
15:31:02.724550,196936.578125,174384.203125,234830.125,204553.609375,198411.34375,168053.65625,686583.0625,200142.71875,0.102294921875,0.979736328125,-0.220947265625,-1.7089842557907104,-0.5187987685203552,-0.6408690810203552,100.0,55598.0,1.0
15:31:02.737661,196937.5625,174387.515625,234830.125,204546.71875,198409.375,168058.65625,686573.0,200133.953125,0.10205078125,0.981689453125,-0.220458984375,-1.5869139432907104,-0.5187987685203552,-0.7019042372703552,100.0,55599.0,1.0
15:31:02.737673,196940.25,174383.21875,234825.921875,204556.375,198406.875,168032.109375,686566.5,200148.96875,0.102294921875,0.982666015625,-0.218017578125,-1.5563963651657104,-0.5798339247703552,-0.5798339247703552,100.0,55600.0,1.0
15:31:02.740788,196942.84375,174385.640625,234823.421875,204555.484375,198403.390625,168022.90625,686574.375,200148.890625,0.1005859375,0.982666015625,-0.219970703125,-1.4343260526657104,-0.5798339247703552,-0.6103515028953552,100.0,55601.0,1.0
15:31:02.740793,196942.21875,174391.625,234830.921875,204551.375,198413.21875,168053.46875,686594.3125,200141.90625,0.1005859375,0.98291015625,-0.221923828125,-1.4343260526657104,-0.5493163466453552,-0.6408690810203552,100.0,55602.0,1.0
15:31:02.740795,196944.09375,174394.390625,234833.609375,204547.34375,198414.75,168066.703125,686582.3125,200134.125,0.10009765625,0.98291015625,-0.218505859375,-1.4038084745407104,-0.5798339247703552,-0.6713866591453552,100.0,55603.0,1.0
15:31:02.744569,196945.96875,174390.109375,234827.34375,204553.609375,198408.125,168040.78125,686585.5625,200143.703125,0.10009765625,0.980224609375,-0.217529296875,-1.3427733182907104,-0.5493163466453552,-0.5798339247703552,100.0,55604.0,1.0
15:31:02.752271,196941.59375,174383.578125,234817.515625,204551.1875,198399.71875,168018.15625,686566.5625,200144.328125,0.100341796875,0.981201171875,-0.218994140625,-1.4343260526657104,-0.6103515028953552,-0.5798339247703552,100.0,55605.0,1.0
15:31:02.755931,196943.828125,174387.515625,234824.125,204551.015625,198408.3125,168042.84375,686588.25,200143.703125,0.10009765625,0.982177734375,-0.214111328125,-1.4343260526657104,-0.6713866591453552,-0.5798339247703552,100.0,55606.0,1.0
15:31:02.766465,196945.515625,174392.15625,234830.921875,204551.734375,198414.65625,168062.421875,686573.5625,200137.625,0.098388671875,0.980224609375,-0.216796875,-1.3122557401657104,-0.7019042372703552,-0.4272460639476776,100.0,55607.0,1.0
15:31:02.766485,196941.59375,174386.265625,234819.21875,204546.71875,198402.59375,168039.625,686589.625,200137.34375,0.098388671875,0.98095703125,-0.217041015625,-1.3427733182907104,-0.7324218153953552,-0.3662109076976776,100.0,55608.0,1.0
15:31:02.769055,196936.84375,174379.203125,234809.46875,204547.171875,198392.390625,168014.140625,686560.25,200141.46875,0.100830078125,0.9794921875,-0.218505859375,-1.3122557401657104,-0.7934569716453552,-0.3051757514476776,100.0,55609.0,1.0
15:31:02.769092,196937.75,174384.203125,234815.8125,204550.21875,198399.09375,168036.046875,686599.6875,200137.53125,0.101806640625,0.98046875,-0.21826171875,-1.2817381620407104,-0.7019042372703552,-0.1831054538488388,100.0,55610.0,1.0
15:31:02.783405,196937.296875,174388.234375,234823.328125,204549.046875,198406.515625,168063.125,686570.4375,200132.875,0.1005859375,0.982666015625,-0.222412109375,-1.1596678495407104,-0.6103515028953552,-0.1525878757238388,100.0,55611.0,1.0
15:31:02.786688,196932.28125,174379.5625,234811.25,204540.109375,198392.65625,168040.78125,686579.75,200129.125,0.10205078125,0.983154296875,-0.221923828125,-1.1596678495407104,-0.6408690810203552,0.0610351525247097,100.0,55612.0,1.0
15:31:02.786731,196927.546875,174369.1875,234802.21875,204543.328125,198382.5625,168008.953125,686550.25,200135.203125,0.099853515625,0.984375,-0.22119140625,-1.1291502714157104,-0.7019042372703552,0.1525878757238388,100.0,55613.0,1.0
15:31:02.793913,196930.59375,174374.109375,234807.234375,204541.359375,198387.484375,168024.0625,686606.8125,200131.453125,0.09912109375,0.98486328125,-0.21923828125,-1.1596678495407104,-0.7629393935203552,0.1525878757238388,100.0,55614.0,1.0
15:31:02.793942,196934.078125,174384.109375,234819.296875,204541.53125,198401.0625,168059.375,686577.5625,200129.578125,0.1005859375,0.983154296875,-0.2177734375,-1.2207030057907104,-0.7324218153953552,0.0,100.0,55615.0,1.0
15:31:02.803923,196931.125,174383.9375,234810.890625,204532.234375,198392.65625,168051.59375,686581.8125,200122.515625,0.099365234375,0.982666015625,-0.219482421875,-1.1596678495407104,-0.6408690810203552,0.03051757626235485,100.0,55616.0,1.0
15:31:02.803931,196922.546875,174370.53125,234798.46875,204534.5625,198382.109375,168016.109375,686556.3125,200129.125,0.10009765625,0.983154296875,-0.22119140625,-1.1291502714157104,-0.7934569716453552,0.03051757626235485,100.0,55617.0,1.0
15:31:02.810159,196925.578125,174375.796875,234799.1875,204536.359375,198384.609375,168023.96875,686598.9375,200129.390625,0.0986328125,0.985107421875,-0.22265625,-1.1291502714157104,-0.6713866591453552,0.0610351525247097,100.0,55618.0,1.0
15:31:02.810161,196927.8125,174383.484375,234810.1875,204545.109375,198398.203125,168058.125,686594.5,200127.78125,0.10009765625,0.985107421875,-0.221435546875,-1.0681151151657104,-0.5798339247703552,0.1220703050494194,100.0,55619.0,1.0
15:31:02.816461,196924.59375,174379.46875,234803.5625,204543.859375,198390.15625,168052.140625,686583.375,200118.671875,0.100341796875,0.98486328125,-0.2236328125,-1.0375975370407104,-0.6408690810203552,0.1525878757238388,100.0,55620.0,1.0
15:31:02.816473,196919.859375,174369.28125,234793.546875,204551.015625,198381.9375,168020.21875,686558.0625,200128.59375,0.103271484375,0.98583984375,-0.224853515625,-1.0375975370407104,-0.5798339247703552,0.0915527269244194,100.0,55621.0,1.0
15:31:02.829097,196916.90625,174368.296875,234790.6875,204546.359375,198377.015625,168013.421875,686574.1875,200123.671875,0.10205078125,0.9853515625,-0.222900390625,-1.0681151151657104,-0.4882812201976776,0.0915527269244194,100.0,55622.0,1.0
15:31:02.829104,196920.390625,174373.921875,234802.84375,204550.125,198391.953125,168046.6875,686598.75,200124.5625,0.10205078125,0.98388671875,-0.2216796875,-1.1291502714157104,-0.3967284858226776,0.03051757626235485,100.0,55623.0,1.0
15:31:02.835134,196923.171875,174381.703125,234804.28125,204548.515625,198392.390625,168056.96875,686585.0625,200120.09375,0.10009765625,0.9873046875,-0.22021484375,-1.1596678495407104,-0.4577636420726776,-0.03051757626235485,100.0,55624.0,1.0
15:31:02.835141,196914.9375,174367.9375,234790.421875,204549.140625,198379.96875,168023.4375,686561.125,200126.625,0.100341796875,0.98828125,-0.22119140625,-1.2817381620407104,-0.4272460639476776,-0.1831054538488388,100.0,55625.0,1.0
15:31:02.842709,196915.125,174364.71875,234786.484375,204549.234375,198376.921875,168011.90625,686570.875,200128.953125,0.098876953125,0.99169921875,-0.218994140625,-1.3427733182907104,-0.3662109076976776,-0.3662109076976776,100.0,55626.0,1.0
15:31:02.842729,196920.75,174377.5,234799.09375,204551.734375,198391.328125,168049.0,686609.0625,200128.40625,0.0966796875,0.989990234375,-0.218017578125,-1.4038084745407104,-0.3356933295726776,-0.4272460639476776,100.0,55627.0,1.0
15:31:02.845219,196919.6875,174378.65625,234800.4375,204544.046875,198390.875,168061.875,686579.5625,200120.09375,0.094482421875,0.98974609375,-0.217529296875,-1.4343260526657104,-0.4272460639476776,-0.6408690810203552,100.0,55628.0,1.0
15:31:02.845250,196915.296875,174368.296875,234791.765625,204545.109375,198381.484375,168030.953125,686578.3125,200127.421875,0.095947265625,0.989013671875,-0.219970703125,-1.5563963651657104,-0.4882812201976776,-0.7019042372703552,100.0,55629.0,1.0
15:31:02.852149,196910.03125,174360.78125,234784.4375,204539.390625,198373.078125,168008.765625,686567.3125,200125.546875,0.09716796875,0.9892578125,-0.2197265625,-1.7089842557907104,-0.4577636420726776,-0.7934569716453552,100.0,55630.0,1.0
15:31:02.862774,196914.234375,174369.359375,234796.5,204539.125,198386.40625,168039.625,686613.8125,200125.90625,0.097900390625,0.987060546875,-0.218017578125,-1.6784666776657104,-0.5798339247703552,-0.8850097060203552,100.0,55631.0,1.0
15:31:02.862806,196917.8125,174376.15625,234805.71875,204540.203125,198393.640625,168061.96875,686582.5,200123.21875,0.099365234375,0.9853515625,-0.217041015625,-1.7089842557907104,-0.6103515028953552,-0.7324218153953552,100.0,55632.0,1.0
15:31:02.870059,196914.9375,174369.984375,234796.59375,204538.859375,198383.8125,168038.28125,686585.75,200125.640625,0.100830078125,0.9853515625,-0.21923828125,-1.7089842557907104,-0.5798339247703552,-0.7324218153953552,100.0,55633.0,1.0
15:31:02.870083,196915.484375,174366.328125,234793.734375,204543.59375,198381.390625,168018.703125,686552.8125,200134.3125,0.101806640625,0.98388671875,-0.216796875,-1.7395018339157104,-0.5187987685203552,-0.7019042372703552,100.0,55634.0,1.0
15:31:02.875199,196914.765625,174367.125,234796.328125,204539.484375,198384.609375,168036.578125,686596.625,200126.265625,0.102783203125,0.982666015625,-0.22021484375,-1.7089842557907104,-0.4882812201976776,-0.5493163466453552,100.0,55635.0,1.0
15:31:02.875222,196914.9375,174369.984375,234801.953125,204541.890625,198390.703125,168059.828125,686569.8125,200120.453125,0.1015625,0.982177734375,-0.21923828125,-1.7395018339157104,-0.3356933295726776,-0.5493163466453552,100.0,55636.0,1.0
15:31:02.923342,196913.6875,174365.34375,234793.375,204537.34375,198381.671875,168041.234375,686585.5625,200119.5625,0.1005859375,0.983154296875,-0.218505859375,-1.7700194120407104,-0.2746581733226776,-0.3051757514476776,100.0,55637.0,1.0
15:31:02.936562,196906.1875,174353.71875,234780.59375,204535.90625,198369.328125,168009.21875,686560.75,200122.234375,0.1005859375,0.983154296875,-0.216064453125,-1.7700194120407104,-0.1831054538488388,-0.2746581733226776,100.0,55638.0,1.0
15:31:02.936599,196905.375,174354.4375,234779.6875,204526.78125,198368.96875,168018.609375,686595.3125,200114.1875,0.09912109375,0.984619140625,-0.216552734375,-1.7700194120407104,-0.0915527269244194,-0.1525878757238388,100.0,55639.0,1.0
15:31:02.938467,196910.296875,174366.5,234794.0,204525.359375,198383.09375,168053.03125,686572.75,200112.578125,0.099609375,0.98095703125,-0.2197265625,-1.7700194120407104,-0.0915527269244194,0.03051757626235485,100.0,55640.0,1.0
15:31:02.940985,196905.5625,174361.765625,234785.328125,204512.578125,198371.5625,168040.25,686589.625,200103.828125,0.09912109375,0.982666015625,-0.21923828125,-1.6174315214157104,-0.2136230319738388,0.1220703050494194,100.0,55641.0,1.0
15:31:02.946030,196899.921875,174350.328125,234775.40625,204515.15625,198361.375,168006.53125,686553.375,200113.390625,0.09716796875,0.983154296875,-0.2177734375,-1.7395018339157104,-0.1220703050494194,0.1525878757238388,100.0,55642.0,1.0
15:31:02.949031,196901.984375,174353.71875,234775.671875,204514.359375,198360.390625,168010.375,686605.3125,200110.890625,0.095458984375,0.98291015625,-0.21875,-1.7395018339157104,-0.1831054538488388,0.2746581733226776,100.0,55643.0,1.0
15:31:02.949061,196901.984375,174359.4375,234783.984375,204513.28125,198370.125,168040.953125,686591.625,200106.328125,0.09423828125,0.98486328125,-0.216064453125,-1.7700194120407104,-0.2136230319738388,0.4577636420726776,100.0,55644.0,1.0
15:31:02.950989,196899.125,174358.71875,234778.0,204505.421875,198363.0625,168037.203125,686577.5625,200096.765625,0.091552734375,0.9853515625,-0.21533203125,-1.7700194120407104,-0.2441406100988388,0.5493163466453552,100.0,55645.0,1.0
15:31:02.953448,196895.0,174345.40625,234767.984375,204511.59375,198353.0625,168000.453125,686567.3125,200107.484375,0.0927734375,0.985107421875,-0.21484375,-1.6174315214157104,-0.2441406100988388,0.4577636420726776,100.0,55646.0,1.0
15:31:02.955996,196899.921875,174349.0625,234772.546875,204517.046875,198352.78125,167997.953125,686593.25,200109.90625,0.091064453125,0.985595703125,-0.216552734375,-1.7700194120407104,-0.2746581733226776,0.4577636420726776,100.0,55647.0,1.0
15:31:02.958301,196904.390625,174357.390625,234787.5625,204521.59375,198367.09375,168032.203125,686596.875,200110.171875,0.092041015625,0.98583984375,-0.21630859375,-1.8005369901657104,-0.3051757514476776,0.4882812201976776,100.0,55648.0,1.0
15:31:02.961049,196905.109375,174360.421875,234787.296875,204514.265625,198364.859375,168038.453125,686589.375,200101.859375,0.091064453125,0.98486328125,-0.21630859375,-1.8005369901657104,-0.3662109076976776,0.6408690810203552,100.0,55649.0,1.0
15:31:02.963456,196902.15625,174352.90625,234777.546875,204520.171875,198356.359375,168008.140625,686586.375,200112.765625,0.09130859375,0.98681640625,-0.214111328125,-1.8005369901657104,-0.4882812201976776,0.5187987685203552,100.0,55650.0,1.0
15:31:02.965991,196906.265625,174356.9375,234777.1875,204523.921875,198355.828125,167999.65625,686589.125,200116.875,0.090576171875,0.987060546875,-0.214111328125,-1.7395018339157104,-0.5798339247703552,0.4882812201976776,100.0,55651.0,1.0
15:31:02.968479,196909.84375,174363.828125,234787.03125,204524.375,198367.71875,168030.40625,686615.75,200113.296875,0.092041015625,0.9853515625,-0.216796875,-1.7089842557907104,-0.6103515028953552,0.4577636420726776,100.0,55652.0,1.0
15:31:02.971009,196909.3125,174365.515625,234788.1875,204514.625,198365.65625,168043.375,686587.5,200100.34375,0.093994140625,0.986572265625,-0.21435546875,-1.7089842557907104,-0.7019042372703552,0.3967284858226776,100.0,55653.0,1.0
15:31:02.973938,196905.734375,174355.5,234776.5625,204518.109375,198354.390625,168013.875,686582.4375,200104.984375,0.09423828125,0.986083984375,-0.2158203125,-1.7395018339157104,-0.8544921278953552,0.3356933295726776,100.0,55654.0,1.0
15:31:02.973951,196906.0,174353.8125,234772.71875,204522.578125,198351.0,167996.796875,686569.6875,200110.34375,0.095703125,0.983642578125,-0.2158203125,-1.6479490995407104,-0.8850097060203552,0.3967284858226776,100.0,55655.0,1.0
15:31:02.975924,196913.0625,174365.34375,234784.796875,204525.265625,198365.84375,168027.546875,686607.5625,200111.6875,0.09814453125,0.9833984375,-0.218017578125,-1.7089842557907104,-0.8850097060203552,0.3967284858226776,100.0,55656.0,1.0
15:31:02.978915,196914.234375,174367.3125,234790.25,204522.140625,198370.21875,168046.234375,686575.0625,200105.25,0.09912109375,0.98193359375,-0.2197265625,-1.5258787870407104,-0.9155272841453552,0.3967284858226776,100.0,55657.0,1.0
15:31:02.978927,196907.515625,174354.875,234777.90625,204513.203125,198357.34375,168016.90625,686581.25,200102.84375,0.098876953125,0.983154296875,-0.218994140625,-1.5258787870407104,-0.8544921278953552,0.4272460639476776,100.0,55658.0,1.0
15:31:02.980878,196904.125,174345.3125,234771.734375,204521.25,198351.984375,167989.109375,686560.625,200110.171875,0.100341796875,0.982666015625,-0.21875,-1.4648436307907104,-0.7324218153953552,0.5493163466453552,100.0,55659.0,1.0
15:31:02.983935,196908.421875,174351.296875,234780.59375,204525.265625,198360.03125,168010.5625,686610.6875,200110.96875,0.10205078125,0.981689453125,-0.219970703125,-1.3122557401657104,-0.7324218153953552,0.5798339247703552,100.0,55660.0,1.0
15:31:02.983946,196905.5625,174350.953125,234788.015625,204518.921875,198364.953125,168032.734375,686580.0625,200104.09375,0.1025390625,0.980712890625,-0.21875,-1.3122557401657104,-0.6408690810203552,0.7019042372703552,100.0,55661.0,1.0
15:31:02.986488,196902.421875,174342.09375,234777.640625,204514.53125,198353.953125,168009.046875,686588.125,200100.78125,0.102294921875,0.9814453125,-0.22021484375,-1.2817381620407104,-0.5493163466453552,0.6713866591453552,100.0,55662.0,1.0
15:31:02.986498,196896.078125,174327.796875,234767.359375,204518.828125,198343.75,167973.09375,686571.6875,200107.75,0.101318359375,0.9814453125,-0.221923828125,-1.2817381620407104,-0.4882812201976776,0.4882812201976776,100.0,55663.0,1.0
15:31:02.996400,196895.625,174331.1875,234766.28125,204516.234375,198344.5625,167983.734375,686610.5,200100.875,0.100830078125,0.982666015625,-0.224853515625,-1.3122557401657104,-0.4577636420726776,0.5187987685203552,100.0,55664.0,1.0
15:31:02.996408,196898.578125,174343.703125,234775.9375,204516.0625,198356.8125,168020.03125,686575.8125,200098.734375,0.101318359375,0.9833984375,-0.22412109375,-1.0681151151657104,-0.3967284858226776,0.5798339247703552,100.0,55665.0,1.0
15:31:03.001505,196899.296875,174345.84375,234771.203125,204510.875,198352.421875,168015.921875,686584.1875,200094.53125,0.099365234375,0.983642578125,-0.218994140625,-1.0375975370407104,-0.2441406100988388,0.4882812201976776,100.0,55666.0,1.0
15:31:03.001518,196897.78125,174337.71875,234764.671875,204519.28125,198348.765625,167988.75,686552.125,200108.03125,0.09716796875,0.983642578125,-0.2197265625,-0.9460448622703552,-0.3051757514476776,0.3967284858226776,100.0,55667.0,1.0
15:31:03.003445,196895.625,174335.5625,234762.0,204515.4375,198347.421875,167989.015625,686587.5,200104.359375,0.096435546875,0.984619140625,-0.2216796875,-0.9765624403953552,-0.2441406100988388,0.3967284858226776,100.0,55668.0,1.0
15:31:03.011086,196898.578125,174342.8125,234774.328125,204516.765625,198361.546875,168024.421875,686573.0,200104.359375,0.095458984375,0.9853515625,-0.21875,-0.8544921278953552,-0.2136230319738388,0.2746581733226776,100.0,55669.0,1.0
15:31:03.020168,196899.125,174343.796875,234772.546875,204510.6875,198357.4375,168024.421875,686573.9375,200097.390625,0.09619140625,0.986328125,-0.218994140625,-1.0070799589157104,-0.1220703050494194,0.1220703050494194,100.0,55670.0,1.0
15:31:03.020176,196897.6875,174337.890625,234763.953125,204518.109375,198350.8125,167994.203125,686567.6875,200109.71875,0.09619140625,0.98779296875,-0.215576171875,-0.9460448622703552,-0.1220703050494194,0.03051757626235485,100.0,55671.0,1.0
15:31:03.025314,196895.984375,174334.9375,234758.234375,204517.046875,198346.796875,167986.15625,686591.625,200106.140625,0.0966796875,0.986572265625,-0.216552734375,-1.0375975370407104,-0.1525878757238388,-0.03051757626235485,100.0,55672.0,1.0
15:31:03.025360,196896.890625,174340.578125,234769.140625,204518.375,198359.5,168018.96875,686588.3125,200105.15625,0.096435546875,0.9873046875,-0.21875,-1.0681151151657104,-0.1525878757238388,0.03051757626235485,100.0,55673.0,1.0
15:31:03.029777,196897.78125,174344.78125,234769.328125,204512.578125,198357.078125,168027.453125,686568.1875,200096.765625,0.09375,0.986572265625,-0.219482421875,-1.0375975370407104,-0.2136230319738388,-0.1525878757238388,100.0,55674.0,1.0
15:31:03.032250,196897.421875,174340.84375,234762.078125,204515.875,198349.484375,168001.4375,686558.6875,200107.046875,0.093994140625,0.989501953125,-0.218994140625,-1.0375975370407104,-0.1220703050494194,-0.2136230319738388,100.0,55675.0,1.0
15:31:03.039580,196895.8125,174337.359375,234758.5,204515.25,198343.84375,167987.046875,686567.3125,200106.59375,0.094970703125,0.98876953125,-0.216796875,-1.0375975370407104,-0.2441406100988388,-0.3356933295726776,100.0,55676.0,1.0
15:31:03.042117,196899.5625,174348.796875,234773.703125,204518.65625,198358.59375,168020.578125,686615.9375,200107.046875,0.0947265625,0.987060546875,-0.21875,-1.0681151151657104,-0.1831054538488388,-0.3662109076976776,100.0,55677.0,1.0
15:31:03.046398,196904.75,174360.875,234781.03125,204516.59375,198363.875,168042.296875,686577.75,200102.84375,0.091796875,0.989013671875,-0.218994140625,-1.1596678495407104,-0.1831054538488388,-0.3662109076976776,100.0,55678.0,1.0
15:31:03.046406,196903.859375,174351.9375,234771.109375,204519.1875,198356.1875,168015.75,686569.375,200110.703125,0.09228515625,0.98486328125,-0.219482421875,-1.2207030057907104,-0.2136230319738388,-0.3967284858226776,100.0,55679.0,1.0
15:31:03.055840,196897.78125,174341.203125,234759.671875,204516.5,198346.171875,167991.515625,686559.625,200109.453125,0.094970703125,0.984130859375,-0.218994140625,-1.1901854276657104,-0.2441406100988388,-0.3356933295726776,100.0,55680.0,1.0
15:31:03.058971,196903.5,174352.828125,234769.59375,204519.546875,198358.234375,168021.921875,686601.875,200108.734375,0.093505859375,0.983154296875,-0.21923828125,-1.0070799589157104,-0.3967284858226776,-0.3967284858226776,100.0,55681.0,1.0
15:31:03.058986,196907.96875,174358.71875,234776.828125,204521.421875,198364.5,168041.140625,686572.875,200104.8125,0.095458984375,0.98193359375,-0.21923828125,-1.0986326932907104,-0.2746581733226776,-0.3662109076976776,100.0,55682.0,1.0
15:31:03.064743,196907.609375,174355.0625,234770.484375,204522.578125,198355.921875,168019.40625,686583.8125,200106.5,0.09521484375,0.981689453125,-0.218505859375,-1.1291502714157104,-0.2136230319738388,-0.1831054538488388,100.0,55683.0,1.0
15:31:03.071395,196910.65625,174354.96875,234769.765625,204533.765625,198354.3125,168001.359375,686559.875,200115.53125,0.0947265625,0.981689453125,-0.219482421875,-1.1596678495407104,-0.2746581733226776,0.0,100.0,55684.0,1.0
15:31:03.071411,196914.671875,174361.046875,234775.9375,204535.8125,198362.625,168022.71875,686601.5625,200112.859375,0.094970703125,0.98095703125,-0.220458984375,-1.0681151151657104,-0.2746581733226776,0.0915527269244194,100.0,55685.0,1.0
15:31:03.080953,196916.828125,174368.5625,234785.15625,204534.203125,198373.171875,168051.328125,686571.75,200108.5625,0.095947265625,0.979248046875,-0.219482421875,-1.0375975370407104,-0.3662109076976776,0.2746581733226776,100.0,55686.0,1.0
15:31:03.085171,196915.75,174365.78125,234777.90625,204526.78125,198362.890625,168034.96875,686578.9375,200103.90625,0.0947265625,0.98095703125,-0.219970703125,-1.0375975370407104,-0.4577636420726776,0.2746581733226776,100.0,55687.0,1.0
15:31:03.085183,196914.3125,174360.421875,234771.828125,204531.703125,198356.28125,168007.515625,686548.375,200111.875,0.094482421875,0.9794921875,-0.220703125,-1.0070799589157104,-0.4577636420726776,0.3051757514476776,100.0,55688.0,1.0
15:31:03.087116,196916.203125,174367.578125,234774.59375,204530.453125,198361.546875,168023.34375,686603.75,200108.921875,0.09228515625,0.9775390625,-0.22265625,-0.9155272841453552,-0.4882812201976776,0.4577636420726776,100.0,55689.0,1.0
15:31:03.097735,196919.59375,174373.390625,234788.015625,204533.21875,198376.5625,168055.0,686576.9375,200108.46875,0.089599609375,0.98095703125,-0.22314453125,-0.8239745497703552,-0.4272460639476776,0.3967284858226776,100.0,55690.0,1.0
15:31:03.097788,196920.75,174374.640625,234784.34375,204528.03125,198370.765625,168048.015625,686574.4375,200104.0,0.08740234375,0.98291015625,-0.2216796875,-0.9460448622703552,-0.3967284858226776,0.4272460639476776,100.0,55691.0,1.0
15:31:03.100247,196915.65625,174367.75,234775.671875,204531.078125,198363.515625,168019.765625,686553.1875,200114.734375,0.087646484375,0.984619140625,-0.2216796875,-0.9765624403953552,-0.4272460639476776,0.3051757514476776,100.0,55692.0,1.0
15:31:03.100269,196917.453125,174366.859375,234776.828125,204531.078125,198363.78125,168022.90625,686596.6875,200113.03125,0.086181640625,0.986328125,-0.220703125,-1.0070799589157104,-0.6103515028953552,0.2746581733226776,100.0,55693.0,1.0
15:31:03.109690,196921.375,174372.3125,234790.6875,204533.84375,198377.640625,168054.640625,686584.5625,200115.53125,0.08544921875,0.98779296875,-0.220458984375,-1.0375975370407104,-0.6713866591453552,0.2441406100988388,100.0,55694.0,1.0
15:31:03.112161,196921.03125,174372.140625,234787.734375,204526.25,198372.546875,168051.0625,686583.0625,200108.375,0.08642578125,0.987548828125,-0.220947265625,-0.9765624403953552,-0.7629393935203552,0.2136230319738388,100.0,55695.0,1.0
15:31:03.115855,196918.34375,174365.15625,234782.109375,204532.78125,198364.953125,168019.234375,686549.625,200118.390625,0.087158203125,0.987060546875,-0.2236328125,-1.0986326932907104,-0.7934569716453552,0.3356933295726776,100.0,55696.0,1.0
15:31:03.126529,196919.140625,174365.609375,234782.5625,204531.96875,198362.265625,168013.25,686579.1875,200117.5,0.090087890625,0.98828125,-0.220703125,-1.1291502714157104,-0.8850097060203552,0.3662109076976776,100.0,55697.0,1.0
15:31:03.126570,196920.9375,174368.921875,234792.921875,204535.734375,198374.0625,168043.640625,686593.6875,200116.421875,0.091064453125,0.98876953125,-0.2216796875,-1.2207030057907104,-0.9765624403953552,0.3967284858226776,100.0,55698.0,1.0
15:31:03.132738,196919.234375,174370.703125,234790.953125,204525.984375,198367.984375,168048.296875,686575.625,200104.8125,0.094482421875,0.989013671875,-0.220947265625,-1.3732908964157104,-0.9765624403953552,0.3967284858226776,100.0,55699.0,1.0
15:31:03.132812,196912.53125,174358.359375,234779.25,204522.9375,198355.5625,168014.859375,686562.125,200110.171875,0.097900390625,0.9873046875,-0.220703125,-1.3122557401657104,-1.0070799589157104,0.4882812201976776,100.0,55700.0,1.0
15:31:03.138928,196910.203125,174352.828125,234772.984375,204522.140625,198350.375,168001.625,686573.5625,200111.515625,0.097412109375,0.989501953125,-0.22265625,-1.3732908964157104,-0.8850097060203552,0.3967284858226776,100.0,55701.0,1.0
15:31:03.138946,196915.21875,174361.140625,234785.15625,204526.78125,198363.96875,168032.734375,686601.25,200112.3125,0.098388671875,0.990966796875,-0.2236328125,-1.4953612089157104,-0.8544921278953552,0.5798339247703552,100.0,55702.0,1.0
15:31:03.143378,196915.21875,174363.546875,234786.578125,204523.296875,198364.046875,168045.609375,686577.5,200102.75,0.1005859375,0.98876953125,-0.224853515625,-1.6479490995407104,-0.7934569716453552,0.6103515028953552,100.0,55703.0,1.0
15:31:03.170933,196906.890625,174351.125,234775.046875,204521.421875,198351.53125,168015.03125,686578.5,200105.4375,0.098876953125,0.98779296875,-0.224609375,-1.6784666776657104,-0.7324218153953552,0.6103515028953552,100.0,55704.0,1.0
15:31:03.173407,196900.453125,174341.46875,234766.375,204519.453125,198340.984375,167989.640625,686565.875,200105.34375,0.099853515625,0.98681640625,-0.222900390625,-1.7089842557907104,-0.5798339247703552,0.6713866591453552,100.0,55705.0,1.0
15:31:03.175921,196909.3125,174353.359375,234779.78125,204524.46875,198356.71875,168019.765625,686592.5,200108.296875,0.100341796875,0.98681640625,-0.22216796875,-1.7089842557907104,-0.6103515028953552,0.7324218153953552,100.0,55706.0,1.0
15:31:03.178371,196912.34375,174359.171875,234785.421875,204520.34375,198364.859375,168041.859375,686575.0,200103.015625,0.100830078125,0.985595703125,-0.222412109375,-1.7395018339157104,-0.5187987685203552,0.7019042372703552,100.0,55707.0,1.0
15:31:03.185878,196908.78125,174352.203125,234773.890625,204515.875,198353.59375,168017.171875,686587.25,200102.484375,0.099853515625,0.986083984375,-0.220458984375,-1.7089842557907104,-0.4882812201976776,0.7934569716453552,100.0,55708.0,1.0
15:31:03.188409,196908.234375,174348.71875,234769.59375,204521.515625,198348.5,167994.5625,686567.75,200109.28125,0.0986328125,0.986328125,-0.22119140625,-1.8005369901657104,-0.3967284858226776,0.7934569716453552,100.0,55709.0,1.0
15:31:03.190863,196909.40625,174352.46875,234774.15625,204519.28125,198355.5625,168012.96875,686613.8125,200105.15625,0.098388671875,0.985595703125,-0.22314453125,-1.8615721464157104,-0.4272460639476776,0.8239745497703552,100.0,55710.0,1.0
15:31:03.193376,196910.46875,174357.46875,234782.375,204518.375,198365.484375,168039.796875,686572.75,200101.40625,0.0966796875,0.984619140625,-0.21875,-1.9531248807907104,-0.3051757514476776,0.7019042372703552,100.0,55711.0,1.0
15:31:03.195844,196908.234375,174352.203125,234774.328125,204513.203125,198356.0,168021.828125,686580.5625,200097.5625,0.095947265625,0.985107421875,-0.220947265625,-1.9226073026657104,-0.2136230319738388,0.7324218153953552,100.0,55712.0,1.0
15:31:03.198975,196906.0,174345.5,234767.71875,204523.828125,198350.546875,167993.125,686557.9375,200109.8125,0.095703125,0.985107421875,-0.22265625,-1.9531248807907104,-0.2136230319738388,0.6713866591453552,100.0,55713.0,1.0
15:31:03.199005,196907.96875,174349.515625,234770.125,204524.734375,198353.5,168004.125,686596.375,200108.03125,0.0947265625,0.984375,-0.220703125,-1.9836424589157104,-0.1525878757238388,0.7934569716453552,100.0,55714.0,1.0
15:31:03.200894,196914.859375,174359.265625,234783.453125,204532.859375,198370.3125,168040.0625,686571.3125,200109.90625,0.09521484375,0.98583984375,-0.218017578125,-2.075195074081421,-0.1525878757238388,0.6408690810203552,100.0,55715.0,1.0
15:31:03.203357,196916.828125,174359.53125,234778.796875,204529.734375,198364.234375,168033.625,686581.875,200106.0625,0.0947265625,0.986328125,-0.21484375,-2.105712652206421,-0.1220703050494194,0.5493163466453552,100.0,55716.0,1.0
15:31:03.205923,196914.234375,174353.890625,234771.203125,204533.671875,198356.453125,168003.9375,686546.1875,200115.0,0.09619140625,0.985107421875,-0.2177734375,-2.105712652206421,-0.1220703050494194,0.4882812201976776,100.0,55717.0,1.0
15:31:03.208946,196913.78125,174355.0625,234771.015625,204529.46875,198355.296875,168005.734375,686593.75,200110.96875,0.095458984375,0.985595703125,-0.2197265625,-2.105712652206421,-0.03051757626235485,0.3967284858226776,100.0,55718.0,1.0
15:31:03.208982,196915.921875,174359.4375,234783.09375,204530.625,198368.875,168036.484375,686588.3125,200109.546875,0.095703125,0.98388671875,-0.218017578125,-2.044677495956421,-0.03051757626235485,0.3051757514476776,100.0,55719.0,1.0
15:31:03.214603,196915.21875,174359.96875,234778.984375,204520.53125,198362.53125,168034.609375,686581.0625,200099.171875,0.095458984375,0.984130859375,-0.220458984375,-2.136230230331421,-0.1220703050494194,0.3051757514476776,100.0,55720.0,1.0
15:31:03.219070,196911.375,174350.234375,234770.046875,204522.578125,198353.234375,168002.328125,686574.4375,200107.84375,0.096435546875,0.9853515625,-0.22119140625,-2.014159917831421,-0.1831054538488388,0.1831054538488388,100.0,55721.0,1.0
15:31:03.219110,196909.84375,174350.140625,234767.625,204519.28125,198348.859375,167994.921875,686592.25,200103.90625,0.0966796875,0.982666015625,-0.2197265625,-2.014159917831421,-0.0915527269244194,0.1831054538488388,100.0,55722.0,1.0
15:31:03.235884,196911.71875,174356.578125,234778.4375,204520.96875,198361.375,168029.15625,686611.3125,200100.875,0.096435546875,0.982666015625,-0.218017578125,-2.166747808456421,-0.03051757626235485,0.1220703050494194,100.0,55723.0,1.0
15:31:03.238974,196913.875,174360.953125,234779.96875,204517.484375,198360.65625,168041.234375,686579.3125,200093.71875,0.095458984375,0.984619140625,-0.2177734375,-2.166747808456421,-0.0610351525247097,0.0610351525247097,100.0,55724.0,1.0
15:31:03.238985,196914.046875,174357.5625,234775.3125,204525.0,198356.359375,168017.71875,686573.8125,200106.0625,0.095703125,0.985595703125,-0.2177734375,-2.075195074081421,-0.0610351525247097,-0.03051757626235485,100.0,55725.0,1.0
15:31:03.241504,196913.15625,174354.4375,234771.734375,204526.875,198352.875,168003.671875,686578.0,200109.546875,0.094970703125,0.98583984375,-0.219970703125,-2.166747808456421,-0.0610351525247097,0.0610351525247097,100.0,55726.0,1.0
15:31:03.241516,196912.34375,174359.078125,234780.953125,204525.796875,198362.984375,168036.40625,686595.0,200107.21875,0.095703125,0.98681640625,-0.218505859375,-2.014159917831421,0.0,0.0915527269244194,100.0,55727.0,1.0
15:31:03.243399,196905.375,174353.984375,234778.078125,204512.390625,198358.515625,168062.15625,686571.9375,200092.375,0.093505859375,0.985595703125,-0.214111328125,-2.044677495956421,-0.0610351525247097,0.0610351525247097,100.0,55728.0,1.0
15:31:03.247175,196902.96875,174348.71875,234768.78125,204510.0625,198350.90625,168045.875,686570.625,200096.3125,0.09423828125,0.9853515625,-0.213623046875,-1.9226073026657104,-0.1525878757238388,0.03051757626235485,100.0,55729.0,1.0
15:31:03.292227,196902.15625,174345.5,234764.046875,204512.75,198347.6875,168024.421875,686552.125,200101.234375,0.093017578125,0.984375,-0.21435546875,-1.9531248807907104,-0.1831054538488388,-0.03051757626235485,100.0,55730.0,1.0
15:31:03.295287,196904.21875,174349.96875,234769.40625,204513.828125,198357.25,168043.8125,686611.0,200099.703125,0.09423828125,0.983642578125,-0.217041015625,-1.8310545682907104,-0.2746581733226776,0.03051757626235485,100.0,55731.0,1.0
15:31:03.295313,196904.65625,174354.4375,234774.953125,204513.640625,198362.0,168060.71875,686579.8125,200093.71875,0.095458984375,0.9833984375,-0.216064453125,-1.8310545682907104,-0.2136230319738388,0.03051757626235485,100.0,55732.0,1.0
15:31:03.297199,196899.03125,174345.5,234762.625,204510.25,198348.5,168029.25,686574.25,200091.578125,0.093505859375,0.985595703125,-0.215576171875,-1.8615721464157104,-0.2441406100988388,0.03051757626235485,100.0,55733.0,1.0
15:31:03.299664,196897.953125,174340.125,234757.4375,204516.953125,198343.84375,168003.140625,686543.4375,200101.140625,0.095703125,0.983642578125,-0.217041015625,-1.8615721464157104,-0.3356933295726776,0.0915527269244194,100.0,55734.0,1.0
15:31:03.302067,196904.390625,174348.0,234765.5625,204516.59375,198351.171875,168023.078125,686603.875,200099.53125,0.094482421875,0.984375,-0.21826171875,-1.7089842557907104,-0.2746581733226776,0.2136230319738388,100.0,55735.0,1.0
15:31:03.304584,196914.859375,174362.65625,234782.015625,204521.0625,198367.8125,168057.859375,686583.3125,200102.578125,0.093017578125,0.98291015625,-0.216552734375,-1.8005369901657104,-0.2746581733226776,0.1525878757238388,100.0,55736.0,1.0
15:31:03.307128,196915.75,174362.65625,234775.765625,204517.484375,198361.28125,168044.453125,686587.0,200101.59375,0.093017578125,0.983642578125,-0.215576171875,-1.7700194120407104,-0.3356933295726776,0.3051757514476776,100.0,55737.0,1.0
15:31:03.309580,196908.78125,174349.609375,234763.328125,204516.5,198350.109375,168009.046875,686547.1875,200104.625,0.09228515625,0.98486328125,-0.219970703125,-1.7395018339157104,-0.3967284858226776,0.2746581733226776,100.0,55738.0,1.0
15:31:03.312202,196907.34375,174350.40625,234761.8125,204509.796875,198348.578125,168014.859375,686603.125,200095.15625,0.09326171875,0.985107421875,-0.217041015625,-1.7089842557907104,-0.4272460639476776,0.4272460639476776,100.0,55739.0,1.0
15:31:03.314546,196907.34375,174358.359375,234772.28125,204506.578125,198361.109375,168047.9375,686586.5,200091.390625,0.09375,0.98583984375,-0.21728515625,-1.7089842557907104,-0.4577636420726776,0.4272460639476776,100.0,55740.0,1.0
15:31:03.317095,196906.625,174358.09375,234769.859375,204502.203125,198355.109375,168040.953125,686587.125,200087.546875,0.092529296875,0.98486328125,-0.21875,-1.7700194120407104,-0.4272460639476776,0.4272460639476776,100.0,55741.0,1.0
15:31:03.319613,196899.484375,174342.984375,234758.421875,204506.046875,198344.921875,168003.234375,686559.25,200096.671875,0.09423828125,0.98486328125,-0.219970703125,-1.6479490995407104,-0.4577636420726776,0.5187987685203552,100.0,55742.0,1.0
15:31:03.322668,196901.71875,174345.5,234758.0625,204509.265625,198345.90625,168004.921875,686602.0625,200097.390625,0.09423828125,0.985595703125,-0.216064453125,-1.7089842557907104,-0.4882812201976776,0.6408690810203552,100.0,55743.0,1.0
15:31:03.322683,196906.1875,174354.4375,234771.921875,204515.609375,198360.390625,168041.40625,686595.125,200100.0625,0.09423828125,0.984619140625,-0.216552734375,-1.6174315214157104,-0.5798339247703552,0.6408690810203552,100.0,55744.0,1.0
15:31:03.325159,196904.484375,174352.828125,234768.078125,204507.390625,198353.953125,168038.015625,686585.4375,200090.59375,0.09375,0.984375,-0.216064453125,-1.4343260526657104,-0.5493163466453552,0.5798339247703552,100.0,55745.0,1.0
15:31:03.325167,196898.046875,174343.4375,234758.5,204513.203125,198343.3125,168005.109375,686560.0,200098.90625,0.09423828125,0.984130859375,-0.21875,-1.5258787870407104,-0.4882812201976776,0.6713866591453552,100.0,55746.0,1.0
15:31:03.327686,196894.203125,174340.125,234752.96875,204512.65625,198337.859375,167997.15625,686591.0,200094.96875,0.094970703125,0.985595703125,-0.21875,-1.5258787870407104,-0.5187987685203552,0.6103515028953552,100.0,55747.0,1.0
15:31:03.327698,196899.03125,174350.046875,234764.671875,204515.15625,198353.234375,168033.453125,686598.9375,200095.859375,0.0947265625,0.984375,-0.218994140625,-1.5563963651657104,-0.6408690810203552,0.6103515028953552,100.0,55748.0,1.0
15:31:03.329586,196895.8125,174349.515625,234760.828125,204509.171875,198348.3125,168038.71875,686589.625,200083.796875,0.093994140625,0.98486328125,-0.2197265625,-1.4343260526657104,-0.5798339247703552,0.6713866591453552,100.0,55749.0,1.0
15:31:03.345312,196889.46875,174338.078125,234746.171875,204510.875,198335.171875,168006.53125,686584.625,200088.171875,0.094970703125,0.985107421875,-0.219970703125,-1.4343260526657104,-0.4272460639476776,0.7629393935203552,100.0,55750.0,1.0
15:31:03.345344,196888.5625,174334.40625,234741.421875,204514.359375,198329.625,167993.21875,686586.8125,200090.59375,0.095458984375,0.984130859375,-0.218505859375,-1.3732908964157104,-0.5493163466453552,0.7019042372703552,100.0,55751.0,1.0
15:31:03.347857,196891.875,174341.015625,234754.21875,204517.484375,198344.203125,168024.15625,686617.0,200091.84375,0.096435546875,0.983154296875,-0.2177734375,-1.4953612089157104,-0.5187987685203552,0.5187987685203552,100.0,55752.0,1.0
15:31:03.347933,196894.5625,174346.203125,234761.09375,204514.1875,198348.859375,168039.625,686590.0,200087.8125,0.097900390625,0.982177734375,-0.218505859375,-1.4648436307907104,-0.3662109076976776,0.5798339247703552,100.0,55753.0,1.0
15:31:03.355243,196889.546875,174339.234375,234749.5625,204513.203125,198337.046875,168010.203125,686584.75,200091.3125,0.09814453125,0.9814453125,-0.2197265625,-1.4343260526657104,-0.3662109076976776,0.6408690810203552,100.0,55754.0,1.0
15:31:03.355272,196887.140625,174334.578125,234740.09375,204519.453125,198330.96875,167988.203125,686564.5,200094.609375,0.098388671875,0.983154296875,-0.220458984375,-1.4648436307907104,-0.3356933295726776,0.6103515028953552,100.0,55755.0,1.0
15:31:03.365216,196891.25,174344.6875,234746.34375,204531.703125,198339.46875,168015.65625,686599.0625,200090.953125,0.09814453125,0.9814453125,-0.219482421875,-1.4343260526657104,-0.2746581733226776,0.5798339247703552,100.0,55756.0,1.0
15:31:03.365235,196895.71875,174352.28125,234755.734375,204546.28125,198347.328125,168039.265625,686563.8125,200087.375,0.09765625,0.982666015625,-0.2177734375,-1.3427733182907104,-0.3051757514476776,0.5187987685203552,100.0,55757.0,1.0
15:31:03.367640,196891.25,174345.21875,234744.640625,204543.59375,198335.890625,168013.515625,686571.6875,200086.921875,0.097412109375,0.9833984375,-0.21826171875,-1.4038084745407104,-0.2746581733226776,0.6103515028953552,100.0,55758.0,1.0
15:31:03.367653,196886.953125,174345.671875,234735.796875,204543.78125,198328.203125,167984.90625,686560.6875,200092.828125,0.098388671875,0.984375,-0.215087890625,-1.3427733182907104,-0.2746581733226776,0.5493163466453552,100.0,55759.0,1.0
15:31:03.380237,196890.359375,174354.4375,234740.171875,204537.78125,198332.9375,168003.859375,686605.6875,200087.546875,0.098388671875,0.985595703125,-0.217529296875,-1.2512205839157104,-0.1831054538488388,0.5493163466453552,100.0,55760.0,1.0
15:31:03.380257,196897.328125,174365.609375,234754.65625,204535.28125,198346.34375,168036.21875,686571.0625,200085.9375,0.097412109375,0.985595703125,-0.216552734375,-1.3732908964157104,-0.2136230319738388,0.5798339247703552,100.0,55761.0,1.0
15:31:03.382619,196897.328125,174364.984375,234748.40625,204529.828125,198338.578125,168023.25,686579.9375,200083.265625,0.100830078125,0.984619140625,-0.21630859375,-1.3427733182907104,-0.1220703050494194,0.5798339247703552,100.0,55762.0,1.0
15:31:03.382622,196891.4375,174353.1875,234738.5625,204532.859375,198329.8125,167991.515625,686549.4375,200090.5,0.09912109375,0.985595703125,-0.2138671875,-1.2817381620407104,0.0,0.5493163466453552,100.0,55763.0,1.0
15:31:03.413248,196892.59375,174356.3125,234739.90625,204533.765625,198331.421875,168001.265625,686601.1875,200085.5,0.09765625,0.984375,-0.218994140625,-1.3732908964157104,0.0915527269244194,0.5798339247703552,100.0,55764.0,1.0
15:31:03.413281,196897.421875,174365.078125,234753.40625,204548.875,198346.078125,168034.25,686577.75,200086.921875,0.099609375,0.984130859375,-0.220458984375,-1.3732908964157104,0.03051757626235485,0.5493163466453552,100.0,55765.0,1.0
15:31:03.413287,196899.5625,174368.65625,234750.453125,204545.65625,198341.609375,168029.78125,686579.625,200082.640625,0.099365234375,0.985107421875,-0.219970703125,-1.2817381620407104,0.1525878757238388,0.6103515028953552,100.0,55766.0,1.0
15:31:03.416468,196892.859375,174355.328125,234738.5625,204545.109375,198332.3125,167995.625,686561.0625,200090.5,0.097412109375,0.98388671875,-0.221435546875,-1.2817381620407104,0.1220703050494194,0.4882812201976776,100.0,55767.0,1.0
15:31:03.416478,196888.21875,174349.6875,234732.125,204532.859375,198327.3125,167992.671875,686590.75,200083.609375,0.097900390625,0.984130859375,-0.218994140625,-1.2817381620407104,0.3051757514476776,0.6713866591453552,100.0,55768.0,1.0
15:31:03.420626,196891.078125,174359.171875,234742.59375,204535.453125,198340.53125,168026.828125,686592.875,200082.09375,0.098388671875,0.984619140625,-0.218505859375,-1.3122557401657104,0.3356933295726776,0.5798339247703552,100.0,55769.0,1.0
15:31:03.420662,196889.734375,174359.96875,234738.75,204529.296875,198335.53125,168027.546875,686585.8125,200074.3125,0.095947265625,0.98583984375,-0.214599609375,-1.3122557401657104,0.3051757514476776,0.4577636420726776,100.0,55770.0,1.0
15:31:03.420669,196885.4375,174349.609375,234729.890625,204530.984375,198326.5,167996.53125,686572.5625,200084.515625,0.096923828125,0.9853515625,-0.21533203125,-1.3122557401657104,0.3967284858226776,0.5187987685203552,100.0,55771.0,1.0
15:31:03.423347,196888.84375,174352.203125,234732.046875,204534.46875,198327.3125,167992.859375,686584.625,200084.421875,0.09619140625,0.98388671875,-0.218505859375,-1.3427733182907104,0.3662109076976776,0.5493163466453552,100.0,55772.0,1.0
15:31:03.425847,196893.21875,174362.390625,234744.921875,204534.921875,198342.953125,168029.875,686594.0625,200083.703125,0.095947265625,0.98583984375,-0.220703125,-1.3427733182907104,0.2746581733226776,0.5493163466453552,100.0,55773.0,1.0
15:31:03.428352,196893.046875,174364.625,234745.453125,204525.171875,198341.25,168039.171875,686576.5,200073.875,0.094970703125,0.987548828125,-0.22021484375,-1.4038084745407104,0.3051757514476776,0.5187987685203552,100.0,55774.0,1.0
