Timestamp,Fz,FC3,FCz,FC4,Cz,C3,C4
15:34:18.291852,197761.453125,177926.875,232015.5,206777.34375,198905.328125,172325.15625,686485.6875,200498.46875,0.093994140625,0.978759765625,-0.2470703125,-2.105712652206421,-0.3967284858226776,0.4272460639476776,100.0,104531.0,1.0
15:34:18.301263,197754.828125,177917.390625,232003.15625,206781.71875,198895.75,172291.71875,686464.8125,200505.703125,0.09521484375,0.979248046875,-0.24560546875,-2.075195074081421,-0.3662109076976776,0.3662109076976776,100.0,104532.0,1.0
15:34:18.305612,197755.734375,177918.734375,232003.609375,206781.1875,198897.8125,172298.078125,686505.3125,200503.46875,0.09423828125,0.978759765625,-0.2470703125,-2.075195074081421,-0.3356933295726776,0.2746581733226776,100.0,104533.0,1.0
15:34:18.305681,197755.375,177921.5,232011.125,206785.03125,198908.0,172328.03125,686484.25,200499.890625,0.095947265625,0.9794921875,-0.245849609375,-2.136230230331421,-0.2746581733226776,0.2136230319738388,100.0,104534.0,1.0
15:34:18.312636,197756.796875,177923.46875,232009.234375,206780.296875,198904.25,172324.890625,686485.375,200494.796875,0.095947265625,0.978759765625,-0.244873046875,-2.166747808456421,-0.2441406100988388,0.2441406100988388,100.0,104535.0,1.0
15:34:18.316855,197750.28125,177910.328125,231999.859375,206780.5625,198895.046875,172290.109375,686482.8125,200502.671875,0.09521484375,0.978271484375,-0.245849609375,-2.136230230331421,-0.3051757514476776,0.2441406100988388,100.0,104536.0,1.0
15:34:18.316861,197746.15625,177908.1875,231997.625,206776.359375,198892.0,172287.171875,686510.375,200497.75,0.09326171875,0.976806640625,-0.244873046875,-2.166747808456421,-0.2441406100988388,0.1831054538488388,100.0,104537.0,1.0
15:34:18.326257,197746.703125,177913.09375,232009.421875,206779.578125,198907.5625,172319.890625,686515.375,200500.171875,0.09423828125,0.977294921875,-0.2451171875,-2.136230230331421,-0.2441406100988388,0.1525878757238388,100.0,104538.0,1.0
15:34:18.329615,197743.75,177912.828125,232005.21875,206769.109375,198902.90625,172320.953125,686487.0,200491.671875,0.095458984375,0.98046875,-0.245849609375,-2.227782964706421,-0.1831054538488388,0.1525878757238388,100.0,104539.0,1.0
15:34:18.329694,197739.453125,177904.34375,231995.734375,206772.875,198895.484375,172291.546875,686478.0,200500.25,0.094482421875,0.97998046875,-0.24609375,-2.227782964706421,-0.1525878757238388,0.1220703050494194,100.0,104540.0,1.0
15:34:18.336290,197735.703125,177900.9375,231988.859375,206770.546875,198890.484375,172279.75,686488.8125,200498.734375,0.09326171875,0.978515625,-0.244873046875,-2.166747808456421,-0.1525878757238388,0.2746581733226776,100.0,104541.0,1.0
15:34:18.345808,197735.875,177913.28125,231999.40625,206772.0625,198903.53125,172313.71875,686506.75,200500.171875,0.09375,0.97900390625,-0.243408203125,-2.136230230331421,-0.1220703050494194,0.2441406100988388,100.0,104542.0,1.0
15:34:18.345877,197736.421875,177918.375,232002.890625,206767.234375,198904.078125,172326.859375,686485.9375,200492.65625,0.0947265625,0.977783203125,-0.2431640625,-2.166747808456421,-0.0915527269244194,0.2746581733226776,100.0,104543.0,1.0
15:34:18.373146,197727.203125,177902.28125,231986.4375,206766.078125,198890.296875,172290.734375,686476.4375,200494.265625,0.093017578125,0.97802734375,-0.244873046875,-2.197265386581421,-0.1831054538488388,0.1831054538488388,100.0,104544.0,1.0
15:34:18.373229,197723.359375,177894.953125,231978.65625,206769.203125,198883.15625,172272.765625,686471.0,200495.515625,0.091064453125,0.976806640625,-0.247314453125,-2.136230230331421,-0.1220703050494194,0.1220703050494194,100.0,104545.0,1.0
15:34:18.375308,197723.1875,177898.703125,231983.765625,206766.703125,198891.015625,172299.953125,686515.0625,200489.703125,0.09228515625,0.978515625,-0.248779296875,-2.044677495956421,-0.0915527269244194,0.1220703050494194,100.0,104546.0,1.0
15:34:18.377777,197726.140625,177904.609375,231988.046875,206763.03125,198894.234375,172319.890625,686484.125,200481.921875,0.091552734375,0.977294921875,-0.243896484375,-2.044677495956421,-0.1831054538488388,0.2441406100988388,100.0,104547.0,1.0
15:34:18.380532,197727.390625,177901.65625,231982.328125,206765.0,198888.6875,172298.34375,686485.375,200487.015625,0.08935546875,0.977294921875,-0.24365234375,-2.014159917831421,-0.2441406100988388,0.2441406100988388,100.0,104548.0,1.0
15:34:18.382600,197730.421875,177900.84375,231982.328125,206772.78125,198887.4375,172280.546875,686472.5,200498.109375,0.08935546875,0.978515625,-0.245361328125,-2.014159917831421,-0.2441406100988388,0.2746581733226776,100.0,104549.0,1.0
15:34:18.385335,197735.15625,177909.4375,231991.53125,206771.96875,198896.921875,172305.40625,686531.0,200496.40625,0.090087890625,0.979248046875,-0.242919921875,-1.9226073026657104,-0.3051757514476776,0.3051757514476776,100.0,104550.0,1.0
15:34:18.387668,197740.4375,177916.859375,232001.546875,206776.890625,198906.65625,172331.421875,686498.875,200492.828125,0.090087890625,0.977294921875,-0.243408203125,-1.9226073026657104,-0.3967284858226776,0.2746581733226776,100.0,104551.0,1.0
15:34:18.390507,197740.4375,177913.71875,231994.21875,206779.3125,198897.359375,172311.03125,686494.0,200493.28125,0.09033203125,0.975341796875,-0.2431640625,-1.9836424589157104,-0.3662109076976776,0.3356933295726776,100.0,104552.0,1.0
15:34:18.395752,197739.015625,177906.484375,231989.125,206787.703125,198892.171875,172282.421875,686474.0625,200503.46875,0.08935546875,0.9765625,-0.243408203125,-1.9226073026657104,-0.3356933295726776,0.2441406100988388,100.0,104553.0,1.0
15:34:18.395829,197741.59375,177912.5625,231998.0625,206783.859375,198896.203125,172298.78125,686517.4375,200500.609375,0.088623046875,0.975341796875,-0.2431640625,-2.014159917831421,-0.5187987685203552,0.3662109076976776,100.0,104554.0,1.0
15:34:18.397693,197743.5625,177919.09375,232011.5625,206781.90625,198904.515625,172328.921875,686484.9375,200496.3125,0.08984375,0.975341796875,-0.242919921875,-1.9531248807907104,-0.6103515028953552,0.3967284858226776,100.0,104555.0,1.0
15:34:18.400054,197749.015625,177922.9375,232012.375,206779.3125,198902.640625,172322.390625,686485.0625,200496.140625,0.089599609375,0.97705078125,-0.244140625,-1.9226073026657104,-0.6103515028953552,0.3662109076976776,100.0,104556.0,1.0
15:34:18.402553,197744.015625,177910.59375,232003.875,206785.296875,198894.140625,172289.3125,686479.6875,200505.890625,0.090087890625,0.978759765625,-0.244873046875,-1.8615721464157104,-0.5493163466453552,0.3051757514476776,100.0,104557.0,1.0
15:34:18.405143,197745.265625,177912.828125,232003.609375,206785.296875,198895.3125,172294.671875,686514.3125,200502.578125,0.091064453125,0.978515625,-0.245361328125,-1.8615721464157104,-0.5798339247703552,0.3356933295726776,100.0,104558.0,1.0
15:34:18.415611,197750.28125,177923.203125,232017.015625,206786.8125,198909.875,172330.703125,686493.625,200502.046875,0.09033203125,0.977294921875,-0.24365234375,-1.8310545682907104,-0.4882812201976776,0.4577636420726776,100.0,104559.0,1.0
15:34:18.415647,197752.515625,177927.3125,232014.96875,206779.84375,198906.21875,172330.609375,686488.875,200495.0625,0.090087890625,0.979736328125,-0.2431640625,-1.7700194120407104,-0.5187987685203552,0.6103515028953552,100.0,104560.0,1.0
15:34:18.418080,197748.9375,177920.15625,232005.3125,206786.734375,198899.0625,172301.296875,686480.9375,200504.90625,0.09130859375,0.98193359375,-0.2431640625,-1.6479490995407104,-0.5798339247703552,0.5187987685203552,100.0,104561.0,1.0
15:34:18.418101,197745.359375,177917.5625,231998.59375,206781.90625,198893.34375,172294.5,686500.6875,200499.53125,0.088623046875,0.982421875,-0.2431640625,-1.8005369901657104,-0.5187987685203552,0.5798339247703552,100.0,104562.0,1.0
15:34:18.423721,197751.171875,177928.03125,232011.828125,206788.96875,198910.6875,172330.703125,686514.125,200503.5625,0.091796875,0.9833984375,-0.24267578125,-1.8310545682907104,-0.5187987685203552,0.6408690810203552,100.0,104563.0,1.0
15:34:18.431786,197755.375,177938.40625,232015.671875,206787.4375,198913.09375,172345.1875,686498.1875,200499.53125,0.0908203125,0.982421875,-0.24365234375,-1.7700194120407104,-0.5798339247703552,0.6408690810203552,100.0,104564.0,1.0
15:34:18.431801,197752.421875,177927.671875,232007.8125,206792.8125,198906.484375,172311.03125,686486.3125,200509.734375,0.09033203125,0.980712890625,-0.244384765625,-1.8005369901657104,-0.6103515028953552,0.7629393935203552,100.0,104565.0,1.0
15:34:18.464942,197752.953125,177928.203125,232005.671875,206792.53125,198903.09375,172299.234375,686486.0,200508.84375,0.09130859375,0.978515625,-0.245361328125,-1.8310545682907104,-0.5798339247703552,0.7019042372703552,100.0,104566.0,1.0
15:34:18.464976,197754.390625,177935.359375,232012.015625,206792.8125,198912.75,172328.828125,686516.8125,200505.34375,0.0908203125,0.977783203125,-0.243408203125,-1.8005369901657104,-0.6103515028953552,0.6408690810203552,100.0,104567.0,1.0
15:34:18.478796,197759.21875,177939.65625,232016.125,206792.453125,198915.421875,172342.234375,686492.1875,200500.796875,0.091552734375,0.97900390625,-0.24169921875,-1.9226073026657104,-0.5493163466453552,0.7324218153953552,100.0,104568.0,1.0
15:34:18.488803,197757.421875,177930.359375,232007.625,206796.65625,198906.75,172314.25,686495.75,200508.296875,0.091064453125,0.978271484375,-0.24169921875,-1.8310545682907104,-0.5187987685203552,0.7934569716453552,100.0,104569.0,1.0
15:34:18.494403,197752.78125,177921.140625,231998.6875,206797.09375,198899.515625,172292.96875,686476.9375,200508.65625,0.091796875,0.97607421875,-0.240478515625,-1.8310545682907104,-0.4272460639476776,0.8850097060203552,100.0,104570.0,1.0
15:34:18.494435,197756.265625,177927.765625,232006.734375,206800.046875,198911.140625,172321.5,686507.3125,200509.734375,0.0927734375,0.97607421875,-0.2431640625,-1.8615721464157104,-0.4272460639476776,0.8544921278953552,100.0,104571.0,1.0
15:34:18.494441,197755.90625,177933.21875,232010.9375,206792.453125,198914.984375,172344.46875,686489.875,200502.84375,0.092529296875,0.977294921875,-0.24462890625,-1.8310545682907104,-0.3967284858226776,0.8850097060203552,100.0,104572.0,1.0
15:34:18.494446,197750.28125,177926.25,231999.765625,206788.15625,198903.171875,172320.6875,686496.375,200502.578125,0.09228515625,0.97705078125,-0.244384765625,-1.8310545682907104,-0.4272460639476776,0.9460448622703552,100.0,104573.0,1.0
15:34:18.496830,197745.890625,177917.75,231991.625,206791.546875,198895.3125,172294.046875,686481.5,200507.765625,0.094482421875,0.978271484375,-0.24853515625,-1.8615721464157104,-0.3051757514476776,0.9155272841453552,100.0,104574.0,1.0
15:34:18.496845,197740.625,177914.796875,231990.375,206785.828125,198895.484375,172307.375,686513.8125,200498.109375,0.095458984375,0.9775390625,-0.24755859375,-1.8005369901657104,-0.3356933295726776,1.1291502714157104,100.0,104575.0,1.0
15:34:18.500491,197740.34375,177919.0,231996.546875,206782.96875,198901.75,172332.578125,686482.4375,200491.21875,0.096435546875,0.977783203125,-0.24609375,-1.7395018339157104,-0.3051757514476776,1.1901854276657104,100.0,104576.0,1.0
15:34:18.500515,197735.515625,177912.734375,231984.921875,206772.328125,198890.75,172313.265625,686488.0625,200486.125,0.09765625,0.978271484375,-0.244384765625,-1.7395018339157104,-0.2441406100988388,1.0986326932907104,100.0,104577.0,1.0
15:34:18.500523,197729.0,177901.5625,231972.5,206774.296875,198882.078125,172283.328125,686454.5,200492.296875,0.0966796875,0.979736328125,-0.245849609375,-1.8310545682907104,-0.1220703050494194,1.0375975370407104,100.0,104578.0,1.0
15:34:18.500530,197728.09375,177904.0625,231971.78125,206770.0,198885.03125,172293.609375,686505.0625,200485.859375,0.0966796875,0.980712890625,-0.24755859375,-1.7089842557907104,-0.0915527269244194,1.0681151151657104,100.0,104579.0,1.0
15:34:18.505065,197727.828125,177911.484375,231980.984375,206767.765625,198895.046875,172324.53125,686487.8125,200481.5625,0.097412109375,0.981201171875,-0.248046875,-1.6784666776657104,-0.0610351525247097,0.9765624403953552,100.0,104580.0,1.0
15:34:18.507493,197727.828125,177912.109375,231976.34375,206759.546875,198888.0625,172317.03125,686491.75,200477.453125,0.096435546875,0.9794921875,-0.244384765625,-1.7700194120407104,-0.0915527269244194,0.9460448622703552,100.0,104581.0,1.0
15:34:18.510001,197723.453125,177900.765625,231968.828125,206763.390625,198880.375,172284.03125,686473.875,200487.828125,0.095458984375,0.97900390625,-0.24169921875,-1.8005369901657104,0.03051757626235485,0.9460448622703552,100.0,104582.0,1.0
15:34:18.513112,197728.453125,177904.0625,231973.03125,206764.28125,198883.234375,172290.734375,686512.6875,200487.734375,0.094482421875,0.979248046875,-0.2412109375,-1.7700194120407104,0.0610351525247097,1.0681151151657104,100.0,104583.0,1.0
15:34:18.513127,197734.625,177915.6875,231987.15625,206768.046875,198899.15625,172328.65625,686516.4375,200488.8125,0.094482421875,0.977783203125,-0.24365234375,-1.7700194120407104,0.1525878757238388,0.9460448622703552,100.0,104584.0,1.0
15:34:18.514978,197738.46875,177916.9375,231986.265625,206763.484375,198896.65625,172326.234375,686498.75,200484.609375,0.0947265625,0.975830078125,-0.245849609375,-1.8005369901657104,0.1525878757238388,0.8544921278953552,100.0,104585.0,1.0
15:34:18.517484,197740.890625,177909.96875,231981.875,206774.921875,198892.359375,172294.578125,686472.375,200500.96875,0.094970703125,0.976318359375,-0.243408203125,-1.7089842557907104,0.1525878757238388,0.6713866591453552,100.0,104586.0,1.0
15:34:18.520017,197743.125,177912.5625,231982.0625,206776.796875,198890.390625,172291.1875,686493.75,200500.4375,0.095703125,0.9775390625,-0.2431640625,-1.6479490995407104,0.1525878757238388,0.5798339247703552,100.0,104587.0,1.0
15:34:18.535627,197751.34375,177925.609375,231998.515625,206780.921875,198907.109375,172330.4375,686505.6875,200501.328125,0.094970703125,0.977783203125,-0.246337890625,-1.6479490995407104,0.1525878757238388,0.6408690810203552,100.0,104588.0,1.0
15:34:18.535646,197756.0,177931.34375,231999.765625,206775.90625,198907.921875,172339.109375,686485.125,200494.359375,0.09375,0.977294921875,-0.24755859375,-1.6479490995407104,0.2136230319738388,0.5798339247703552,100.0,104589.0,1.0
15:34:18.535648,197761.8125,177930.09375,231997.625,206792.1875,198905.765625,172314.796875,686477.625,200509.375,0.09326171875,0.977294921875,-0.248291015625,-1.6174315214157104,0.2136230319738388,0.4577636420726776,100.0,104590.0,1.0
15:34:18.537459,197767.796875,177932.953125,231997.53125,206800.140625,198905.40625,172304.328125,686482.125,200514.015625,0.09619140625,0.979248046875,-0.246337890625,-1.6784666776657104,0.1831054538488388,0.2746581733226776,100.0,104591.0,1.0
15:34:18.541237,197773.25,177940.375,232009.0625,206808.71875,198920.078125,172337.6875,686505.0625,200515.546875,0.094970703125,0.97705078125,-0.245361328125,-1.6784666776657104,0.2136230319738388,0.3051757514476776,100.0,104592.0,1.0
15:34:18.551254,197775.484375,177944.75,232015.5,206807.109375,198920.34375,172350.375,686477.875,200507.9375,0.09326171875,0.977294921875,-0.24169921875,-1.7089842557907104,0.2441406100988388,0.1525878757238388,100.0,104593.0,1.0
15:34:18.555636,197774.859375,177940.375,232008.796875,206810.953125,198911.9375,172323.46875,686480.5,200514.828125,0.0927734375,0.97705078125,-0.242919921875,-1.6479490995407104,0.3051757514476776,0.0915527269244194,100.0,104594.0,1.0
15:34:18.555650,197777.625,177939.03125,232005.9375,206817.484375,198910.234375,172307.90625,686470.1875,200521.359375,0.093505859375,0.979248046875,-0.244140625,-1.6784666776657104,0.1525878757238388,0.1831054538488388,100.0,104595.0,1.0
15:34:18.562684,197790.59375,177955.484375,232025.421875,206825.96875,198929.90625,172344.75,686516.25,200526.984375,0.093505859375,0.9794921875,-0.241943359375,-1.6479490995407104,0.0915527269244194,0.1831054538488388,100.0,104596.0,1.0
15:34:18.566229,197803.03125,177971.84375,232044.015625,206835.1875,198946.71875,172377.90625,686499.875,200532.0,0.091796875,0.979736328125,-0.2431640625,-1.7089842557907104,0.0915527269244194,0.1525878757238388,100.0,104597.0,1.0
15:34:18.574354,197807.578125,177974.96875,232040.890625,206837.953125,198945.734375,172365.125,686505.5,200538.875,0.093994140625,0.981201171875,-0.242919921875,-1.6784666776657104,0.0915527269244194,0.1220703050494194,100.0,104598.0,1.0
15:34:18.574370,197807.578125,177969.78125,232035.078125,206844.21875,198941.078125,172341.875,686473.4375,200547.8125,0.093505859375,0.980224609375,-0.24658203125,-1.7089842557907104,0.03051757626235485,0.0915527269244194,100.0,104599.0,1.0
15:34:18.576819,197816.796875,177979.96875,232045.0,206847.796875,198951.640625,172362.171875,686530.3125,200551.21875,0.09228515625,0.97900390625,-0.241455078125,-1.7700194120407104,0.0,0.0610351525247097,100.0,104600.0,1.0
15:34:18.576833,197830.03125,177999.015625,232064.40625,206855.921875,198971.9375,172402.59375,686499.25,200558.453125,0.089599609375,0.976806640625,-0.2412109375,-1.8310545682907104,0.0,0.0915527269244194,100.0,104601.0,1.0
15:34:18.590550,197825.640625,177994.015625,232056.625,206849.671875,198960.578125,172384.625,686505.5,200553.359375,0.091064453125,0.979248046875,-0.2431640625,-1.6784666776657104,-0.1220703050494194,0.03051757626235485,100.0,104602.0,1.0
15:34:18.592580,197814.828125,177978.546875,232044.109375,206850.109375,198944.296875,172346.0,686472.0625,200554.796875,0.08984375,0.97900390625,-0.24462890625,-1.7089842557907104,-0.0610351525247097,-0.03051757626235485,100.0,104603.0,1.0
15:34:18.595683,197811.421875,177975.859375,232041.875,206841.265625,198942.6875,172350.109375,686506.875,200545.578125,0.08837890625,0.976806640625,-0.244384765625,-1.6784666776657104,-0.1831054538488388,0.03051757626235485,100.0,104604.0,1.0
15:34:18.595748,197810.09375,177979.265625,232046.875,206836.96875,198949.578125,172377.90625,686481.5,200540.578125,0.089599609375,0.977294921875,-0.244384765625,-1.6479490995407104,-0.2441406100988388,0.0915527269244194,100.0,104605.0,1.0
15:34:18.595774,197806.875,177975.328125,232039.109375,206830.171875,198939.390625,172366.640625,686466.875,200532.53125,0.0888671875,0.9765625,-0.243408203125,-1.5869139432907104,-0.2136230319738388,0.0,100.0,104606.0,1.0
15:34:18.603564,197811.421875,177974.078125,232037.578125,206844.125,198941.171875,172343.046875,686470.5,200552.640625,0.087890625,0.976318359375,-0.24365234375,-1.4953612089157104,-0.2136230319738388,0.0610351525247097,100.0,104607.0,1.0
15:34:18.603583,197818.578125,177981.40625,232042.5,206847.796875,198946.53125,172349.390625,686500.5,200554.078125,0.088134765625,0.9755859375,-0.242919921875,-1.4953612089157104,-0.2441406100988388,0.0915527269244194,100.0,104608.0,1.0
15:34:18.611261,197821.53125,177985.96875,232053.5,206854.9375,198956.546875,172379.703125,686504.1875,200551.578125,0.08837890625,0.97412109375,-0.24267578125,-1.4343260526657104,-0.2746581733226776,0.1525878757238388,100.0,104609.0,1.0
15:34:18.615636,197826.453125,177990.078125,232056.09375,206857.171875,198955.75,172383.640625,686493.75,200548.359375,0.087646484375,0.97509765625,-0.244140625,-1.3732908964157104,-0.3662109076976776,0.1525878757238388,100.0,104610.0,1.0
15:34:18.615649,197824.578125,177983.640625,232049.03125,206860.484375,198949.046875,172353.5,686470.75,200558.453125,0.08935546875,0.974853515625,-0.244873046875,-1.2512205839157104,-0.4882812201976776,0.1525878757238388,100.0,104611.0,1.0
15:34:18.623152,197821.796875,177980.0625,232041.875,206854.5,198944.390625,172344.125,686485.125,200553.09375,0.08984375,0.973388671875,-0.244384765625,-1.1901854276657104,-0.5187987685203552,0.1831054538488388,100.0,104612.0,1.0
15:34:18.623167,197828.140625,177991.0625,232055.640625,206857.890625,198961.921875,172382.390625,686503.1875,200556.40625,0.08935546875,0.97314453125,-0.242919921875,-1.1291502714157104,-0.7019042372703552,0.3051757514476776,100.0,104613.0,1.0
15:34:18.625068,197829.84375,177997.859375,232057.609375,206854.59375,198961.734375,172393.46875,686488.0,200550.234375,0.08935546875,0.97607421875,-0.24267578125,-1.1291502714157104,-0.8239745497703552,0.2441406100988388,100.0,104614.0,1.0
15:34:18.638152,197822.515625,177983.28125,232045.625,206860.390625,198950.46875,172358.421875,686482.375,200558.1875,0.091064453125,0.9775390625,-0.24072265625,-1.0070799589157104,-0.7324218153953552,0.0610351525247097,100.0,104615.0,1.0
15:34:18.638170,197818.21875,177979.34375,232038.390625,206856.375,198944.390625,172343.046875,686487.1875,200556.046875,0.08837890625,0.976806640625,-0.242919921875,-0.9765624403953552,-0.7629393935203552,-0.03051757626235485,100.0,104616.0,1.0
15:34:18.640574,197823.234375,177987.484375,232051.703125,206860.046875,198959.234375,172374.96875,686510.6875,200559.625,0.0888671875,0.978759765625,-0.2421875,-0.9155272841453552,-0.7934569716453552,-0.0610351525247097,100.0,104617.0,1.0
15:34:18.640581,197822.0625,177987.03125,232053.59375,206854.59375,198958.34375,172386.3125,686484.75,200551.578125,0.08984375,0.979248046875,-0.243408203125,-1.0681151151657104,-0.8850097060203552,-0.1220703050494194,100.0,104618.0,1.0
15:34:18.647448,197813.75,177974.96875,232038.5625,206850.296875,198945.015625,172356.453125,686485.9375,200551.21875,0.0888671875,0.97900390625,-0.244384765625,-1.0375975370407104,-0.9765624403953552,0.0,100.0,104619.0,1.0
15:34:18.651817,197810.796875,177970.234375,232032.484375,206849.765625,198939.203125,172335.359375,686479.5625,200554.4375,0.09033203125,0.981201171875,-0.245361328125,-1.0375975370407104,-0.9155272841453552,-0.0610351525247097,100.0,104620.0,1.0
15:34:18.651826,197817.78125,177983.90625,232044.828125,206852.4375,198952.171875,172363.78125,686513.3125,200554.875,0.09228515625,0.9814453125,-0.245849609375,-1.0986326932907104,-0.9460448622703552,0.0610351525247097,100.0,104621.0,1.0
15:34:18.663826,197823.59375,177997.59375,232056.984375,206851.640625,198962.984375,172393.734375,686483.625,200552.203125,0.09326171875,0.979248046875,-0.24609375,-1.1291502714157104,-1.0070799589157104,0.1220703050494194,100.0,104622.0,1.0
15:34:18.666788,197819.65625,177992.140625,232047.59375,206846.71875,198953.15625,172372.28125,686487.9375,200549.875,0.09814453125,0.978515625,-0.24365234375,-1.1596678495407104,-0.8544921278953552,0.03051757626235485,100.0,104623.0,1.0
15:34:18.666797,197811.515625,177978.359375,232035.609375,206847.609375,198942.609375,172339.375,686463.75,200553.8125,0.099365234375,0.976806640625,-0.244140625,-1.1901854276657104,-0.9460448622703552,0.1831054538488388,100.0,104624.0,1.0
15:34:18.668789,197813.125,177983.015625,232039.375,206844.3125,198948.78125,172359.3125,686519.375,200550.328125,0.099365234375,0.9765625,-0.2451171875,-1.1291502714157104,-0.8850097060203552,0.2746581733226776,100.0,104625.0,1.0
15:34:18.679283,197815.09375,177992.9375,232047.78125,206842.25,198959.40625,172392.484375,686490.3125,200546.484375,0.09765625,0.977294921875,-0.24609375,-1.1596678495407104,-0.7324218153953552,0.2136230319738388,100.0,104626.0,1.0
15:34:18.679290,197803.5625,177976.3125,232031.140625,206829.015625,198942.875,172366.109375,686488.6875,200535.75,0.09521484375,0.976806640625,-0.248046875,-1.0986326932907104,-0.7629393935203552,0.1220703050494194,100.0,104627.0,1.0
15:34:18.681333,197796.9375,177962.625,232018.8125,206832.40625,198930.09375,172330.703125,686474.75,200541.46875,0.091552734375,0.97705078125,-0.250244140625,-1.0986326932907104,-0.7019042372703552,0.1831054538488388,100.0,104628.0,1.0
15:34:18.688805,197795.78125,177962.8125,232018.359375,206825.53125,198929.46875,172338.03125,686511.0,200533.515625,0.089599609375,0.97802734375,-0.25048828125,-1.0681151151657104,-0.6713866591453552,0.03051757626235485,100.0,104629.0,1.0
15:34:18.696360,197798.90625,177971.21875,232030.875,206827.3125,198941.53125,172371.921875,686480.75,200532.078125,0.08740234375,0.977783203125,-0.24755859375,-1.0375975370407104,-0.5798339247703552,-0.03051757626235485,100.0,104630.0,1.0
15:34:18.696445,197793.71875,177964.78125,232021.125,206814.53125,198929.28125,172358.6875,686483.1875,200520.28125,0.0869140625,0.978759765625,-0.248779296875,-1.0375975370407104,-0.6103515028953552,-0.0610351525247097,100.0,104631.0,1.0
15:34:18.700570,197791.765625,177957.625,232012.90625,206821.234375,198921.5,172329.1875,686460.3125,200530.734375,0.088623046875,0.979248046875,-0.24853515625,-1.0681151151657104,-0.5798339247703552,-0.1525878757238388,100.0,104632.0,1.0
15:34:18.700667,197795.609375,177960.75,232015.5,206821.0625,198923.296875,172331.421875,686498.125,200529.484375,0.09033203125,0.981201171875,-0.246826171875,-1.1291502714157104,-0.5798339247703552,-0.0915527269244194,100.0,104633.0,1.0
15:34:18.710105,197794.265625,177965.84375,232024.171875,206819.53125,198934.46875,172363.78125,686500.6875,200524.21875,0.09130859375,0.980712890625,-0.24755859375,-1.1596678495407104,-0.6408690810203552,-0.1220703050494194,100.0,104634.0,1.0
15:34:18.714249,197789.796875,177962.984375,232017.734375,206808.625,198925.703125,172361.46875,686483.625,200511.515625,0.091796875,0.979248046875,-0.2451171875,-1.2207030057907104,-0.5798339247703552,-0.03051757626235485,100.0,104635.0,1.0
15:34:18.714259,197787.734375,177953.0625,232008.171875,206812.921875,198916.765625,172329.28125,686479.875,200521.171875,0.094482421875,0.9794921875,-0.24658203125,-1.2512205839157104,-0.5798339247703552,-0.1220703050494194,100.0,104636.0,1.0
15:34:18.719424,197793.09375,177958.703125,232010.765625,206817.921875,198919.71875,172326.953125,686495.75,200524.296875,0.09423828125,0.980224609375,-0.246337890625,-1.2817381620407104,-0.4577636420726776,-0.1220703050494194,100.0,104637.0,1.0
15:34:18.719475,197796.3125,177966.203125,232023.28125,206821.421875,198934.296875,172359.859375,686505.0625,200525.375,0.094482421875,0.978759765625,-0.24755859375,-1.2512205839157104,-0.3662109076976776,-0.0915527269244194,100.0,104638.0,1.0
15:34:18.726446,197795.15625,177968.265625,232023.1875,206814.984375,198931.96875,172369.0625,686483.25,200516.4375,0.09375,0.978515625,-0.2470703125,-1.3427733182907104,-0.3051757514476776,-0.1525878757238388,100.0,104639.0,1.0
15:34:18.729997,197792.03125,177960.03125,232015.046875,206819.265625,198922.484375,172338.21875,686493.4375,200524.390625,0.091552734375,0.97998046875,-0.24951171875,-1.3732908964157104,-0.3356933295726776,-0.2441406100988388,100.0,104640.0,1.0
15:34:18.740687,197790.15625,177953.15625,232010.140625,206820.96875,198919.1875,172319.890625,686489.625,200528.421875,0.091064453125,0.982666015625,-0.247314453125,-1.4953612089157104,-0.2136230319738388,-0.4577636420726776,100.0,104641.0,1.0
15:34:18.740717,197794.53125,177962.625,232020.0625,206822.671875,198933.03125,172352.15625,686502.9375,200529.578125,0.087158203125,0.982666015625,-0.248046875,-1.5563963651657104,-0.2746581733226776,-0.4882812201976776,100.0,104642.0,1.0
15:34:18.742500,197799.453125,177971.125,232026.671875,206820.078125,198939.03125,172372.546875,686481.5625,200525.46875,0.0869140625,0.98486328125,-0.249755859375,-1.6784666776657104,-0.2136230319738388,-0.6713866591453552,100.0,104643.0,1.0
15:34:18.746312,197799.453125,177968.625,232020.78125,206823.734375,198934.640625,172349.65625,686492.4375,200531.90625,0.087890625,0.984375,-0.24853515625,-1.8310545682907104,-0.1831054538488388,-0.6103515028953552,100.0,104644.0,1.0
15:34:18.753255,197802.671875,177968.703125,232019.875,206835.359375,198932.859375,172333.5625,686485.875,200541.375,0.0859375,0.982177734375,-0.245849609375,-1.9226073026657104,-0.1525878757238388,-0.6408690810203552,100.0,104645.0,1.0
15:34:18.753295,197802.390625,177970.234375,232023.015625,206835.625,198938.21875,172354.84375,686518.5625,200537.71875,0.087158203125,0.982177734375,-0.2451171875,-1.9531248807907104,-0.3051757514476776,-0.5187987685203552,100.0,104646.0,1.0
15:34:18.762522,197801.6875,177972.109375,232028.109375,206831.703125,198943.140625,172375.40625,686490.875,200530.390625,0.08837890625,0.98046875,-0.2431640625,-1.9836424589157104,-0.3051757514476776,-0.5187987685203552,100.0,104647.0,1.0
15:34:18.766845,197800.4375,177968.984375,232023.015625,206826.78125,198935.546875,172358.328125,686502.375,200529.046875,0.088134765625,0.97900390625,-0.244873046875,-1.9836424589157104,-0.3662109076976776,-0.4577636420726776,100.0,104648.0,1.0
15:34:18.766870,197794.265625,177956.640625,232012.8125,206828.390625,198925.4375,172325.78125,686479.4375,200533.328125,0.087158203125,0.979736328125,-0.24658203125,-2.075195074081421,-0.3967284858226776,-0.2746581733226776,100.0,104649.0,1.0
15:34:18.768760,197793.546875,177958.609375,232014.15625,206822.21875,198926.875,172339.015625,686528.4375,200527.703125,0.087646484375,0.980712890625,-0.24609375,-2.136230230331421,-0.3356933295726776,-0.2746581733226776,100.0,104650.0,1.0
15:34:18.777539,197797.65625,177970.40625,232027.75,206821.234375,198939.5625,172375.40625,686499.8125,200526.359375,0.087890625,0.98046875,-0.24267578125,-2.136230230331421,-0.3662109076976776,-0.1525878757238388,100.0,104651.0,1.0
15:34:18.788233,197796.859375,177967.09375,232022.296875,206817.03125,198932.59375,172363.15625,686497.5625,200524.578125,0.08935546875,0.979736328125,-0.241943359375,-2.227782964706421,-0.3356933295726776,0.0,100.0,104652.0,1.0
15:34:18.788311,197793.71875,177956.015625,232015.40625,206825.703125,198925.796875,172329.640625,686476.375,200535.21875,0.09130859375,0.977294921875,-0.242919921875,-2.258300542831421,-0.2136230319738388,-0.0610351525247097,100.0,104653.0,1.0
15:34:18.791361,197796.9375,177962.90625,232018.1875,206827.046875,198928.84375,172339.109375,686510.5,200533.328125,0.090576171875,0.97802734375,-0.242919921875,-2.258300542831421,-0.2136230319738388,0.1831054538488388,100.0,104654.0,1.0
15:34:18.791423,197802.3125,177972.734375,232032.3125,206834.375,198945.828125,172376.296875,686494.625,200535.75,0.08935546875,0.978271484375,-0.244873046875,-2.258300542831421,-0.2136230319738388,0.3051757514476776,100.0,104655.0,1.0
15:34:18.792511,197797.84375,177970.234375,232025.953125,206822.3125,198936.4375,172367.8125,686497.0,200524.9375,0.087646484375,0.979248046875,-0.244873046875,-2.258300542831421,-0.2136230319738388,0.3662109076976776,100.0,104656.0,1.0
15:34:18.804276,197789.875,177959.59375,232014.609375,206824.359375,198925.265625,172332.9375,686477.375,200532.078125,0.08935546875,0.976806640625,-0.24169921875,-2.258300542831421,-0.1525878757238388,0.3356933295726776,100.0,104657.0,1.0
15:34:18.826844,197789.609375,177955.5625,232013.625,206823.03125,198923.921875,172330.609375,686513.8125,200529.484375,0.089111328125,0.978271484375,-0.24267578125,-2.166747808456421,-0.2136230319738388,0.3356933295726776,100.0,104658.0,1.0
15:34:18.826861,197794.890625,177965.671875,232027.5625,206835.625,198939.828125,172368.34375,686520.4375,200531.1875,0.08837890625,0.978759765625,-0.239990234375,-2.075195074081421,-0.0915527269244194,0.4272460639476776,100.0,104659.0,1.0
15:34:18.855750,197797.125,177969.15625,232029.359375,206836.265625,198940.375,172373.625,686501.125,200527.25,0.087890625,0.9833984375,-0.240966796875,-2.014159917831421,-0.0610351525247097,0.5798339247703552,100.0,104660.0,1.0
15:34:18.855786,197792.03125,177956.46875,232018.625,206839.484375,198931.078125,172339.015625,686493.875,200536.375,0.087890625,0.982177734375,-0.240478515625,-2.075195074081421,0.03051757626235485,0.6103515028953552,100.0,104661.0,1.0
15:34:18.857646,197793.640625,177956.734375,232016.125,206842.515625,198929.015625,172331.328125,686509.125,200537.0,0.0849609375,0.979736328125,-0.239013671875,-2.044677495956421,-0.03051757626235485,0.6713866591453552,100.0,104662.0,1.0
15:34:18.860159,197798.203125,177966.5625,232027.484375,206846.546875,198942.34375,172365.671875,686525.625,200535.921875,0.085693359375,0.977294921875,-0.2421875,-2.105712652206421,0.0,0.6713866591453552,100.0,104663.0,1.0
15:34:18.862631,197795.78125,177968.078125,232026.140625,206835.28125,198939.75,172375.234375,686499.8125,200523.953125,0.086181640625,0.9755859375,-0.241455078125,-2.197265386581421,-0.03051757626235485,0.6713866591453552,100.0,104664.0,1.0
15:34:18.865161,197785.234375,177953.953125,232010.5,206828.5625,198924.28125,172340.71875,686484.5,200522.25,0.085205078125,0.975341796875,-0.240234375,-2.075195074081421,-0.03051757626235485,0.5798339247703552,100.0,104665.0,1.0
15:34:18.867558,197786.296875,177953.421875,232008.96875,206829.46875,198923.03125,172327.75,686482.25,200527.796875,0.083740234375,0.973876953125,-0.24169921875,-1.9226073026657104,-0.0610351525247097,0.4577636420726776,100.0,104666.0,1.0
15:34:18.870090,197786.65625,177959.140625,232016.75,206828.75,198932.953125,172357.171875,686524.375,200525.828125,0.0849609375,0.972412109375,-0.2421875,-1.8920897245407104,0.0610351525247097,0.4882812201976776,100.0,104667.0,1.0
15:34:18.872661,197783.71875,177956.640625,232017.28125,206820.4375,198932.234375,172367.625,686496.6875,200516.703125,0.087158203125,0.97216796875,-0.244140625,-1.6479490995407104,0.0915527269244194,0.2441406100988388,100.0,104668.0,1.0
15:34:18.875070,197784.515625,177953.59375,232011.46875,206820.875,198927.765625,172345.640625,686498.4375,200523.046875,0.088134765625,0.97216796875,-0.242919921875,-1.4343260526657104,0.03051757626235485,0.2746581733226776,100.0,104669.0,1.0
15:34:18.877505,197776.65625,177942.25,232000.75,206819.890625,198917.390625,172317.921875,686484.6875,200525.203125,0.088134765625,0.97607421875,-0.243896484375,-1.4038084745407104,0.03051757626235485,0.2136230319738388,100.0,104670.0,1.0
15:34:18.880057,197772.625,177941.4375,232002.0,206812.03125,198918.828125,172334.1875,686517.75,200518.21875,0.0908203125,0.9765625,-0.246826171875,-1.4038084745407104,-0.0610351525247097,0.0915527269244194,100.0,104671.0,1.0
15:34:18.882540,197774.328125,177945.90625,232011.203125,206808.28125,198925.53125,172358.25,686483.5,200513.84375,0.091064453125,0.97802734375,-0.2421875,-1.3427733182907104,0.0,0.1220703050494194,100.0,104672.0,1.0
15:34:18.885061,197772.984375,177944.84375,232006.296875,206803.796875,198918.640625,172342.859375,686491.6875,200512.328125,0.092529296875,0.979736328125,-0.239990234375,-1.2207030057907104,0.0,0.3051757514476776,100.0,104673.0,1.0
15:34:18.887699,197764.3125,177930.71875,231995.65625,206806.484375,198908.265625,172309.421875,686472.25,200518.578125,0.094482421875,0.9794921875,-0.2421875,-1.1596678495407104,0.0610351525247097,0.2136230319738388,100.0,104674.0,1.0
15:34:18.890638,197763.421875,177931.15625,231997.703125,206807.015625,198909.96875,172320.25,686506.4375,200514.296875,0.093994140625,0.978515625,-0.23876953125,-1.0375975370407104,0.1220703050494194,0.2746581733226776,100.0,104675.0,1.0
15:34:18.890710,197768.15625,177939.921875,232010.21875,206813.453125,198924.71875,172353.6875,686484.5,200515.8125,0.092529296875,0.97607421875,-0.2392578125,-1.0986326932907104,0.1831054538488388,0.3051757514476776,100.0,104676.0,1.0
15:34:18.893148,197767.0,177937.859375,232005.390625,206806.21875,198917.390625,172340.984375,686485.9375,200509.8125,0.091552734375,0.97607421875,-0.242431640625,-1.0986326932907104,0.3051757514476776,0.2441406100988388,100.0,104677.0,1.0
15:34:18.893190,197761.359375,177924.71875,231995.296875,206813.453125,198910.0625,172306.5625,686489.25,200519.5625,0.0927734375,0.9765625,-0.241943359375,-1.0681151151657104,0.3356933295726776,0.2441406100988388,100.0,104678.0,1.0
15:34:18.895134,197766.90625,177930.625,232002.265625,206813.90625,198916.59375,172316.84375,686515.875,200521.265625,0.091796875,0.9765625,-0.243896484375,-1.0070799589157104,0.4272460639476776,0.3051757514476776,100.0,104679.0,1.0
15:34:18.898115,197767.0,177938.765625,232013.71875,206812.921875,198928.125,172352.34375,686492.9375,200517.15625,0.091064453125,0.976318359375,-0.24755859375,-0.8239745497703552,0.4577636420726776,0.2136230319738388,100.0,104680.0,1.0
15:34:18.898185,197767.890625,177941.625,232011.125,206808.625,198922.671875,172351.09375,686484.25,200509.90625,0.08837890625,0.9775390625,-0.24951171875,-0.8544921278953552,0.4577636420726776,0.1831054538488388,100.0,104681.0,1.0
15:34:18.900025,197764.9375,177932.234375,232003.96875,206811.671875,198914.984375,172317.109375,686463.5625,200519.75,0.089111328125,0.977294921875,-0.245849609375,-0.8239745497703552,0.4272460639476776,0.2136230319738388,100.0,104682.0,1.0
15:34:18.908094,197764.9375,177933.65625,232002.53125,206806.9375,198913.734375,172314.53125,686498.0,200516.34375,0.08837890625,0.97802734375,-0.24658203125,-0.7629393935203552,0.4577636420726776,0.2441406100988388,100.0,104683.0,1.0
15:34:18.908165,197768.609375,177945.640625,232012.640625,206808.09375,198929.28125,172351.71875,686492.8125,200515.546875,0.088623046875,0.978759765625,-0.24609375,-0.7019042372703552,0.4882812201976776,0.2136230319738388,100.0,104684.0,1.0
15:34:18.920723,197772.171875,177951.015625,232014.515625,206802.28125,198930.625,172359.765625,686484.9375,200510.984375,0.0859375,0.97607421875,-0.249267578125,-0.7629393935203552,0.4272460639476776,0.2136230319738388,100.0,104685.0,1.0
15:34:18.920810,197768.25,177938.578125,232005.125,206807.5625,198921.234375,172327.84375,686482.75,200521.078125,0.084228515625,0.9765625,-0.24462890625,-0.8544921278953552,0.3356933295726776,0.1831054538488388,100.0,104686.0,1.0
15:34:18.920838,197767.890625,177936.796875,232001.375,206808.546875,198917.390625,172315.6875,686482.4375,200521.796875,0.0830078125,0.978759765625,-0.2451171875,-0.8544921278953552,0.3662109076976776,0.1525878757238388,100.0,104687.0,1.0
15:34:18.920862,197772.71875,177945.015625,232013.171875,206813.015625,198933.75,172349.75,686511.25,200524.578125,0.083251953125,0.981689453125,-0.2431640625,-0.7934569716453552,0.3051757514476776,0.2746581733226776,100.0,104688.0,1.0
15:34:18.926528,197772.625,177946.890625,232016.75,206805.953125,198935.71875,172361.8125,686496.6875,200516.25,0.08349609375,0.982666015625,-0.242919921875,-0.8239745497703552,0.2441406100988388,0.1525878757238388,100.0,104689.0,1.0
15:34:18.934468,197772.984375,177942.0625,232009.59375,206811.84375,198929.734375,172336.34375,686492.125,200524.9375,0.082763671875,0.982177734375,-0.244873046875,-0.9155272841453552,0.2136230319738388,0.03051757626235485,100.0,104690.0,1.0
15:34:18.934527,197773.34375,177940.546875,232005.75,206822.75,198927.3125,172320.875,686482.25,200530.921875,0.084716796875,0.9794921875,-0.24267578125,-0.9155272841453552,0.1525878757238388,0.0,100.0,104691.0,1.0
15:34:18.936304,197779.328125,177951.28125,232019.875,206826.875,198941.078125,172352.25,686523.875,200531.453125,0.083984375,0.98095703125,-0.243408203125,-0.9765624403953552,0.0610351525247097,0.2441406100988388,100.0,104692.0,1.0
15:34:18.942542,197782.8125,177956.640625,232029.625,206825.265625,198945.734375,172372.375,686488.0,200526.09375,0.085205078125,0.97705078125,-0.24365234375,-0.8850097060203552,0.0610351525247097,0.1831054538488388,100.0,104693.0,1.0
15:34:18.951960,197784.34375,177954.046875,232025.875,206826.421875,198937.328125,172351.265625,686485.5,200529.21875,0.086181640625,0.9755859375,-0.243408203125,-0.9460448622703552,0.03051757626235485,0.1831054538488388,100.0,104694.0,1.0
15:34:18.952005,197780.140625,177945.828125,232017.015625,206832.234375,198929.734375,172324.265625,686469.5625,200533.25,0.08642578125,0.97412109375,-0.2451171875,-0.8850097060203552,-0.0610351525247097,0.2746581733226776,100.0,104695.0,1.0
15:34:18.961871,197781.03125,177949.3125,232018.8125,206829.015625,198933.484375,172342.15625,686512.125,200527.25,0.0888671875,0.97607421875,-0.24658203125,-1.0070799589157104,-0.0610351525247097,0.4272460639476776,100.0,104696.0,1.0
15:34:18.961915,197787.015625,177958.421875,232030.15625,206829.28125,198943.765625,172372.453125,686485.6875,200524.03125,0.087890625,0.97900390625,-0.246337890625,-0.9460448622703552,-0.1525878757238388,0.6103515028953552,100.0,104697.0,1.0
15:34:18.964398,197789.171875,177955.75,232024.96875,206836.265625,198937.234375,172355.921875,686491.75,200523.40625,0.087158203125,0.97802734375,-0.249267578125,-0.9155272841453552,-0.1220703050494194,0.6408690810203552,100.0,104698.0,1.0
15:34:18.964438,197784.78125,177945.203125,232014.25,206847.4375,198927.40625,172323.734375,686466.5625,200529.671875,0.088134765625,0.978515625,-0.249755859375,-1.0375975370407104,-0.03051757626235485,0.6408690810203552,100.0,104699.0,1.0
15:34:18.970005,197786.65625,177947.4375,232014.515625,206848.0625,198928.390625,172333.828125,686509.0,200524.578125,0.0869140625,0.97900390625,-0.247802734375,-0.9765624403953552,-0.0610351525247097,0.6103515028953552,100.0,104700.0,1.0
15:34:18.976880,197790.421875,177958.25,232024.171875,206853.953125,198939.828125,172367.71875,686478.5,200521.984375,0.08447265625,0.978515625,-0.245849609375,-1.0375975370407104,-0.03051757626235485,0.5798339247703552,100.0,104701.0,1.0
15:34:18.976905,197787.28125,177955.5625,232016.578125,206848.234375,198930.890625,172357.703125,686480.125,200514.734375,0.083984375,0.9794921875,-0.2451171875,-1.0681151151657104,-0.0915527269244194,0.5493163466453552,100.0,104702.0,1.0
15:34:19.013270,197784.421875,177948.421875,232007.625,206856.109375,198923.921875,172328.296875,686482.375,200524.65625,0.082275390625,0.97705078125,-0.24462890625,-1.0681151151657104,-0.1525878757238388,0.4882812201976776,100.0,104703.0,1.0
15:34:19.013366,197783.4375,177948.234375,232006.46875,206852.796875,198922.3125,172330.890625,686513.3125,200520.109375,0.080322265625,0.980712890625,-0.249755859375,-1.1596678495407104,-0.2441406100988388,0.5187987685203552,100.0,104704.0,1.0
15:34:19.015623,197788.984375,177957.4375,232022.828125,206854.765625,198936.703125,172365.390625,686498.1875,200521.171875,0.079833984375,0.98095703125,-0.248779296875,-1.1291502714157104,-0.3662109076976776,0.3967284858226776,100.0,104705.0,1.0
15:34:19.015707,197790.15625,177961.375,232024.625,206847.875,198931.703125,172365.125,686487.0,200511.96875,0.081787109375,0.980224609375,-0.24609375,-1.1901854276657104,-0.5187987685203552,0.2441406100988388,100.0,104706.0,1.0
15:34:19.020377,197785.59375,177952.4375,232015.234375,206855.84375,198921.328125,172334.375,686467.0625,200519.390625,0.08203125,0.98046875,-0.244384765625,-1.2207030057907104,-0.5493163466453552,0.2746581733226776,100.0,104707.0,1.0
15:34:19.020468,197783.4375,177948.5,232010.5,206854.40625,198918.109375,172327.046875,686500.25,200515.546875,0.083984375,0.97900390625,-0.247314453125,-1.2512205839157104,-0.6408690810203552,0.2136230319738388,100.0,104708.0,1.0
15:34:19.020495,197789.4375,177959.765625,232025.0625,206857.71875,198936.34375,172364.5,686500.1875,200518.3125,0.08544921875,0.9794921875,-0.2470703125,-1.2512205839157104,-0.7019042372703552,0.2441406100988388,100.0,104709.0,1.0
15:34:19.020519,197793.71875,177966.65625,232029.890625,206851.546875,198938.40625,172375.234375,686485.875,200514.640625,0.08642578125,0.978759765625,-0.245849609375,-1.2207030057907104,-0.7934569716453552,0.2441406100988388,100.0,104710.0,1.0
15:34:19.023189,197793.8125,177961.734375,232026.046875,206858.078125,198934.5625,172349.484375,686480.5,200526.8125,0.0869140625,0.978271484375,-0.247802734375,-1.3122557401657104,-0.6713866591453552,0.2746581733226776,100.0,104711.0,1.0
15:34:19.023256,197785.140625,177951.453125,232014.515625,206853.6875,198922.75,172328.65625,686488.375,200521.53125,0.089111328125,0.97900390625,-0.2490234375,-1.4343260526657104,-0.8544921278953552,0.3662109076976776,100.0,104712.0,1.0
15:34:19.023277,197783.796875,177954.140625,232019.703125,206852.171875,198931.703125,172355.03125,686507.3125,200517.234375,0.09130859375,0.978515625,-0.248291015625,-1.4648436307907104,-0.7324218153953552,0.3356933295726776,100.0,104713.0,1.0
15:34:19.023295,197788.890625,177963.34375,232027.03125,206846.984375,198937.15625,172374.6875,686483.0625,200512.953125,0.088623046875,0.977783203125,-0.248046875,-1.6174315214157104,-0.6408690810203552,0.3662109076976776,100.0,104714.0,1.0
15:34:19.025158,197791.84375,177961.640625,232023.015625,206849.046875,198933.578125,172352.609375,686473.8125,200522.25,0.0927734375,0.978759765625,-0.24609375,-1.5563963651657104,-0.6713866591453552,0.3356933295726776,100.0,104715.0,1.0
15:34:19.037759,197788.890625,177952.53125,232020.0625,206846.09375,198927.140625,172329.984375,686461.375,200524.484375,0.08984375,0.978271484375,-0.25,-1.6174315214157104,-0.7629393935203552,0.3967284858226776,100.0,104716.0,1.0
15:34:19.042603,197792.46875,177961.203125,232031.953125,206843.859375,198939.03125,172357.625,686511.625,200524.84375,0.0908203125,0.981201171875,-0.249267578125,-1.6174315214157104,-0.7019042372703552,0.4882812201976776,100.0,104717.0,1.0
15:34:19.042696,197792.734375,177967.1875,232039.1875,206838.40625,198945.015625,172380.0625,686489.5,200520.28125,0.08984375,0.980224609375,-0.249267578125,-1.7700194120407104,-0.6103515028953552,0.4882812201976776,100.0,104718.0,1.0
15:34:19.049561,197790.859375,177960.9375,232031.140625,206837.59375,198935.546875,172356.8125,686496.0625,200522.96875,0.090576171875,0.97900390625,-0.246337890625,-1.7395018339157104,-0.6103515028953552,0.4882812201976776,100.0,104719.0,1.0
15:34:19.049654,197790.0625,177956.375,232025.6875,206845.203125,198931.34375,172332.765625,686477.8125,200532.0,0.090576171875,0.979248046875,-0.246337890625,-1.7395018339157104,-0.5493163466453552,0.5493163466453552,100.0,104720.0,1.0
15:34:19.059559,197792.03125,177962.71875,232027.5625,206841.984375,198937.234375,172353.5,686522.25,200528.59375,0.08837890625,0.97998046875,-0.249267578125,-1.9836424589157104,-0.4882812201976776,0.5493163466453552,100.0,104721.0,1.0
15:34:19.059648,197789.609375,177963.96875,232032.9375,206836.609375,198942.96875,172377.46875,686493.625,200522.34375,0.087646484375,0.980712890625,-0.245849609375,-1.9226073026657104,-0.5493163466453552,0.5493163466453552,100.0,104722.0,1.0
15:34:19.061360,197782.8125,177956.640625,232023.015625,206822.578125,198930.0,172359.140625,686497.75,200513.578125,0.088623046875,0.981689453125,-0.246826171875,-1.8920897245407104,-0.4272460639476776,0.5187987685203552,100.0,104723.0,1.0
15:34:19.065125,197781.296875,177949.3125,232016.296875,206829.109375,198923.296875,172328.921875,686473.625,200523.5,0.087890625,0.979736328125,-0.24755859375,-1.9226073026657104,-0.2746581733226776,0.4272460639476776,100.0,104724.0,1.0
15:34:19.071363,197788.0,177956.015625,232021.046875,206834.921875,198930.625,172343.578125,686508.5,200526.625,0.089111328125,0.981201171875,-0.245849609375,-1.9226073026657104,-0.3662109076976776,0.3662109076976776,100.0,104725.0,1.0
15:34:19.078094,197793.09375,177965.84375,232034.1875,206838.84375,198945.203125,172376.84375,686478.9375,200528.59375,0.0888671875,0.983154296875,-0.246826171875,-1.9836424589157104,-0.3662109076976776,0.3356933295726776,100.0,104726.0,1.0
15:34:19.078128,197790.6875,177962.71875,232029.0,206831.078125,198937.0625,172365.578125,686481.375,200521.984375,0.088623046875,0.982177734375,-0.24462890625,-1.9836424589157104,-0.3662109076976776,0.3967284858226776,100.0,104727.0,1.0
15:34:19.084569,197783.625,177949.484375,232016.578125,206835.453125,198926.328125,172330.265625,686476.9375,200527.4375,0.0888671875,0.981689453125,-0.244140625,-1.9226073026657104,-0.3356933295726776,0.3356933295726776,100.0,104728.0,1.0
15:34:19.084620,197788.1875,177954.859375,232018.890625,206836.4375,198929.28125,172337.234375,686498.1875,200527.875,0.08837890625,0.979736328125,-0.24462890625,-2.014159917831421,-0.3662109076976776,0.4272460639476776,100.0,104729.0,1.0
15:34:19.086936,197789.609375,177962.90625,232028.546875,206836.171875,198942.34375,172372.640625,686482.125,200527.25,0.08984375,0.978759765625,-0.24462890625,-2.105712652206421,-0.3356933295726776,0.3967284858226776,100.0,104730.0,1.0
15:34:19.098751,197788.1875,177963.796875,232025.328125,206828.921875,198937.515625,172373.171875,686484.3125,200519.65625,0.09033203125,0.97900390625,-0.242919921875,-2.136230230331421,-0.3356933295726776,0.2746581733226776,100.0,104731.0,1.0
15:34:19.101804,197781.65625,177954.234375,232016.03125,206829.90625,198928.84375,172340.8125,686475.375,200527.25,0.089599609375,0.978271484375,-0.24169921875,-2.136230230331421,-0.3051757514476776,0.1525878757238388,100.0,104732.0,1.0
15:34:19.101829,197777.71875,177952.625,232009.59375,206824.8125,198923.921875,172331.875,686490.5,200522.609375,0.090576171875,0.974853515625,-0.243408203125,-2.075195074081421,-0.2441406100988388,0.0915527269244194,100.0,104733.0,1.0
15:34:19.103760,197781.203125,177960.390625,232019.703125,206825.265625,198935.984375,172365.3125,686501.25,200521.265625,0.091064453125,0.97607421875,-0.24609375,-2.014159917831421,-0.2746581733226776,0.0610351525247097,100.0,104734.0,1.0
15:34:19.114357,197780.578125,177960.65625,232019.875,206816.140625,198933.9375,172372.28125,686490.5625,200513.125,0.089111328125,0.9775390625,-0.24755859375,-2.014159917831421,-0.1831054538488388,0.03051757626235485,100.0,104735.0,1.0
15:34:19.114401,197774.0625,177949.046875,232013.265625,206816.59375,198923.46875,172338.03125,686482.25,200517.6875,0.088134765625,0.977294921875,-0.24365234375,-2.044677495956421,-0.1525878757238388,0.03051757626235485,100.0,104736.0,1.0
15:34:19.120072,197781.5625,177955.03125,232020.59375,206825.4375,198927.046875,172330.34375,686486.75,200525.640625,0.088134765625,0.979248046875,-0.2431640625,-1.9531248807907104,-0.2746581733226776,0.0610351525247097,100.0,104737.0,1.0
15:34:19.124329,197785.765625,177962.90625,232032.484375,206830.453125,198938.21875,172360.484375,686518.6875,200525.90625,0.088623046875,0.978515625,-0.245849609375,-1.9531248807907104,-0.2746581733226776,-0.0915527269244194,100.0,104738.0,1.0
15:34:19.124350,197784.609375,177962.09375,232035.078125,206825.0,198938.21875,172371.125,686489.4375,200516.890625,0.088623046875,0.97705078125,-0.245849609375,-2.014159917831421,-0.1831054538488388,-0.0915527269244194,100.0,104739.0,1.0
15:34:19.129990,197779.78125,177951.453125,232024.4375,206822.40625,198927.765625,172341.875,686490.3125,200519.65625,0.087890625,0.979248046875,-0.2421875,-1.9226073026657104,-0.2136230319738388,-0.0610351525247097,100.0,104740.0,1.0
15:34:19.140580,197781.296875,177948.859375,232020.78125,206826.78125,198923.65625,172323.203125,686492.375,200525.734375,0.08740234375,0.979248046875,-0.244384765625,-1.9531248807907104,-0.2441406100988388,-0.0610351525247097,100.0,104741.0,1.0
15:34:19.140604,197786.9375,177958.515625,232030.4375,206828.75,198933.125,172351.09375,686511.6875,200526.359375,0.086669921875,0.980712890625,-0.24267578125,-1.9226073026657104,-0.2746581733226776,0.03051757626235485,100.0,104742.0,1.0
15:34:19.142507,197793.09375,177969.875,232042.046875,206831.078125,198943.859375,172379.25,686481.125,200525.90625,0.084716796875,0.980712890625,-0.240234375,-1.9836424589157104,-0.3051757514476776,0.1525878757238388,100.0,104743.0,1.0
15:34:19.145028,197788.984375,177961.921875,232030.515625,206824.453125,198932.328125,172354.21875,686486.75,200522.78125,0.08544921875,0.982666015625,-0.243896484375,-1.9836424589157104,-0.3051757514476776,0.0915527269244194,100.0,104744.0,1.0
15:34:19.155645,197785.671875,177954.578125,232024.265625,206829.828125,198926.59375,172326.421875,686459.5,200530.5625,0.0859375,0.983642578125,-0.24072265625,-1.8615721464157104,-0.4272460639476776,0.1525878757238388,100.0,104745.0,1.0
15:34:19.155672,197789.609375,177962.359375,232030.34375,206830.53125,198933.671875,172345.453125,686508.625,200529.484375,0.086669921875,0.9833984375,-0.244140625,-2.014159917831421,-0.3356933295726776,0.2136230319738388,100.0,104746.0,1.0
15:34:19.157581,197795.25,177972.734375,232042.328125,206834.5625,198948.0625,172379.875,686476.4375,200530.5625,0.08544921875,0.982177734375,-0.24072265625,-2.044677495956421,-0.3356933295726776,0.1525878757238388,100.0,104747.0,1.0
15:34:19.166255,197795.609375,177971.296875,232037.84375,206832.40625,198942.421875,172366.828125,686473.125,200529.9375,0.0830078125,0.983642578125,-0.24169921875,-2.044677495956421,-0.3967284858226776,0.2136230319738388,100.0,104748.0,1.0
15:34:19.193258,197792.390625,177964.234375,232031.5,206840.015625,198935.8125,172336.34375,686469.375,200540.3125,0.08447265625,0.982177734375,-0.2431640625,-2.075195074081421,-0.5493163466453552,0.2746581733226776,100.0,104749.0,1.0
15:34:19.193281,197789.96875,177963.53125,232030.15625,206833.046875,198934.375,172342.515625,686508.9375,200533.6875,0.083251953125,0.981689453125,-0.242431640625,-2.136230230331421,-0.5798339247703552,0.5187987685203552,100.0,104750.0,1.0
15:34:19.219412,197798.46875,177975.6875,232044.921875,206836.890625,198950.5625,172380.421875,686480.5625,200536.546875,0.085693359375,0.980712890625,-0.241455078125,-2.197265386581421,-0.5798339247703552,0.5493163466453552,100.0,104751.0,1.0
15:34:19.219450,197801.859375,177980.15625,232043.578125,206831.515625,198947.171875,172377.46875,686480.875,200533.15625,0.086669921875,0.978759765625,-0.2412109375,-2.166747808456421,-0.6713866591453552,0.5493163466453552,100.0,104752.0,1.0
15:34:19.243877,197799.8125,177973.984375,232037.671875,206841.71875,198941.359375,172346.53125,686472.6875,200544.78125,0.085205078125,0.9755859375,-0.241455078125,-2.197265386581421,-0.6713866591453552,0.5798339247703552,100.0,104753.0,1.0
15:34:19.254765,197800.25,177974.078125,232037.84375,206841.4375,198941.359375,172346.890625,686496.9375,200542.453125,0.085693359375,0.97509765625,-0.238037109375,-2.166747808456421,-0.7019042372703552,0.5493163466453552,100.0,104754.0,1.0
15:34:19.254796,197805.890625,177983.46875,232052.609375,206845.90625,198957.890625,172384.4375,686508.5,200543.96875,0.08447265625,0.9775390625,-0.240234375,-2.075195074081421,-0.8850097060203552,0.6103515028953552,100.0,104755.0,1.0
15:34:19.254804,197809.1875,177988.5625,232054.65625,206840.1875,198956.46875,172389.53125,686498.375,200536.90625,0.083984375,0.97802734375,-0.241943359375,-1.9836424589157104,-0.8239745497703552,0.6408690810203552,100.0,104756.0,1.0
15:34:19.256219,197805.171875,177980.0625,232044.921875,206843.765625,198948.6875,172357.53125,686469.125,200545.140625,0.08349609375,0.976806640625,-0.241455078125,-1.9531248807907104,-0.8544921278953552,0.6103515028953552,100.0,104757.0,1.0
15:34:19.258772,197806.59375,177981.9375,232043.390625,206844.65625,198948.0625,172352.4375,686493.125,200545.765625,0.08544921875,0.97705078125,-0.244384765625,-1.9531248807907104,-0.8544921278953552,0.7629393935203552,100.0,104758.0,1.0
15:34:19.261415,197810.984375,177992.3125,232056.984375,206848.234375,198963.4375,172389.453125,686507.875,200547.109375,0.08544921875,0.97705078125,-0.2412109375,-1.9531248807907104,-0.9155272841453552,0.8544921278953552,100.0,104759.0,1.0
15:34:19.263716,197809.28125,177991.15625,232056.359375,206840.640625,198961.375,172396.875,686480.5,200538.4375,0.08740234375,0.97509765625,-0.24169921875,-1.8920897245407104,-1.0070799589157104,0.8239745497703552,100.0,104760.0,1.0
15:34:19.266345,197807.9375,177981.671875,232047.953125,206843.140625,198952.53125,172365.390625,686470.9375,200546.828125,0.0869140625,0.97412109375,-0.241943359375,-1.8920897245407104,-0.8239745497703552,0.8850097060203552,100.0,104761.0,1.0
15:34:19.268758,197810.0,177980.0625,232044.734375,206846.453125,198949.84375,172350.203125,686478.8125,200551.125,0.08642578125,0.973876953125,-0.2431640625,-1.8615721464157104,-0.8850097060203552,0.8544921278953552,100.0,104762.0,1.0
15:34:19.271268,197811.421875,177986.140625,232051.171875,206846.1875,198959.5,172377.828125,686518.6875,200549.25,0.086669921875,0.974853515625,-0.24560546875,-1.8005369901657104,-0.8544921278953552,0.8850097060203552,100.0,104763.0,1.0
15:34:19.273755,197815.265625,177994.015625,232058.328125,206845.109375,198966.203125,172399.546875,686481.9375,200545.21875,0.089599609375,0.976318359375,-0.24365234375,-1.7700194120407104,-0.8544921278953552,0.7934569716453552,100.0,104764.0,1.0
15:34:19.276465,197809.8125,177985.421875,232045.984375,206847.796875,198954.3125,172371.921875,686478.0625,200545.5,0.0888671875,0.9755859375,-0.245849609375,-1.7089842557907104,-0.7629393935203552,0.7934569716453552,100.0,104765.0,1.0
15:34:19.282631,197806.421875,177978.359375,232039.8125,206854.671875,198947.796875,172348.3125,686473.5,200550.234375,0.0908203125,0.976318359375,-0.245361328125,-1.6784666776657104,-0.7019042372703552,0.7629393935203552,100.0,104766.0,1.0
15:34:19.283925,197813.84375,177989.0,232053.3125,206860.75,198962.09375,172376.390625,686506.75,200554.078125,0.0888671875,0.97705078125,-0.2431640625,-1.6479490995407104,-0.7019042372703552,0.9460448622703552,100.0,104767.0,1.0
15:34:19.286291,197819.828125,177998.65625,232064.765625,206861.296875,198973.09375,172403.9375,686475.375,200553.8125,0.090576171875,0.9765625,-0.242919921875,-1.5869139432907104,-0.6408690810203552,0.9155272841453552,100.0,104768.0,1.0
15:34:19.288780,197817.953125,177993.46875,232055.28125,206855.21875,198963.171875,172383.015625,686478.9375,200552.28125,0.092041015625,0.97607421875,-0.241943359375,-1.5563963651657104,-0.5493163466453552,0.8239745497703552,100.0,104769.0,1.0
15:34:19.291556,197813.75,177983.546875,232050.375,206858.34375,198955.484375,172354.046875,686464.375,200557.828125,0.0908203125,0.97705078125,-0.2451171875,-1.5563963651657104,-0.3967284858226776,0.7934569716453552,100.0,104770.0,1.0
15:34:19.293932,197817.328125,177992.671875,232056.453125,206857.71875,198963.078125,172375.59375,686503.1875,200555.78125,0.089111328125,0.976806640625,-0.244384765625,-1.4953612089157104,-0.2136230319738388,0.8239745497703552,100.0,104771.0,1.0
15:34:19.296573,197819.03125,177999.734375,232065.75,206860.84375,198975.5,172406.34375,686482.125,200553.359375,0.090576171875,0.978271484375,-0.246826171875,-1.4343260526657104,-0.2746581733226776,0.7019042372703552,100.0,104772.0,1.0
15:34:19.299421,197817.234375,177998.484375,232058.421875,206853.25,198967.015625,172392.046875,686482.125,200548.71875,0.090576171875,0.97802734375,-0.245849609375,-1.3427733182907104,-0.2441406100988388,0.6103515028953552,100.0,104773.0,1.0
15:34:19.299434,197815.984375,177990.25,232052.6875,206862.28125,198961.203125,172362.53125,686468.5,200561.9375,0.09130859375,0.978759765625,-0.24853515625,-1.3732908964157104,-0.1525878757238388,0.7019042372703552,100.0,104774.0,1.0
15:34:19.299437,197816.34375,177990.171875,232052.78125,206859.6875,198960.390625,172367.984375,686503.8125,200556.140625,0.090576171875,0.977783203125,-0.247802734375,-1.3427733182907104,-0.0915527269244194,0.6103515028953552,100.0,104775.0,1.0
15:34:19.303011,197818.40625,177996.609375,232063.6875,206862.359375,198972.5625,172400.0,686480.3125,200554.171875,0.089111328125,0.978759765625,-0.244873046875,-1.3732908964157104,-0.1525878757238388,0.6713866591453552,100.0,104776.0,1.0
15:34:19.303020,197824.484375,178002.421875,232066.015625,206862.1875,198972.109375,172397.5,686480.0625,200554.4375,0.089599609375,0.979736328125,-0.244873046875,-1.3427733182907104,-0.1525878757238388,0.5798339247703552,100.0,104777.0,1.0
15:34:19.303022,197822.15625,177993.46875,232059.9375,206869.96875,198966.296875,172364.5,686474.25,200566.5,0.089599609375,0.978759765625,-0.2470703125,-1.3427733182907104,-0.0610351525247097,0.6408690810203552,100.0,104778.0,1.0
15:34:19.303025,197822.875,177993.390625,232057.96875,206868.171875,198964.78125,172362.453125,686501.3125,200563.28125,0.090087890625,0.978271484375,-0.244873046875,-1.3732908964157104,0.0,0.6408690810203552,100.0,104779.0,1.0
15:34:19.305584,197825.828125,178000.265625,232069.234375,206869.515625,198976.84375,172396.59375,686506.5,200562.921875,0.090087890625,0.978515625,-0.2431640625,-1.4343260526657104,0.0915527269244194,0.5493163466453552,100.0,104780.0,1.0
15:34:19.305594,197826.53125,178001.25,232068.15625,206861.46875,198974.078125,172400.359375,686492.5625,200556.3125,0.089599609375,0.98095703125,-0.24462890625,-1.4038084745407104,0.1220703050494194,0.4577636420726776,100.0,104781.0,1.0
15:34:19.307501,197824.03125,177992.765625,232060.5625,206868.171875,198967.546875,172370.671875,686483.4375,200566.859375,0.087646484375,0.98046875,-0.24658203125,-1.4953612089157104,0.1525878757238388,0.4882812201976776,100.0,104782.0,1.0
15:34:19.310011,197826.453125,177995.0,232060.203125,206869.515625,198968.796875,172365.125,686490.25,200567.84375,0.086669921875,0.979248046875,-0.243896484375,-1.5258787870407104,0.2441406100988388,0.4577636420726776,100.0,104783.0,1.0
15:34:19.312541,197833.953125,178007.953125,232075.578125,206876.046875,198987.3125,172403.3125,686506.9375,200572.3125,0.08935546875,0.98095703125,-0.2451171875,-1.4648436307907104,0.1831054538488388,0.4577636420726776,100.0,104784.0,1.0
15:34:19.314985,197839.859375,178016.359375,232082.546875,206875.15625,198993.5625,172420.65625,686498.625,200570.078125,0.089599609375,0.980224609375,-0.24462890625,-1.3427733182907104,0.1831054538488388,0.4272460639476776,100.0,104785.0,1.0
15:34:19.318071,197844.15625,178015.65625,232082.734375,206885.34375,198992.40625,172399.015625,686499.0,200584.390625,0.087890625,0.978271484375,-0.24072265625,-1.4648436307907104,0.1831054538488388,0.5493163466453552,100.0,104786.0,1.0
15:34:19.318089,197844.15625,178013.5,232079.515625,206891.15625,198989.453125,172383.90625,686488.4375,200588.859375,0.086181640625,0.979736328125,-0.2421875,-1.4343260526657104,0.2136230319738388,0.3662109076976776,100.0,104787.0,1.0
15:34:19.323762,197850.859375,178025.65625,232092.484375,206896.78125,199005.8125,172417.25,686535.375,200591.0,0.085205078125,0.980224609375,-0.244384765625,-1.3732908964157104,0.1220703050494194,0.4577636420726776,100.0,104788.0,1.0
15:34:19.330659,197858.359375,178038.0,232103.296875,206898.3125,199015.828125,172443.53125,686503.3125,200591.359375,0.0859375,0.980224609375,-0.24462890625,-1.3732908964157104,0.1525878757238388,0.4577636420726776,100.0,104789.0,1.0
15:34:19.330670,197851.921875,178027.359375,232089.625,206894.546875,199002.78125,172414.921875,686506.875,200591.359375,0.087646484375,0.97802734375,-0.2431640625,-1.4953612089157104,0.2441406100988388,0.5493163466453552,100.0,104790.0,1.0
15:34:19.338104,197838.078125,178010.109375,232074.0625,206888.734375,198985.4375,172378.71875,686485.875,200587.609375,0.08740234375,0.97998046875,-0.24560546875,-1.4343260526657104,0.2136230319738388,0.4272460639476776,100.0,104791.0,1.0
15:34:19.338115,197832.96875,178007.875,232072.90625,206882.921875,198985.515625,172392.9375,686503.75,200576.421875,0.088134765625,0.97998046875,-0.242919921875,-1.4038084745407104,0.2136230319738388,0.4882812201976776,100.0,104792.0,1.0
15:34:19.344348,197831.71875,178010.015625,232076.65625,206884.453125,198989.453125,172414.03125,686469.9375,200566.953125,0.086181640625,0.97998046875,-0.24462890625,-1.3732908964157104,0.2136230319738388,0.4882812201976776,100.0,104793.0,1.0
15:34:19.344362,197831.8125,178007.15625,232067.71875,206886.859375,198980.421875,172396.0625,686470.625,200566.5,0.086669921875,0.981201171875,-0.244140625,-1.4343260526657104,0.3051757514476776,0.5187987685203552,100.0,104794.0,1.0
15:34:19.346260,197826.71875,177997.953125,232058.328125,206894.546875,198972.90625,172367.359375,686456.875,200573.65625,0.086669921875,0.979736328125,-0.242919921875,-1.4953612089157104,0.1831054538488388,0.5798339247703552,100.0,104795.0,1.0
15:34:19.351242,197829.578125,178004.921875,232062.171875,206894.375,198979.0,172383.71875,686511.4375,200571.78125,0.086181640625,0.97900390625,-0.244873046875,-1.4038084745407104,0.2136230319738388,0.5493163466453552,100.0,104796.0,1.0
15:34:19.361269,197832.34375,178013.140625,232072.71875,206896.515625,198990.796875,172416.09375,686494.8125,200571.6875,0.08740234375,0.979248046875,-0.241943359375,-1.4038084745407104,0.1525878757238388,0.4882812201976776,100.0,104797.0,1.0
15:34:19.365648,197828.765625,178011.171875,232064.21875,206888.734375,198980.78125,172403.125,686487.125,200565.609375,0.08642578125,0.978271484375,-0.241455078125,-1.4343260526657104,0.1220703050494194,0.5798339247703552,100.0,104798.0,1.0
15:34:19.365660,197821.796875,178000.984375,232052.515625,206893.921875,198971.296875,172370.3125,686464.9375,200573.828125,0.0869140625,0.979248046875,-0.24169921875,-1.3732908964157104,0.0915527269244194,0.5798339247703552,100.0,104799.0,1.0
15:34:19.372479,197824.03125,178005.640625,232054.296875,206889.90625,198971.9375,172376.84375,686502.6875,200570.265625,0.08544921875,0.977783203125,-0.243896484375,-1.3122557401657104,0.0915527269244194,0.6408690810203552,100.0,104800.0,1.0
15:34:19.376806,197830.734375,178016.0,232070.390625,206894.1875,198987.125,172412.421875,686491.9375,200571.25,0.086181640625,0.9765625,-0.243408203125,-1.3427733182907104,0.0,0.6713866591453552,100.0,104801.0,1.0
15:34:19.376809,197831.09375,178012.78125,232066.46875,206886.765625,198980.515625,172406.078125,686489.875,200563.546875,0.0830078125,0.978271484375,-0.24267578125,-1.2817381620407104,0.0,0.7629393935203552,100.0,104802.0,1.0
15:34:19.386378,197824.65625,178000.625,232052.78125,206887.046875,198968.171875,172371.03125,686466.5625,200569.8125,0.083740234375,0.978271484375,-0.2421875,-1.0986326932907104,-0.0610351525247097,0.6408690810203552,100.0,104803.0,1.0
15:34:19.390699,197826.71875,178004.03125,232050.375,206884.1875,198966.203125,172369.859375,686495.25,200566.421875,0.084228515625,0.98095703125,-0.24072265625,-1.2817381620407104,-0.0610351525247097,0.6713866591453552,100.0,104804.0,1.0
15:34:19.390750,197830.5625,178012.078125,232062.265625,206885.15625,198980.25,172405.265625,686501.125,200566.140625,0.082763671875,0.9814453125,-0.2421875,-1.2512205839157104,-0.1525878757238388,0.7019042372703552,100.0,104805.0,1.0
15:34:19.396440,197833.421875,178017.4375,232063.25,206879.359375,198979.984375,172412.25,686484.625,200559.625,0.08544921875,0.98095703125,-0.24169921875,-1.2817381620407104,-0.1525878757238388,0.7324218153953552,100.0,104806.0,1.0
15:34:19.400647,197834.046875,178012.078125,232057.078125,206888.03125,198975.0625,172384.4375,686475.3125,200570.796875,0.086669921875,0.981201171875,-0.2412109375,-1.3122557401657104,-0.2746581733226776,0.6713866591453552,100.0,104807.0,1.0
15:34:19.400673,197836.90625,178013.140625,232055.46875,206899.015625,198972.640625,172373.890625,686488.0625,200572.3125,0.0869140625,0.978515625,-0.24169921875,-1.3427733182907104,-0.3051757514476776,0.5187987685203552,100.0,104808.0,1.0
15:34:19.415071,197845.046875,178025.3125,232070.65625,206906.890625,198989.0,172410.09375,686505.0625,200575.71875,0.090087890625,0.97802734375,-0.2431640625,-1.3427733182907104,-0.1831054538488388,0.5798339247703552,100.0,104809.0,1.0
15:34:19.419357,197853.09375,178035.59375,232079.609375,206903.9375,198995.71875,172429.328125,686474.25,200573.921875,0.091796875,0.975830078125,-0.242919921875,-1.3122557401657104,-0.2136230319738388,0.7019042372703552,100.0,104810.0,1.0
15:34:19.419371,197850.140625,178027.625,232070.21875,206901.171875,198986.0625,172401.34375,686478.9375,200579.5625,0.09326171875,0.975341796875,-0.242919921875,-1.2817381620407104,-0.1220703050494194,0.7934569716453552,100.0,104811.0,1.0
15:34:19.419374,197845.40625,178021.1875,232061.71875,206898.9375,198977.390625,172379.875,686492.125,200579.828125,0.091552734375,0.9765625,-0.243896484375,-1.1901854276657104,-0.03051757626235485,0.7934569716453552,100.0,104812.0,1.0
15:34:19.425653,197845.84375,178024.859375,232067.09375,206899.015625,198985.4375,172403.84375,686501.6875,200577.046875,0.091552734375,0.97802734375,-0.24365234375,-1.1596678495407104,-0.03051757626235485,0.7629393935203552,100.0,104813.0,1.0
15:34:19.425667,197845.84375,178026.640625,232070.65625,206896.25,198987.84375,172421.28125,686479.125,200567.84375,0.093017578125,0.978271484375,-0.247314453125,-1.1901854276657104,-0.03051757626235485,0.6713866591453552,100.0,104814.0,1.0
15:34:19.431246,197845.84375,178021.015625,232065.484375,206896.078125,198981.046875,172400.265625,686487.625,200572.3125,0.0908203125,0.97802734375,-0.24560546875,-1.2207030057907104,0.0,0.6408690810203552,100.0,104815.0,1.0
15:34:19.439397,197843.25,178014.046875,232058.6875,206902.859375,198976.046875,172374.6875,686466.875,200579.375,0.08837890625,0.97802734375,-0.24462890625,-1.1291502714157104,0.0610351525247097,0.5493163466453552,100.0,104816.0,1.0
15:34:19.439420,197849.421875,178024.40625,232067.796875,206904.03125,198987.125,172399.109375,686515.375,200578.21875,0.087890625,0.974853515625,-0.24658203125,-1.1291502714157104,0.1220703050494194,0.4577636420726776,100.0,104817.0,1.0
15:34:19.445615,197859.34375,178039.796875,232084.34375,206910.015625,199003.140625,172433.53125,686494.875,200581.4375,0.088623046875,0.974853515625,-0.241943359375,-1.0986326932907104,0.0915527269244194,0.3967284858226776,100.0,104818.0,1.0
15:34:19.445625,197854.609375,178032.375,232072.984375,206902.859375,198991.421875,172412.953125,686491.3125,200576.15625,0.088134765625,0.9755859375,-0.241943359375,-1.0681151151657104,0.03051757626235485,0.4272460639476776,100.0,104819.0,1.0
15:34:19.455933,197847.09375,178020.125,232060.203125,206903.671875,198980.0625,172379.875,686461.0625,200580.1875,0.08984375,0.978271484375,-0.24560546875,-1.0986326932907104,0.0610351525247097,0.3051757514476776,100.0,104820.0,1.0
15:34:19.455961,197849.6875,178025.578125,232065.03125,206902.421875,198985.25,172393.296875,686511.125,200576.609375,0.08935546875,0.978759765625,-0.244140625,-1.0986326932907104,0.0610351525247097,0.3662109076976776,100.0,104821.0,1.0
15:34:19.459505,197856.40625,178037.734375,232081.296875,206907.6875,198999.921875,172431.015625,686488.8125,200576.15625,0.0888671875,0.98095703125,-0.2451171875,-1.1291502714157104,0.03051757626235485,0.3967284858226776,100.0,104822.0,1.0
15:34:19.459526,197857.109375,178037.375,232077.09375,206902.328125,198993.03125,172422.078125,686480.5,200573.03125,0.089111328125,0.9814453125,-0.248046875,-1.0986326932907104,0.0915527269244194,0.4577636420726776,100.0,104823.0,1.0
15:34:19.470031,197853.53125,178027.984375,232069.046875,206906.890625,198986.59375,172389.984375,686462.1875,200583.046875,0.0908203125,0.981201171875,-0.24755859375,-1.1291502714157104,-0.03051757626235485,0.4882812201976776,100.0,104824.0,1.0
15:34:19.474302,197853.890625,178030.40625,232069.046875,206901.703125,198984.71875,172394.09375,686502.375,200578.03125,0.08984375,0.981201171875,-0.24951171875,-1.1596678495407104,0.03051757626235485,0.4882812201976776,100.0,104825.0,1.0
15:34:19.474311,197856.40625,178038.453125,232080.046875,206905.09375,198995.4375,172427.4375,686483.0625,200575.984375,0.089599609375,0.9814453125,-0.246826171875,-1.1901854276657104,0.1220703050494194,0.2746581733226776,100.0,104826.0,1.0
15:34:19.491985,197854.4375,178036.21875,232074.234375,206897.953125,198987.671875,172422.96875,686480.125,200566.953125,0.08935546875,0.98193359375,-0.24658203125,-1.2207030057907104,0.1525878757238388,0.1525878757238388,100.0,104827.0,1.0
15:34:19.492000,197854.609375,178030.046875,232069.046875,206904.75,198983.46875,172392.484375,686464.3125,200580.359375,0.08740234375,0.9833984375,-0.245849609375,-1.2817381620407104,0.1220703050494194,-0.03051757626235485,100.0,104828.0,1.0
15:34:19.494422,197851.390625,178025.9375,232063.25,206899.828125,198976.40625,172383.015625,686502.125,200574.546875,0.085205078125,0.982421875,-0.24609375,-1.3732908964157104,0.0610351525247097,-0.2746581733226776,100.0,104829.0,1.0
15:34:19.494429,197844.59375,178024.953125,232065.921875,206889.546875,198980.25,172410.453125,686511.0,200564.171875,0.084228515625,0.981689453125,-0.245361328125,-1.3732908964157104,0.0915527269244194,-0.4577636420726776,100.0,104830.0,1.0
15:34:19.510683,197844.859375,178029.5,232067.796875,206881.3125,198980.0625,172421.640625,686486.1875,200556.671875,0.083740234375,0.983154296875,-0.244140625,-1.4648436307907104,0.0610351525247097,-0.5493163466453552,100.0,104831.0,1.0
15:34:19.510760,197841.375,178021.546875,232058.234375,206884.09375,198971.75,172390.78125,686473.625,200564.890625,0.083984375,0.98291015625,-0.242919921875,-1.4343260526657104,0.0915527269244194,-0.5798339247703552,100.0,104832.0,1.0
15:34:19.510787,197842.71875,178021.8125,232055.640625,206886.765625,198968.171875,172379.4375,686483.875,200565.703125,0.0849609375,0.980224609375,-0.241943359375,-1.4953612089157104,0.0,-0.4882812201976776,100.0,104833.0,1.0
15:34:19.517614,197848.171875,178031.46875,232067.09375,206892.046875,198981.5,172412.421875,686526.0625,200566.6875,0.08349609375,0.9814453125,-0.244140625,-1.5869139432907104,-0.1220703050494194,-0.4577636420726776,100.0,104834.0,1.0
15:34:19.521970,197849.25,178034.6875,232070.03125,206886.953125,198983.546875,172425.75,686495.75,200559.171875,0.08642578125,0.9814453125,-0.240478515625,-1.6784666776657104,-0.3051757514476776,-0.5187987685203552,100.0,104835.0,1.0
15:34:19.522125,197838.96875,178020.75,232054.5625,206881.3125,198970.234375,172392.84375,686490.875,200559.625,0.086181640625,0.982421875,-0.2421875,-1.6479490995407104,-0.2441406100988388,-0.3967284858226776,100.0,104836.0,1.0
15:34:19.522158,197833.0625,178012.25,232046.34375,206881.140625,198960.484375,172368.96875,686483.375,200560.875,0.08740234375,0.979248046875,-0.24072265625,-1.6784666776657104,-0.3051757514476776,-0.3356933295726776,100.0,104837.0,1.0
15:34:19.525675,197836.28125,178020.125,232054.5625,206883.546875,198970.859375,172394.0,686514.625,200559.0,0.088134765625,0.979248046875,-0.243408203125,-1.6479490995407104,-0.3662109076976776,-0.2746581733226776,100.0,104838.0,1.0
15:34:19.525744,197842.359375,178031.921875,232064.3125,206884.890625,198982.484375,172422.796875,686485.6875,200558.28125,0.088134765625,0.979248046875,-0.243408203125,-1.7089842557907104,-0.2746581733226776,-0.3356933295726776,100.0,104839.0,1.0
15:34:19.556882,197838.96875,178025.3125,232054.84375,206883.109375,198974.078125,172401.0625,686487.0,200560.515625,0.0888671875,0.978271484375,-0.241455078125,-1.7089842557907104,-0.1831054538488388,-0.2136230319738388,100.0,104840.0,1.0
15:34:19.556961,197834.765625,178017.171875,232046.796875,206885.4375,198967.546875,172374.34375,686466.1875,200566.421875,0.087646484375,0.978271484375,-0.2412109375,-1.6784666776657104,-0.1831054538488388,-0.1220703050494194,100.0,104841.0,1.0
15:34:19.583743,197833.78125,178018.6875,232047.859375,206881.59375,198970.40625,172390.609375,686517.75,200559.4375,0.086669921875,0.978271484375,-0.240966796875,-1.6784666776657104,-0.1220703050494194,-0.0610351525247097,100.0,104842.0,1.0
15:34:19.583754,197830.375,178017.171875,232050.1875,206878.015625,198973.8125,172412.25,686485.9375,200552.375,0.087158203125,0.97900390625,-0.240966796875,-1.7089842557907104,-0.0610351525247097,0.0,100.0,104843.0,1.0
15:34:19.583755,197824.125,178007.875,232038.296875,206866.484375,198961.015625,172392.3125,686488.1875,200546.125,0.085205078125,0.980224609375,-0.242431640625,-1.6784666776657104,-0.1220703050494194,0.0915527269244194,100.0,104844.0,1.0
15:34:19.600871,197817.859375,177999.46875,232028.828125,206871.21875,198953.15625,172363.15625,686479.125,200552.46875,0.0869140625,0.98095703125,-0.244140625,-1.6174315214157104,-0.0610351525247097,0.2136230319738388,100.0,104845.0,1.0
15:34:19.600889,197816.609375,178000.8125,232028.28125,206870.234375,198954.5,172373.53125,686521.6875,200548.09375,0.085693359375,0.979248046875,-0.241455078125,-1.6784666776657104,-0.1220703050494194,0.3662109076976776,100.0,104846.0,1.0
15:34:19.601231,197820.8125,178008.046875,232040.890625,206875.15625,198968.796875,172406.875,686499.0,200550.046875,0.08447265625,0.979736328125,-0.240478515625,-1.6174315214157104,-0.0915527269244194,0.4882812201976776,100.0,104847.0,1.0
15:34:19.603693,197821.078125,178008.234375,232036.421875,206868.0,198962.984375,172399.109375,686498.375,200545.5,0.085693359375,0.97705078125,-0.23974609375,-1.6479490995407104,-0.0915527269244194,0.5187987685203552,100.0,104848.0,1.0
15:34:19.606347,197814.734375,177995.796875,232025.78125,206869.34375,198952.34375,172363.78125,686493.75,200553.09375,0.08349609375,0.976318359375,-0.23974609375,-1.5563963651657104,-0.1831054538488388,0.6103515028953552,100.0,104849.0,1.0
15:34:19.608788,197814.203125,177995.0,232025.25,206864.875,198950.5625,172363.078125,686520.5625,200547.8125,0.08349609375,0.976318359375,-0.2412109375,-1.4648436307907104,-0.1831054538488388,0.6408690810203552,100.0,104850.0,1.0
15:34:19.611256,197819.5625,178005.1875,232039.109375,206870.40625,198966.484375,172401.609375,686516.0625,200548.625,0.081787109375,0.977783203125,-0.240966796875,-1.5869139432907104,-0.1831054538488388,0.7019042372703552,100.0,104851.0,1.0
15:34:19.613876,197819.65625,178006.703125,232035.796875,206864.953125,198962.546875,172402.140625,686499.0625,200541.015625,0.082275390625,0.976806640625,-0.23974609375,-1.5563963651657104,-0.2441406100988388,0.7324218153953552,100.0,104852.0,1.0
15:34:19.616229,197812.59375,177994.453125,232022.65625,206867.90625,198950.921875,172367.0,686486.3125,200546.484375,0.08203125,0.977294921875,-0.240966796875,-1.5563963651657104,-0.2136230319738388,0.5798339247703552,100.0,104853.0,1.0
15:34:19.618834,197809.28125,177990.890625,232017.640625,206865.5,198946.0,172357.890625,686497.375,200542.90625,0.083740234375,0.9765625,-0.2421875,-1.5869139432907104,-0.3662109076976776,0.6408690810203552,100.0,104854.0,1.0
15:34:19.621377,197809.28125,177996.34375,232026.671875,206865.5,198956.828125,172390.15625,686501.4375,200539.5,0.081298828125,0.978759765625,-0.2412109375,-1.4343260526657104,-0.3662109076976776,0.6408690810203552,100.0,104855.0,1.0
15:34:19.623867,197810.171875,178000.359375,232027.921875,206857.265625,198956.640625,172400.359375,686486.6875,200533.328125,0.082763671875,0.978515625,-0.241455078125,-1.4648436307907104,-0.4272460639476776,0.5798339247703552,100.0,104856.0,1.0
15:34:19.626447,197805.34375,177990.25,232016.296875,206855.21875,198945.203125,172367.625,686488.25,200539.953125,0.087158203125,0.978271484375,-0.24267578125,-1.5258787870407104,-0.4272460639476776,0.5798339247703552,100.0,104857.0,1.0
15:34:19.653978,197804.09375,177986.140625,232011.65625,206853.875,198938.046875,172350.203125,686489.4375,200538.34375,0.08642578125,0.97705078125,-0.242431640625,-1.4343260526657104,-0.4272460639476776,0.6103515028953552,100.0,104858.0,1.0
15:34:19.656418,197808.390625,177993.921875,232024.0,206857.265625,198950.296875,172381.484375,686516.9375,200538.15625,0.0869140625,0.977783203125,-0.238525390625,-1.4038084745407104,-0.4577636420726776,0.7019042372703552,100.0,104859.0,1.0
15:34:19.658942,197810.265625,177999.375,232030.15625,206852.4375,198954.046875,172399.109375,686491.0625,200532.625,0.08984375,0.978759765625,-0.239990234375,-1.3427733182907104,-0.3967284858226776,0.6103515028953552,100.0,104860.0,1.0
15:34:19.665209,197808.5625,177994.015625,232021.3125,206851.640625,198947.875,172374.34375,686489.9375,200538.34375,0.0888671875,0.9765625,-0.24267578125,-1.3427733182907104,-0.3967284858226776,0.6408690810203552,100.0,104861.0,1.0
15:34:19.665270,197807.578125,177989.71875,232017.28125,206854.859375,198944.125,172354.578125,686483.625,200543.34375,0.09228515625,0.978515625,-0.24169921875,-1.2512205839157104,-0.2746581733226776,0.6408690810203552,100.0,104862.0,1.0
15:34:19.665281,197812.046875,177997.5,232027.125,206856.546875,198954.234375,172380.5,686517.4375,200542.90625,0.089599609375,0.978271484375,-0.2431640625,-1.2512205839157104,-0.1525878757238388,0.6408690810203552,100.0,104863.0,1.0
15:34:19.667608,197816.875,178006.078125,232035.96875,206857.8125,198964.15625,172407.421875,686495.25,200540.578125,0.090087890625,0.9755859375,-0.244140625,-1.1596678495407104,0.0,0.5798339247703552,100.0,104864.0,1.0
15:34:19.670678,197816.796875,178003.765625,232030.609375,206856.828125,198959.5,172390.15625,686494.1875,200543.265625,0.09130859375,0.97900390625,-0.241455078125,-1.0681151151657104,-0.03051757626235485,0.5798339247703552,100.0,104865.0,1.0
15:34:19.670713,197815.453125,177997.765625,232025.328125,206861.734375,198955.921875,172364.0625,686469.6875,200552.28125,0.08935546875,0.97802734375,-0.245361328125,-1.1291502714157104,0.0,0.7019042372703552,100.0,104866.0,1.0
15:34:19.672533,197819.921875,178004.296875,232031.6875,206860.3125,198963.078125,172383.453125,686516.0625,200550.859375,0.090087890625,0.978759765625,-0.24462890625,-1.0375975370407104,0.0915527269244194,0.7019042372703552,100.0,104867.0,1.0
15:34:19.675006,197822.25,178011.171875,232041.15625,206863.078125,198973.8125,172414.484375,686499.25,200549.78125,0.090576171875,0.978271484375,-0.24462890625,-0.9460448622703552,0.1220703050494194,0.6103515028953552,100.0,104868.0,1.0
15:34:19.677554,197816.703125,178002.953125,232028.46875,206851.015625,198962.1875,172395.796875,686496.6875,200541.921875,0.08935546875,0.978759765625,-0.244140625,-1.0375975370407104,0.1831054538488388,0.6103515028953552,100.0,104869.0,1.0
15:34:19.679981,197811.875,177990.609375,232018.359375,206853.953125,198953.421875,172362.71875,686466.75,200549.25,0.08740234375,0.978515625,-0.24609375,-0.9155272841453552,0.3356933295726776,0.6408690810203552,100.0,104870.0,1.0
15:34:19.682489,197817.6875,177997.671875,232024.53125,206857.171875,198959.859375,172376.21875,686515.875,200548.625,0.088623046875,0.9794921875,-0.244140625,-0.8239745497703552,0.2441406100988388,0.7324218153953552,100.0,104871.0,1.0
15:34:19.685004,197821.359375,178006.890625,232037.140625,206861.828125,198973.546875,172410.546875,686495.3125,200548.53125,0.089111328125,0.978271484375,-0.245361328125,-0.8850097060203552,0.2746581733226776,0.6713866591453552,100.0,104872.0,1.0
15:34:19.687551,197813.03125,177999.28125,232025.609375,206849.21875,198958.609375,172396.6875,686487.75,200535.5625,0.0869140625,0.978759765625,-0.245849609375,-0.8850097060203552,0.3662109076976776,0.6713866591453552,100.0,104873.0,1.0
15:34:19.693079,197805.171875,177986.859375,232011.65625,206848.953125,198945.375,172360.921875,686478.25,200541.734375,0.0859375,0.980224609375,-0.24560546875,-0.8239745497703552,0.4577636420726776,0.6103515028953552,100.0,104874.0,1.0
15:34:19.693093,197804.28125,177986.953125,232006.5625,206845.375,198941.890625,172359.578125,686500.25,200536.640625,0.0869140625,0.978759765625,-0.2451171875,-0.8544921278953552,0.4272460639476776,0.5493163466453552,100.0,104875.0,1.0
15:34:19.695010,197805.609375,177993.296875,232017.46875,206847.796875,198952.703125,172393.203125,686500.0625,200533.515625,0.08447265625,0.97998046875,-0.244140625,-0.8239745497703552,0.3967284858226776,0.5798339247703552,100.0,104876.0,1.0
15:34:19.697474,197805.609375,177993.75,232016.84375,206839.75,198946.984375,172393.5625,686489.5,200524.390625,0.085205078125,0.981689453125,-0.24462890625,-0.7934569716453552,0.4272460639476776,0.6103515028953552,100.0,104877.0,1.0
15:34:19.700544,197804.71875,177987.21875,232011.65625,206845.640625,198941.078125,172362.890625,686483.875,200535.921875,0.08447265625,0.98388671875,-0.243896484375,-0.9155272841453552,0.3662109076976776,0.4882812201976776,100.0,104878.0,1.0
15:34:19.700555,197804.90625,177986.40625,232009.78125,206846.890625,198938.21875,172354.046875,686493.1875,200536.375,0.084228515625,0.982177734375,-0.2412109375,-0.9765624403953552,0.3967284858226776,0.4272460639476776,100.0,104879.0,1.0
15:34:19.702478,197806.421875,177991.6875,232018.8125,206848.6875,198950.03125,172386.578125,686498.875,200535.03125,0.0859375,0.977294921875,-0.245361328125,-0.8850097060203552,0.3967284858226776,0.5493163466453552,100.0,104880.0,1.0
15:34:19.705655,197809.546875,177996.609375,232019.796875,206841.53125,198951.28125,172397.5,686483.1875,200526.71875,0.084716796875,0.976318359375,-0.24560546875,-0.9765624403953552,0.3356933295726776,0.3662109076976776,100.0,104881.0,1.0
15:34:19.705686,197808.75,177990.078125,232012.640625,206843.59375,198944.03125,172368.96875,686473.8125,200532.171875,0.085205078125,0.975830078125,-0.24462890625,-0.9155272841453552,0.2441406100988388,0.4882812201976776,100.0,104882.0,1.0
15:34:19.707474,197807.5,177986.328125,232008.53125,206845.640625,198938.9375,172352.703125,686469.6875,200534.671875,0.086669921875,0.97705078125,-0.247802734375,-0.8544921278953552,0.2746581733226776,0.3967284858226776,100.0,104883.0,1.0
15:34:19.710088,197810.171875,177991.953125,232018.1875,206846.890625,198950.65625,172379.875,686508.625,200534.859375,0.08642578125,0.97705078125,-0.24853515625,-0.9155272841453552,0.2136230319738388,0.4577636420726776,100.0,104884.0,1.0
15:34:19.713087,197814.109375,177997.328125,232026.671875,206843.765625,198955.484375,172397.3125,686482.625,200530.390625,0.08837890625,0.978271484375,-0.246826171875,-0.8850097060203552,0.1831054538488388,0.6713866591453552,100.0,104885.0,1.0
15:34:19.713101,197809.734375,177991.15625,232019.515625,206840.734375,198946.53125,172373.625,686484.5,200533.953125,0.0888671875,0.97900390625,-0.245849609375,-0.7629393935203552,0.1831054538488388,0.6408690810203552,100.0,104886.0,1.0
15:34:19.716242,197806.328125,177985.25,232012.8125,206844.9375,198942.421875,172351.8125,686478.8125,200539.140625,0.08642578125,0.979248046875,-0.247802734375,-0.7324218153953552,0.2136230319738388,0.6408690810203552,100.0,104887.0,1.0
15:34:19.731852,197816.4375,177997.59375,232027.296875,206853.421875,198958.15625,172380.953125,686518.5,200542.359375,0.085693359375,0.978271484375,-0.247314453125,-0.7934569716453552,0.1525878757238388,0.6408690810203552,100.0,104888.0,1.0
15:34:19.731869,197825.109375,178006.625,232041.34375,206856.015625,198969.703125,172406.609375,686484.75,200542.546875,0.0849609375,0.97705078125,-0.24853515625,-0.7934569716453552,0.1525878757238388,0.5798339247703552,100.0,104889.0,1.0
15:34:19.734332,197824.484375,178002.5,232034.625,206851.8125,198961.5625,172385.6875,686490.0625,200542.90625,0.082763671875,0.975830078125,-0.248291015625,-0.7934569716453552,0.1220703050494194,0.5187987685203552,100.0,104890.0,1.0
15:34:19.734343,197820.8125,177996.15625,232028.90625,206855.390625,198954.671875,172359.5,686478.3125,200549.34375,0.080810546875,0.97900390625,-0.24755859375,-0.8850097060203552,0.0915527269244194,0.4272460639476776,100.0,104891.0,1.0
15:34:19.736234,197820.453125,178000.359375,232030.96875,206851.90625,198957.796875,172374.78125,686519.375,200543.4375,0.079345703125,0.978271484375,-0.248291015625,-0.9155272841453552,0.03051757626235485,0.3356933295726776,100.0,104892.0,1.0
15:34:19.739952,197825.90625,178010.109375,232043.125,206854.140625,198973.359375,172408.9375,686490.5625,200543.796875,0.077392578125,0.978759765625,-0.24853515625,-0.9460448622703552,-0.0610351525247097,0.3051757514476776,100.0,104893.0,1.0
15:34:19.750639,197820.375,178001.609375,232034.0,206847.875,198962.8125,172392.578125,686485.9375,200538.609375,0.077880859375,0.97998046875,-0.246826171875,-0.9460448622703552,-0.2441406100988388,0.2441406100988388,100.0,104894.0,1.0
15:34:19.750714,197814.203125,177990.078125,232025.78125,206859.0625,198954.5,172361.015625,686467.625,200550.40625,0.076904296875,0.98193359375,-0.245361328125,-0.9460448622703552,-0.3051757514476776,0.2441406100988388,100.0,104895.0,1.0
15:34:19.753856,197818.9375,177996.25,232029.796875,206861.5625,198958.609375,172371.65625,686512.75,200548.71875,0.078857421875,0.982421875,-0.247314453125,-0.9460448622703552,-0.4577636420726776,0.1525878757238388,100.0,104896.0,1.0
15:34:19.753944,197823.140625,178005.375,232043.390625,206863.703125,198974.171875,172406.703125,686490.5,200549.25,0.081787109375,0.98193359375,-0.250244140625,-1.0375975370407104,-0.6408690810203552,0.2441406100988388,100.0,104897.0,1.0
15:34:19.762751,197823.59375,178007.609375,232040.09375,206856.734375,198970.140625,172402.953125,686481.625,200544.15625,0.08251953125,0.980712890625,-0.248046875,-1.0070799589157104,-0.6408690810203552,0.3662109076976776,100.0,104898.0,1.0
15:34:19.768101,197815.453125,177994.90625,232027.484375,206858.15625,198959.0625,172368.25,686474.75,200550.671875,0.083251953125,0.98046875,-0.24853515625,-1.1291502714157104,-0.7629393935203552,0.3051757514476776,100.0,104899.0,1.0
15:34:19.768108,197812.5,177993.75,232024.0,206854.046875,198955.65625,172365.484375,686503.3125,200546.203125,0.08544921875,0.982421875,-0.25,-1.1901854276657104,-0.7629393935203552,0.2441406100988388,100.0,104900.0,1.0
15:34:19.769958,197813.21875,178000.359375,232033.015625,206856.109375,198967.546875,172400.0,686492.125,200543.96875,0.083740234375,0.98291015625,-0.25146484375,-1.1901854276657104,-0.7629393935203552,0.4272460639476776,100.0,104901.0,1.0
15:34:19.780150,197810.265625,177998.84375,232028.46875,206844.65625,198962.90625,172401.96875,686483.0,200534.578125,0.085693359375,0.980712890625,-0.248046875,-1.1596678495407104,-0.7019042372703552,0.4577636420726776,100.0,104902.0,1.0
15:34:19.784429,197809.28125,177990.96875,232022.203125,206850.109375,198957.0,172371.65625,686476.125,200546.296875,0.08740234375,0.978515625,-0.248046875,-1.2512205839157104,-0.6713866591453552,0.5187987685203552,100.0,104903.0,1.0
15:34:19.784444,197809.46875,177989.28125,232021.578125,206852.078125,198955.21875,172361.734375,686484.125,200548.0,0.08837890625,0.978759765625,-0.246826171875,-1.3732908964157104,-0.7324218153953552,0.5187987685203552,100.0,104904.0,1.0
15:34:19.793838,197811.421875,177997.046875,232033.296875,206856.375,198969.0625,172394.359375,686495.0625,200548.53125,0.088134765625,0.97900390625,-0.244384765625,-1.2817381620407104,-0.6713866591453552,0.3967284858226776,100.0,104905.0,1.0
15:34:19.798248,197814.375,178004.296875,232037.3125,206855.296875,198972.015625,172410.015625,686479.875,200543.890625,0.087646484375,0.978759765625,-0.245361328125,-1.3427733182907104,-0.6408690810203552,0.4882812201976776,100.0,104906.0,1.0
15:34:19.798326,197816.609375,178002.953125,232032.671875,206862.09375,198967.453125,172386.046875,686471.125,200553.1875,0.09033203125,0.979736328125,-0.244140625,-1.3427733182907104,-0.6103515028953552,0.7019042372703552,100.0,104907.0,1.0
15:34:19.800146,197812.046875,177994.8125,232022.734375,206861.109375,198958.15625,172363.609375,686473.875,200552.46875,0.08984375,0.97998046875,-0.2451171875,-1.3732908964157104,-0.6103515028953552,0.7629393935203552,100.0,104908.0,1.0
15:34:19.813180,197814.5625,178001.34375,232031.328125,206863.53125,198969.515625,172392.390625,686502.5,200552.203125,0.08935546875,0.9794921875,-0.24755859375,-1.4648436307907104,-0.6408690810203552,0.8239745497703552,100.0,104909.0,1.0
15:34:19.813208,197816.34375,178008.5,232037.84375,206859.5,198975.328125,172413.140625,686473.625,200546.390625,0.089599609375,0.980224609375,-0.246826171875,-1.6174315214157104,-0.5493163466453552,0.8850097060203552,100.0,104910.0,1.0
15:34:19.815548,197808.921875,177999.375,232024.796875,206852.703125,198961.109375,172385.515625,686470.5625,200542.625,0.09033203125,0.980224609375,-0.246826171875,-1.6479490995407104,-0.3662109076976776,0.8850097060203552,100.0,104911.0,1.0
15:34:19.815557,197805.96875,177991.15625,232017.375,206856.015625,198952.96875,172359.140625,686461.0,200546.03125,0.088134765625,0.98095703125,-0.24365234375,-1.5869139432907104,-0.3051757514476776,0.8850097060203552,100.0,104912.0,1.0
15:34:19.825028,197811.34375,177996.96875,232026.9375,206856.28125,198961.5625,172381.484375,686505.3125,200544.953125,0.088623046875,0.980224609375,-0.242919921875,-1.6174315214157104,-0.3662109076976776,0.8239745497703552,100.0,104913.0,1.0
15:34:19.829335,197817.5,178006.265625,232038.03125,206856.109375,198972.46875,172410.71875,686485.75,200542.453125,0.088134765625,0.977783203125,-0.245361328125,-1.6784666776657104,-0.2746581733226776,0.7934569716453552,100.0,104914.0,1.0
15:34:19.829358,197814.375,178002.328125,232026.671875,206847.078125,198960.390625,172389.984375,686491.3125,200537.71875,0.088623046875,0.97802734375,-0.249267578125,-1.7700194120407104,-0.3051757514476776,0.8239745497703552,100.0,104915.0,1.0
15:34:19.837576,197804.453125,177989.0,232012.8125,206846.453125,198946.984375,172355.734375,686468.625,200539.5,0.086669921875,0.978271484375,-0.24658203125,-1.8005369901657104,-0.3051757514476776,0.7934569716453552,100.0,104916.0,1.0
15:34:19.841956,197803.828125,177990.796875,232014.25,206847.171875,198950.109375,172368.4375,686515.375,200535.75,0.087646484375,0.97998046875,-0.243896484375,-1.8310545682907104,-0.3051757514476776,0.7629393935203552,100.0,104917.0,1.0
15:34:19.841979,197801.859375,177992.9375,232019.34375,206847.4375,198958.875,172395.609375,686481.1875,200531.90625,0.08740234375,0.980712890625,-0.2470703125,-1.8005369901657104,-0.2746581733226776,0.7629393935203552,100.0,104918.0,1.0
15:34:19.847508,197800.609375,177990.796875,232011.203125,206841.4375,198950.5625,172383.640625,686474.3125,200526.8125,0.085693359375,0.9794921875,-0.2470703125,-1.8615721464157104,-0.2746581733226776,0.7324218153953552,100.0,104919.0,1.0
15:34:19.854436,197798.28125,177982.390625,232002.53125,206846.453125,198942.875,172353.0625,686451.0,200535.5625,0.0869140625,0.98046875,-0.24609375,-1.8310545682907104,-0.2136230319738388,0.4577636420726776,100.0,104920.0,1.0
15:34:19.854511,197797.390625,177983.109375,232001.8125,206842.421875,198941.71875,172357.078125,686494.5,200530.5625,0.087890625,0.97900390625,-0.242919921875,-1.8005369901657104,-0.2441406100988388,0.4272460639476776,100.0,104921.0,1.0
15:34:19.861927,197800.25,177991.0625,232013.265625,206844.03125,198955.03125,172390.96875,686491.125,200529.046875,0.08740234375,0.9794921875,-0.243896484375,-1.8615721464157104,-0.1831054538488388,0.3356933295726776,100.0,104922.0,1.0
15:34:19.861934,197800.515625,177993.03125,232010.671875,206836.4375,198951.546875,172390.15625,686480.75,200522.78125,0.089599609375,0.978759765625,-0.245849609375,-1.8920897245407104,-0.1220703050494194,0.3662109076976776,100.0,104923.0,1.0
15:34:19.867554,197798.375,177984.984375,232003.421875,206843.328125,198944.65625,172358.515625,686473.25,200533.609375,0.08740234375,0.978759765625,-0.24853515625,-1.7700194120407104,-0.0610351525247097,0.2746581733226776,100.0,104924.0,1.0
15:34:19.874414,197804.640625,177989.71875,232006.296875,206846.8125,198948.59375,172358.875,686498.125,200536.1875,0.087890625,0.97802734375,-0.24951171875,-1.8310545682907104,-0.1220703050494194,0.3051757514476776,100.0,104925.0,1.0
15:34:19.874424,197808.03125,177997.5,232017.640625,206849.578125,198962.984375,172392.578125,686503.375,200536.828125,0.088134765625,0.979248046875,-0.24462890625,-1.7395018339157104,0.0,0.3662109076976776,100.0,104926.0,1.0
15:34:19.876268,197809.109375,177998.9375,232017.203125,206842.96875,198959.5,172396.875,686487.1875,200528.953125,0.088623046875,0.978515625,-0.245361328125,-1.7700194120407104,0.03051757626235485,0.4272460639476776,100.0,104927.0,1.0
15:34:19.882925,197807.765625,177990.34375,232009.234375,206847.4375,198950.921875,172366.296875,686474.0625,200538.875,0.088134765625,0.977783203125,-0.244140625,-1.7700194120407104,0.1525878757238388,0.2136230319738388,100.0,104928.0,1.0
15:34:19.893980,197807.40625,177986.59375,232006.734375,206848.234375,198947.25,172354.40625,686479.4375,200540.671875,0.0859375,0.97705078125,-0.244140625,-1.6784666776657104,0.0610351525247097,0.2441406100988388,100.0,104929.0,1.0
15:34:19.894055,197808.125,177994.015625,232017.90625,206849.3125,198957.796875,172386.046875,686511.625,200539.140625,0.084716796875,0.9775390625,-0.242431640625,-1.6784666776657104,0.03051757626235485,0.2746581733226776,100.0,104930.0,1.0
15:34:19.901015,197803.375,177993.921875,232012.734375,206836.53125,198952.890625,172393.734375,686480.125,200526.0,0.085205078125,0.977783203125,-0.24560546875,-1.6479490995407104,0.0,0.0915527269244194,100.0,104931.0,1.0
15:34:19.901098,197799.0,177985.515625,232001.1875,206834.203125,198942.875,172363.703125,686478.9375,200529.9375,0.08349609375,0.9775390625,-0.244873046875,-1.6479490995407104,0.0610351525247097,0.03051757626235485,100.0,104932.0,1.0
15:34:19.903724,197797.75,177980.609375,231996.28125,206836.96875,198936.796875,172343.40625,686477.0,200531.546875,0.083984375,0.978271484375,-0.244384765625,-1.5563963651657104,0.03051757626235485,0.0915527269244194,100.0,104933.0,1.0
15:34:19.903810,197803.828125,177990.890625,232007.8125,206840.28125,198949.578125,172375.234375,686493.4375,200531.90625,0.083251953125,0.978515625,-0.245361328125,-1.4953612089157104,0.0,0.0610351525247097,100.0,104934.0,1.0
15:34:19.927730,197809.28125,177999.28125,232018.1875,206840.734375,198958.15625,172399.1875,686473.8125,200529.671875,0.0830078125,0.978515625,-0.246826171875,-1.5869139432907104,-0.1220703050494194,0.1525878757238388,100.0,104935.0,1.0
15:34:19.955582,197809.375,177995.796875,232013.4375,206843.40625,198952.34375,172378.8125,686484.0,200534.140625,0.08056640625,0.979248046875,-0.24560546875,-1.6174315214157104,-0.03051757626235485,0.1831054538488388,100.0,104936.0,1.0
15:34:19.955595,197807.859375,177990.078125,232008.890625,206850.390625,198946.984375,172355.03125,686466.75,200540.484375,0.080322265625,0.97900390625,-0.24462890625,-1.6174315214157104,-0.1831054538488388,0.2136230319738388,100.0,104937.0,1.0
15:34:19.955596,197809.640625,177994.640625,232015.40625,206848.234375,198952.625,172374.34375,686513.0625,200536.90625,0.080810546875,0.97998046875,-0.243896484375,-1.6174315214157104,-0.0915527269244194,0.2441406100988388,100.0,104938.0,1.0
15:34:19.955598,197815.1875,178005.28125,232028.828125,206849.125,198965.40625,172406.25,686488.625,200536.546875,0.08203125,0.98046875,-0.241943359375,-1.5258787870407104,-0.1525878757238388,0.3051757514476776,100.0,104939.0,1.0
15:34:19.977583,197810.09375,177996.609375,232015.5,206842.875,198954.40625,172385.6875,686491.0625,200531.71875,0.082763671875,0.981201171875,-0.242431640625,-1.6174315214157104,-0.1831054538488388,0.3356933295726776,100.0,104940.0,1.0
15:34:19.977662,197804.90625,177987.578125,232004.765625,206848.953125,198946.53125,172356.28125,686481.0,200539.234375,0.0810546875,0.98291015625,-0.242919921875,-1.6174315214157104,-0.1831054538488388,0.3051757514476776,100.0,104941.0,1.0
15:34:19.977691,197807.9375,177994.8125,232010.140625,206849.671875,198952.703125,172371.75,686523.5625,200538.78125,0.080078125,0.9814453125,-0.242919921875,-1.6174315214157104,-0.2746581733226776,0.3051757514476776,100.0,104942.0,1.0
15:34:19.980662,197808.484375,178000.984375,232020.59375,206848.859375,198963.609375,172404.015625,686500.875,200537.265625,0.078857421875,0.98095703125,-0.2412109375,-1.6479490995407104,-0.4882812201976776,0.4272460639476776,100.0,104943.0,1.0
15:34:19.980702,197809.734375,178001.515625,232015.234375,206843.765625,198957.359375,172396.953125,686495.875,200534.3125,0.079345703125,0.98095703125,-0.24072265625,-1.6479490995407104,-0.4577636420726776,0.4272460639476776,100.0,104944.0,1.0
15:34:19.982678,197803.921875,177989.453125,232004.234375,206848.5,198948.0625,172363.703125,686469.25,200542.09375,0.07958984375,0.98095703125,-0.244140625,-1.5869139432907104,-0.4577636420726776,0.5187987685203552,100.0,104945.0,1.0
15:34:19.985349,197803.203125,177990.890625,232000.84375,206845.828125,198946.625,172365.84375,686501.0625,200536.734375,0.08056640625,0.981201171875,-0.24267578125,-1.6174315214157104,-0.5798339247703552,0.5187987685203552,100.0,104946.0,1.0
15:34:19.987587,197804.8125,178003.125,232010.5,206845.28125,198958.4375,172398.828125,686481.1875,200533.78125,0.079833984375,0.98095703125,-0.2421875,-1.6174315214157104,-0.6103515028953552,0.5798339247703552,100.0,104947.0,1.0
15:34:19.990189,197805.609375,178005.546875,232008.703125,206836.703125,198952.625,172396.78125,686473.625,200524.9375,0.0830078125,0.98095703125,-0.24267578125,-1.6479490995407104,-0.5798339247703552,0.6713866591453552,100.0,104948.0,1.0
15:34:19.992518,197800.96875,177994.453125,231999.5,206838.21875,198941.890625,172363.34375,686463.125,200531.90625,0.08349609375,0.9794921875,-0.240478515625,-1.7089842557907104,-0.7019042372703552,0.7019042372703552,100.0,104949.0,1.0
15:34:19.995015,197802.578125,177994.375,231996.453125,206840.546875,198938.5,172356.90625,686486.9375,200530.46875,0.083984375,0.97802734375,-0.23974609375,-1.7089842557907104,-0.7019042372703552,0.6713866591453552,100.0,104950.0,1.0
15:34:20.000615,197809.28125,178006.0,232010.765625,206847.4375,198955.5625,172394.28125,686495.9375,200533.6875,0.082275390625,0.97802734375,-0.23974609375,-1.6479490995407104,-0.7324218153953552,0.6713866591453552,100.0,104951.0,1.0
15:34:20.000679,197812.140625,178010.203125,232011.921875,206842.25,198954.671875,172402.671875,686484.4375,200527.875,0.081787109375,0.97900390625,-0.244140625,-1.7089842557907104,-0.7019042372703552,0.7934569716453552,100.0,104952.0,1.0
15:34:20.002524,197812.765625,178003.9375,232006.734375,206850.921875,198948.59375,172374.25,686477.625,200539.328125,0.084228515625,0.976806640625,-0.2412109375,-1.6784666776657104,-0.7629393935203552,0.7934569716453552,100.0,104953.0,1.0
15:34:20.005122,197814.109375,178002.234375,232003.703125,206853.15625,198945.46875,172362.171875,686478.9375,200540.671875,0.084228515625,0.978515625,-0.243408203125,-1.6784666776657104,-0.8544921278953552,0.8544921278953552,100.0,104954.0,1.0
15:34:20.007584,197816.875,178008.5,232012.734375,206854.765625,198958.96875,172394.1875,686490.9375,200539.6875,0.085205078125,0.976806640625,-0.24609375,-1.5869139432907104,-0.8544921278953552,0.7019042372703552,100.0,104955.0,1.0
15:34:20.010781,197816.875,178009.65625,232014.0625,206849.40625,198959.5,172407.15625,686475.3125,200531.90625,0.08544921875,0.9765625,-0.24462890625,-1.6174315214157104,-0.8850097060203552,0.7324218153953552,100.0,104956.0,1.0
15:34:20.010819,197814.015625,178004.203125,232005.125,206850.921875,198950.03125,172381.046875,686480.5,200537.984375,0.086181640625,0.97705078125,-0.244873046875,-1.6479490995407104,-0.8544921278953552,0.8544921278953552,100.0,104957.0,1.0
15:34:20.012555,197810.625,177998.390625,231997.625,206852.265625,198942.515625,172359.765625,686473.8125,200538.875,0.088623046875,0.979248046875,-0.24169921875,-1.4953612089157104,-0.7934569716453552,0.8239745497703552,100.0,104958.0,1.0
15:34:20.015011,197811.703125,178002.421875,232003.25,206850.03125,198950.46875,172384.625,686509.625,200534.140625,0.087158203125,0.979248046875,-0.242919921875,-1.5563963651657104,-0.7019042372703552,0.8850097060203552,100.0,104959.0,1.0
15:34:20.018158,197813.65625,178007.609375,232011.5625,206847.34375,198957.359375,172406.96875,686477.4375,200530.296875,0.087890625,0.977783203125,-0.243408203125,-1.6479490995407104,-0.6713866591453552,0.6713866591453552,100.0,104960.0,1.0
15:34:20.018203,197813.21875,178004.921875,232008.171875,206846.09375,198950.734375,172386.3125,686477.1875,200534.578125,0.089111328125,0.976318359375,-0.243896484375,-1.6174315214157104,-0.5798339247703552,0.6408690810203552,100.0,104961.0,1.0
15:34:20.020614,197814.109375,178001.796875,232008.25,206855.84375,198949.125,172363.96875,686463.25,200546.203125,0.090087890625,0.97705078125,-0.24462890625,-1.5563963651657104,-0.6103515028953552,0.7629393935203552,100.0,104962.0,1.0
15:34:20.020656,197810.0,177998.03125,232004.328125,206849.484375,198946.625,172374.15625,686501.9375,200536.640625,0.091796875,0.978515625,-0.2431640625,-1.5258787870407104,-0.5493163466453552,0.8239745497703552,100.0,104963.0,1.0
15:34:20.030058,197807.859375,177997.5,232007.09375,206844.9375,198950.03125,172396.15625,686471.0,200529.125,0.091552734375,0.9794921875,-0.244873046875,-1.4953612089157104,-0.4577636420726776,0.7019042372703552,100.0,104964.0,1.0
15:34:20.035015,197805.171875,177993.03125,231999.5,206836.890625,198941.53125,172379.4375,686480.75,200525.109375,0.0908203125,0.97802734375,-0.2431640625,-1.5869139432907104,-0.3662109076976776,0.6713866591453552,100.0,104965.0,1.0
15:34:20.035071,197807.3125,177988.828125,231997.078125,206847.609375,198939.75,172353.5,686471.375,200538.34375,0.091796875,0.98095703125,-0.24609375,-1.5258787870407104,-0.3356933295726776,0.5187987685203552,100.0,104966.0,1.0
15:34:20.035095,197809.1875,177992.40625,231998.6875,206846.890625,198944.03125,172363.78125,686510.0625,200535.296875,0.0927734375,0.97900390625,-0.24609375,-1.5563963651657104,-0.2746581733226776,0.5493163466453552,100.0,104967.0,1.0
15:34:20.038747,197806.59375,177994.90625,232003.515625,206841.625,198950.921875,172390.34375,686486.75,200528.5,0.091552734375,0.97900390625,-0.244140625,-1.5563963651657104,-0.2746581733226776,0.4272460639476776,100.0,104968.0,1.0
15:34:20.045013,197799.171875,177986.765625,231991.359375,206828.921875,198936.796875,172375.953125,686480.75,200516.96875,0.092041015625,0.977783203125,-0.242431640625,-1.6174315214157104,-0.1831054538488388,0.4272460639476776,100.0,104969.0,1.0
15:34:20.048758,197792.734375,177973.453125,231979.203125,206834.203125,198926.0625,172339.296875,686459.8125,200525.90625,0.089599609375,0.976318359375,-0.24609375,-1.5563963651657104,0.03051757626235485,0.4272460639476776,100.0,104970.0,1.0
15:34:20.058092,197796.3125,177977.65625,231981.703125,206835.359375,198929.90625,172343.84375,686493.4375,200526.09375,0.08837890625,0.977294921875,-0.245361328125,-1.5563963651657104,-0.0610351525247097,0.3967284858226776,100.0,104971.0,1.0
15:34:20.058116,197801.328125,177987.9375,231995.109375,206841.09375,198945.90625,172381.40625,686479.5625,200526.890625,0.088134765625,0.979248046875,-0.24755859375,-1.5869139432907104,-0.0610351525247097,0.3356933295726776,100.0,104972.0,1.0
15:34:20.061235,197804.09375,177990.34375,231994.125,206835.90625,198942.78125,172382.734375,686479.875,200521.0,0.088134765625,0.9814453125,-0.24560546875,-1.6174315214157104,0.0,0.3051757514476776,100.0,104973.0,1.0
15:34:20.068099,197803.828125,177981.5,231987.78125,206843.140625,198937.0625,172351.1875,686458.0625,200534.140625,0.087646484375,0.980224609375,-0.245361328125,-1.6784666776657104,0.1525878757238388,0.3662109076976776,100.0,104974.0,1.0
15:34:20.068122,197802.75,177981.5,231987.15625,206842.25,198933.671875,172345.1875,686480.875,200531.015625,0.0888671875,0.97900390625,-0.24658203125,-1.5563963651657104,0.1220703050494194,0.3356933295726776,100.0,104975.0,1.0
15:34:20.073765,197800.96875,177983.28125,231994.40625,206839.5625,198941.984375,172372.109375,686493.0,200524.9375,0.0869140625,0.979248046875,-0.2431640625,-1.5563963651657104,0.0915527269244194,0.3356933295726776,100.0,104976.0,1.0
15:34:20.079359,197801.5,177986.59375,231994.75,206830.0,198939.125,172379.515625,686479.0625,200514.828125,0.08837890625,0.977783203125,-0.242919921875,-1.5869139432907104,0.0915527269244194,0.2746581733226776,100.0,104977.0,1.0
15:34:20.079387,197797.390625,177978.28125,231985.734375,206831.703125,198931.34375,172350.828125,686471.0,200522.0625,0.08935546875,0.97900390625,-0.243408203125,-1.4648436307907104,0.1220703050494194,0.3051757514476776,100.0,104978.0,1.0
15:34:20.088842,197793.453125,177973.0,231979.921875,206830.09375,198925.265625,172334.734375,686472.6875,200521.078125,0.087646484375,0.978759765625,-0.24365234375,-1.4648436307907104,0.2441406100988388,0.2136230319738388,100.0,104979.0,1.0
15:34:20.091876,197797.921875,177981.578125,231990.203125,206832.40625,198937.6875,172366.203125,686508.625,200521.625,0.0869140625,0.9794921875,-0.243896484375,-1.4038084745407104,0.2136230319738388,0.1831054538488388,100.0,104980.0,1.0
15:34:20.091913,197802.578125,177988.5625,231998.515625,206831.34375,198944.296875,172385.25,686475.375,200519.125,0.0869140625,0.979736328125,-0.2451171875,-1.4038084745407104,0.1220703050494194,0.3051757514476776,100.0,104981.0,1.0
15:34:20.097562,197802.390625,177982.921875,231992.703125,206835.1875,198939.390625,172360.390625,686474.9375,200526.09375,0.08837890625,0.978515625,-0.24365234375,-1.4648436307907104,0.2441406100988388,0.3051757514476776,100.0,104982.0,1.0
15:34:20.104398,197805.078125,177980.515625,231991.0,206841.359375,198937.859375,172342.328125,686471.625,200533.953125,0.0859375,0.978515625,-0.24365234375,-1.4648436307907104,0.1525878757238388,0.1831054538488388,100.0,104983.0,1.0
15:34:20.104438,197809.1875,177991.6875,231999.765625,206843.765625,198949.84375,172371.296875,686511.3125,200533.953125,0.084716796875,0.977294921875,-0.24609375,-1.5258787870407104,0.2746581733226776,0.2441406100988388,100.0,104984.0,1.0
15:34:20.113806,197811.515625,178000.984375,232007.0,206842.96875,198958.34375,172398.828125,686478.9375,200530.109375,0.084716796875,0.978515625,-0.247802734375,-1.5258787870407104,0.1831054538488388,0.2441406100988388,100.0,104985.0,1.0
15:34:20.118822,197812.953125,178002.328125,232002.984375,206848.59375,198954.234375,172384.96875,686487.4375,200534.5,0.085205078125,0.978271484375,-0.2470703125,-1.4648436307907104,0.1525878757238388,0.1831054538488388,100.0,104986.0,1.0
15:34:20.118843,197813.484375,177999.28125,232001.640625,206863.96875,198952.796875,172363.609375,686476.4375,200546.484375,0.08642578125,0.978515625,-0.244873046875,-1.4648436307907104,0.2136230319738388,0.2136230319738388,100.0,104987.0,1.0
15:34:20.125583,197821.53125,178011.09375,232013.171875,206869.515625,198965.3125,172389.09375,686526.875,200549.96875,0.085205078125,0.977783203125,-0.2431640625,-1.4038084745407104,0.1220703050494194,0.3356933295726776,100.0,104988.0,1.0
15:34:20.125592,197827.078125,178023.96875,232027.125,206869.703125,198981.140625,172425.484375,686495.625,200551.65625,0.083984375,0.979248046875,-0.2451171875,-1.4953612089157104,0.2136230319738388,0.3051757514476776,100.0,104989.0,1.0
15:34:20.128865,197828.6875,178024.328125,232024.96875,206864.515625,198976.671875,172416.265625,686508.375,200551.125,0.08544921875,0.97900390625,-0.24609375,-1.4953612089157104,0.1220703050494194,0.2746581733226776,100.0,104990.0,1.0
15:34:20.139413,197831.1875,178021.109375,232024.4375,206878.90625,198976.84375,172391.40625,686486.6875,200567.9375,0.085205078125,0.977783203125,-0.244140625,-1.4953612089157104,0.0610351525247097,0.3051757514476776,100.0,104991.0,1.0
15:34:20.139426,197832.96875,178025.75,232026.140625,206878.640625,198980.953125,172399.90625,686526.0,200567.578125,0.083251953125,0.9794921875,-0.242919921875,-1.4648436307907104,0.0,0.3662109076976776,100.0,104992.0,1.0
15:34:20.141933,197826.53125,178023.34375,232028.1875,206870.59375,198985.25,172423.875,686489.0,200559.796875,0.083251953125,0.980224609375,-0.24560546875,-1.4953612089157104,-0.03051757626235485,0.3662109076976776,100.0,104993.0,1.0
15:34:20.141948,197819.109375,178015.203125,232016.296875,206856.546875,198972.015625,172409.46875,686484.0625,200546.390625,0.083984375,0.980224609375,-0.2470703125,-1.5563963651657104,-0.0610351525247097,0.4272460639476776,100.0,104994.0,1.0
15:34:20.148750,197806.328125,177996.875,231998.25,206852.984375,198955.484375,172368.53125,686475.5625,200546.390625,0.08544921875,0.980224609375,-0.24365234375,-1.5258787870407104,-0.0610351525247097,0.3356933295726776,100.0,104995.0,1.0
15:34:20.152588,197802.578125,177994.8125,231992.078125,206848.59375,198949.21875,172365.125,686495.75,200539.0625,0.08447265625,0.98095703125,-0.24462890625,-1.4953612089157104,-0.1525878757238388,0.4272460639476776,100.0,104996.0,1.0
15:34:20.168291,197805.171875,178000.984375,232002.890625,206849.765625,198961.46875,172397.9375,686496.375,200539.0625,0.086181640625,0.98095703125,-0.243896484375,-1.5563963651657104,-0.1525878757238388,0.6103515028953552,100.0,104997.0,1.0
15:34:20.168312,197804.640625,178000.890625,232000.5625,206840.640625,198956.015625,172398.203125,686478.0625,200530.296875,0.0849609375,0.978759765625,-0.243408203125,-1.5258787870407104,-0.0610351525247097,0.6103515028953552,100.0,104998.0,1.0
15:34:20.170593,197799.0,177989.90625,231989.578125,206844.3125,198946.453125,172365.21875,686466.625,200538.15625,0.085693359375,0.97607421875,-0.242431640625,-1.4648436307907104,-0.0915527269244194,0.6713866591453552,100.0,104999.0,1.0
15:34:20.170599,197797.296875,177986.40625,231985.453125,206843.859375,198943.3125,172356.1875,686479.4375,200538.875,0.08544921875,0.97705078125,-0.2431640625,-1.4038084745407104,-0.0915527269244194,0.6408690810203552,100.0,105000.0,1.0
15:34:20.178034,197799.625,177992.40625,231994.671875,206846.265625,198954.5,172387.75,686510.0,200538.34375,0.08544921875,0.97802734375,-0.243896484375,-1.4648436307907104,-0.0915527269244194,0.7019042372703552,100.0,105001.0,1.0
15:34:20.178040,197797.390625,177992.21875,231993.421875,206837.875,198949.9375,172393.015625,686494.375,200526.625,0.086181640625,0.97705078125,-0.24072265625,-1.3427733182907104,-0.1831054538488388,0.7629393935203552,100.0,105002.0,1.0
15:34:20.179992,197792.203125,177982.296875,231983.140625,206838.140625,198937.59375,172361.375,686480.75,200530.5625,0.085205078125,0.9775390625,-0.23974609375,-1.3122557401657104,-0.2136230319738388,0.7324218153953552,100.0,105003.0,1.0
15:34:20.190600,197791.84375,177980.15625,231978.84375,206841.4375,198932.59375,172346.984375,686473.0,200532.796875,0.08349609375,0.97705078125,-0.237548828125,-1.3427733182907104,-0.3051757514476776,0.8850097060203552,100.0,105004.0,1.0
15:34:20.190614,197794.703125,177986.5,231988.234375,206842.15625,198943.3125,172375.59375,686511.875,200531.453125,0.0849609375,0.9775390625,-0.24169921875,-1.4038084745407104,-0.3662109076976776,0.7324218153953552,100.0,105005.0,1.0
15:34:20.198321,197794.4375,177988.828125,231990.90625,206834.46875,198945.5625,172390.78125,686488.1875,200523.328125,0.084716796875,0.97802734375,-0.244384765625,-1.2512205839157104,-0.3967284858226776,0.6103515028953552,100.0,105006.0,1.0
15:34:20.198403,197790.15625,177981.046875,231980.359375,206832.59375,198935.09375,172364.140625,686489.25,200524.9375,0.0859375,0.9814453125,-0.2421875,-1.2207030057907104,-0.3356933295726776,0.6713866591453552,100.0,105007.0,1.0
15:34:20.201987,197786.03125,177973.8125,231973.03125,206834.65625,198926.515625,172339.640625,686479.5,200527.4375,0.084228515625,0.979736328125,-0.24169921875,-1.2817381620407104,-0.3967284858226776,0.7324218153953552,100.0,105008.0,1.0
15:34:20.202055,197789.4375,177981.046875,231980.546875,206833.3125,198936.609375,172364.5,686515.6875,200524.9375,0.08740234375,0.9794921875,-0.24169921875,-1.2207030057907104,-0.4272460639476776,0.7629393935203552,100.0,105009.0,1.0
15:34:20.208776,197794.984375,177990.796875,231991.09375,206833.9375,198947.703125,172393.5625,686488.1875,200523.953125,0.086181640625,0.977783203125,-0.240478515625,-1.3122557401657104,-0.3967284858226776,0.6408690810203552,100.0,105010.0,1.0
15:34:20.219349,197793.1875,177987.9375,231983.21875,206830.171875,198940.453125,172376.578125,686491.9375,200523.046875,0.087158203125,0.978271484375,-0.24072265625,-1.2512205839157104,-0.2136230319738388,0.5798339247703552,100.0,105011.0,1.0
15:34:20.219361,197782.109375,177973.453125,231969.546875,206829.640625,198926.78125,172340.984375,686461.1875,200522.515625,0.087890625,0.975830078125,-0.244384765625,-1.2817381620407104,-0.1831054538488388,0.7019042372703552,100.0,105012.0,1.0
15:34:20.221910,197783.0,177978.1875,231971.328125,206827.671875,198930.359375,172357.078125,686517.0625,200518.5,0.08935546875,0.9765625,-0.24609375,-1.3122557401657104,-0.2136230319738388,0.7934569716453552,100.0,105013.0,1.0
15:34:20.221915,197791.578125,177990.609375,231986.625,206833.578125,198946.53125,172393.203125,686500.625,200522.34375,0.090576171875,0.97412109375,-0.244384765625,-1.2817381620407104,-0.1831054538488388,0.6408690810203552,100.0,105014.0,1.0
15:34:20.228806,197791.484375,177989.71875,231981.34375,206830.625,198941.078125,172379.609375,686495.5,200519.828125,0.089599609375,0.974609375,-0.245361328125,-1.2817381620407104,-0.2441406100988388,0.7019042372703552,100.0,105015.0,1.0
15:34:20.235690,197790.953125,177983.375,231977.6875,206839.296875,198938.140625,172350.640625,686462.6875,200532.53125,0.08984375,0.97607421875,-0.245849609375,-1.2512205839157104,-0.2136230319738388,0.6103515028953552,100.0,105016.0,1.0
15:34:20.235772,197795.875,177989.90625,231983.578125,206840.546875,198942.25,172361.46875,686512.25,200531.8125,0.089111328125,0.975341796875,-0.244140625,-1.3122557401657104,-0.0915527269244194,0.7019042372703552,100.0,105017.0,1.0
15:34:20.249939,197794.53125,177994.453125,231992.25,206838.046875,198951.8125,172392.671875,686488.1875,200528.0625,0.089111328125,0.97607421875,-0.246826171875,-1.1901854276657104,0.0,0.5187987685203552,100.0,105018.0,1.0
15:34:20.250021,197797.296875,177998.03125,231990.46875,206834.828125,198948.328125,172390.875,686480.5625,200525.203125,0.088134765625,0.9765625,-0.244873046875,-1.3122557401657104,0.03051757626235485,0.5187987685203552,100.0,105019.0,1.0
15:34:20.250052,197796.671875,177990.171875,231983.40625,206845.015625,198942.421875,172361.109375,686458.875,200538.515625,0.088134765625,0.976318359375,-0.24755859375,-1.1901854276657104,0.0,0.5798339247703552,100.0,105020.0,1.0
15:34:20.255620,197798.015625,177990.796875,231982.0625,206844.21875,198942.15625,172360.921875,686495.875,200537.453125,0.086669921875,0.9775390625,-0.24951171875,-1.1291502714157104,0.03051757626235485,0.5493163466453552,100.0,105021.0,1.0
15:34:20.255692,197804.71875,178002.421875,231996.453125,206848.6875,198958.34375,172398.390625,686510.0,200539.6875,0.0869140625,0.980224609375,-0.245361328125,-1.1291502714157104,0.03051757626235485,0.5187987685203552,100.0,105022.0,1.0
15:34:20.257513,197807.9375,178007.0625,231998.15625,206841.71875,198956.640625,172404.28125,686497.0,200532.34375,0.0888671875,0.982421875,-0.245361328125,-1.1901854276657104,0.03051757626235485,0.4882812201976776,100.0,105023.0,1.0
15:34:20.295027,197801.59375,177994.8125,231987.34375,206842.875,198945.828125,172369.515625,686484.875,200537.453125,0.089111328125,0.982421875,-0.24560546875,-1.1291502714157104,0.03051757626235485,0.3967284858226776,100.0,105024.0,1.0
15:34:20.315576,197800.515625,177990.703125,231983.046875,206843.765625,198940.1875,172357.96875,686486.6875,200534.765625,0.08837890625,0.981689453125,-0.24462890625,-1.1596678495407104,0.0,0.3662109076976776,100.0,105025.0,1.0
15:34:20.315587,197807.671875,178002.6875,231996.90625,206849.578125,198956.734375,172394.359375,686497.625,200537.890625,0.0849609375,0.98291015625,-0.246826171875,-1.2512205839157104,-0.03051757626235485,0.3051757514476776,100.0,105026.0,1.0
15:34:20.318771,197808.75,178005.640625,231998.15625,206842.875,198956.109375,172405.984375,686483.8125,200529.84375,0.0849609375,0.98193359375,-0.245361328125,-1.1901854276657104,-0.0610351525247097,0.1525878757238388,100.0,105027.0,1.0
15:34:20.318781,197802.125,177995.265625,231985.734375,206839.75,198943.859375,172373.359375,686487.4375,200532.53125,0.08349609375,0.98291015625,-0.2470703125,-1.2512205839157104,0.0,0.0,100.0,105028.0,1.0
15:34:20.318784,197797.21875,177987.03125,231978.125,206840.015625,198934.640625,172351.09375,686483.25,200531.453125,0.08056640625,0.983642578125,-0.24609375,-1.2817381620407104,-0.1831054538488388,-0.1220703050494194,100.0,105029.0,1.0
15:34:20.322401,197800.4375,177993.390625,231993.78125,206842.515625,198946.09375,172380.0625,686517.25,200530.5625,0.08154296875,0.98388671875,-0.24609375,-1.3732908964157104,-0.1525878757238388,-0.2136230319738388,100.0,105030.0,1.0
15:34:20.322407,197806.59375,178002.421875,232012.734375,206842.421875,198955.125,172404.640625,686486.5,200529.046875,0.080078125,0.984619140625,-0.245849609375,-1.4038084745407104,-0.2746581733226776,-0.3662109076976776,100.0,105031.0,1.0
15:34:20.322408,197807.859375,177999.828125,232008.34375,206843.140625,198949.3125,172384.171875,686488.6875,200533.953125,0.079345703125,0.981689453125,-0.24560546875,-1.3427733182907104,-0.3051757514476776,-0.4272460639476776,100.0,105032.0,1.0
15:34:20.325097,197805.96875,177994.015625,232001.8125,206847.4375,198942.875,172359.671875,686470.1875,200539.5,0.078857421875,0.981689453125,-0.246337890625,-1.4343260526657104,-0.3051757514476776,-0.4577636420726776,100.0,105033.0,1.0
