Timestamp,Fz,FC3,FCz,FC4,Cz,C3,C4
15:31:34.306061,196806.3125,174558.90625,233246.1875,204497.8125,197604.09375,168590.984375,686490.4375,199792.953125,0.102783203125,0.978759765625,-0.232421875,-1.9836424589157104,0.2746581733226776,0.6408690810203552,100.0,63498.0,1.0
15:31:34.306063,196807.828125,174566.15625,233256.46875,204492.8125,197614.640625,168622.28125,686457.4375,199790.265625,0.103271484375,0.978759765625,-0.23388671875,-2.014159917831421,0.2746581733226776,0.5493163466453552,100.0,63499.0,1.0
15:31:34.308686,196805.421875,174564.265625,233248.515625,204489.234375,197607.484375,168609.5,686479.5625,199785.09375,0.10400390625,0.977783203125,-0.2314453125,-2.014159917831421,0.2441406100988388,0.6103515028953552,100.0,63500.0,1.0
15:31:34.311302,196800.765625,174555.59375,233238.234375,204494.59375,197598.734375,168578.75,686445.625,199791.34375,0.104736328125,0.978515625,-0.2314453125,-1.9226073026657104,0.2746581733226776,0.6408690810203552,100.0,63501.0,1.0
15:31:34.313596,196802.46875,174558.375,233240.640625,204493.703125,197600.96875,168588.125,686485.25,199788.484375,0.102783203125,0.979248046875,-0.23046875,-1.9226073026657104,0.3662109076976776,0.6408690810203552,100.0,63502.0,1.0
15:31:34.319908,196808.375,174569.1875,233255.75,204497.109375,197617.6875,168625.953125,686470.0,199791.171875,0.10302734375,0.978759765625,-0.23388671875,-1.9531248807907104,0.3051757514476776,0.5493163466453552,100.0,63503.0,1.0
15:31:34.327971,196814.09375,174574.640625,233257.0,204493.53125,197618.046875,168626.03125,686481.125,199790.453125,0.103759765625,0.979248046875,-0.231201171875,-1.8615721464157104,0.2136230319738388,0.6408690810203552,100.0,63504.0,1.0
15:31:34.327987,196811.765625,174564.8125,233248.6875,204499.875,197610.0,168592.421875,686452.6875,199801.453125,0.102783203125,0.978515625,-0.234619140625,-1.8005369901657104,0.2746581733226776,0.6103515028953552,100.0,63505.0,1.0
15:31:34.330517,196814.8125,174566.0625,233248.328125,204498.890625,197609.640625,168590.09375,686481.5,199800.203125,0.100341796875,0.977294921875,-0.2353515625,-1.6479490995407104,0.2441406100988388,0.5493163466453552,100.0,63506.0,1.0
15:31:34.330530,196822.5,174578.84375,233264.0625,204501.03125,197627.96875,168629.703125,686474.4375,199803.59375,0.1005859375,0.97705078125,-0.234130859375,-1.5869139432907104,0.2136230319738388,0.6103515028953552,100.0,63507.0,1.0
15:31:34.341113,196821.515625,174579.65625,233259.953125,204491.5625,197621.796875,168630.78125,686472.375,199792.5,0.100341796875,0.978759765625,-0.233154296875,-1.5869139432907104,0.2136230319738388,0.5798339247703552,100.0,63508.0,1.0
15:31:34.345381,196816.953125,174567.84375,233251.90625,204498.0,197611.0625,168595.375,686464.6875,199801.890625,0.1005859375,0.979248046875,-0.232177734375,-1.5258787870407104,0.1831054538488388,0.6103515028953552,100.0,63509.0,1.0
15:31:34.345394,196815.078125,174565.609375,233260.21875,204496.921875,197607.046875,168586.703125,686472.25,199798.765625,0.10302734375,0.978515625,-0.235107421875,-1.5258787870407104,0.0915527269244194,0.4882812201976776,100.0,63510.0,1.0
15:31:34.352628,196822.5,174581.171875,233284.71875,204495.9375,197626.0,168630.859375,686480.125,199801.890625,0.103515625,0.97998046875,-0.235595703125,-1.5258787870407104,0.0915527269244194,0.6713866591453552,100.0,63511.0,1.0
15:31:34.359424,196823.921875,174586.4375,233288.390625,204490.125,197628.6875,168643.203125,686465.125,199795.640625,0.101806640625,0.978271484375,-0.236572265625,-1.3732908964157104,0.2136230319738388,0.5493163466453552,100.0,63512.0,1.0
15:31:34.359447,196817.484375,174574.640625,233277.390625,204490.125,197617.5,168608.96875,686470.1875,199802.609375,0.10107421875,0.97900390625,-0.23095703125,-1.1901854276657104,0.1525878757238388,0.5187987685203552,100.0,63513.0,1.0
15:31:34.366819,196816.78125,174570.34375,233270.953125,204490.21875,197613.484375,168593.5,686456.0625,199805.828125,0.099853515625,0.97998046875,-0.23388671875,-1.1901854276657104,0.0610351525247097,0.6103515028953552,100.0,63514.0,1.0
15:31:34.366844,196823.125,174579.375,233282.21875,204495.5,197628.140625,168625.6875,686485.9375,199808.59375,0.099609375,0.979248046875,-0.234375,-1.2207030057907104,-0.03051757626235485,0.4882812201976776,100.0,63515.0,1.0
15:31:34.373120,196825.265625,174585.015625,233288.03125,204491.921875,197631.71875,168643.296875,686474.9375,199802.609375,0.101318359375,0.981201171875,-0.2353515625,-1.3122557401657104,0.0,0.5798339247703552,100.0,63516.0,1.0
15:31:34.373204,196819.09375,174574.640625,233274.171875,204487.71875,197618.578125,168613.34375,686478.8125,199803.328125,0.10107421875,0.98193359375,-0.232666015625,-1.2817381620407104,0.03051757626235485,0.6103515028953552,100.0,63517.0,1.0
15:31:34.378683,196818.03125,174567.9375,233268.265625,204494.59375,197612.5,168587.59375,686449.375,199811.90625,0.10302734375,0.98291015625,-0.2314453125,-1.2207030057907104,-0.03051757626235485,0.6408690810203552,100.0,63518.0,1.0
15:31:34.384175,196824.640625,174575.265625,233277.125,204498.171875,197623.578125,168612.09375,686489.4375,199812.796875,0.104248046875,0.9814453125,-0.233642578125,-1.1291502714157104,-0.0915527269244194,0.4882812201976776,100.0,63519.0,1.0
15:31:34.384200,196820.625,174575.8125,233278.375,204489.953125,197624.921875,168632.03125,686458.375,199800.109375,0.102294921875,0.98095703125,-0.2333984375,-1.1291502714157104,-0.0610351525247097,0.4577636420726776,100.0,63520.0,1.0
15:31:34.391308,196816.328125,174571.25,233266.03125,204484.40625,197612.9375,168612.890625,686473.875,199796.796875,0.1044921875,0.980224609375,-0.2333984375,-1.2207030057907104,-0.0610351525247097,0.4577636420726776,100.0,63521.0,1.0
15:31:34.401931,196819.015625,174569.90625,233262.453125,204495.3125,197611.15625,168591.890625,686441.625,199808.0625,0.10400390625,0.9794921875,-0.234130859375,-1.0986326932907104,0.0,0.5493163466453552,100.0,63522.0,1.0
15:31:34.402029,196818.46875,174571.609375,233261.46875,204491.03125,197612.3125,168604.671875,686486.125,199800.640625,0.102783203125,0.978515625,-0.23583984375,-1.0375975370407104,0.03051757626235485,0.5187987685203552,100.0,63523.0,1.0
15:31:34.404332,196818.734375,174575.53125,233268.0,204490.046875,197620.90625,168632.03125,686459.5,199796.625,0.10205078125,0.98095703125,-0.235107421875,-1.0070799589157104,-0.03051757626235485,0.6408690810203552,100.0,63524.0,1.0
15:31:34.404422,196818.828125,174576.875,233261.390625,204484.9375,197614.375,168623.453125,686478.8125,199794.390625,0.103271484375,0.982421875,-0.234619140625,-1.0681151151657104,-0.0915527269244194,0.6713866591453552,100.0,63525.0,1.0
15:31:34.414061,196813.015625,174568.203125,233252.09375,204487.453125,197606.953125,168593.40625,686434.4375,199803.140625,0.102294921875,0.982421875,-0.235595703125,-1.0986326932907104,-0.0610351525247097,0.6713866591453552,100.0,63526.0,1.0
15:31:34.418103,196810.703125,174567.84375,233251.546875,204481.453125,197606.5,168599.03125,686477.0625,199797.15625,0.101806640625,0.98046875,-0.237060546875,-1.0986326932907104,-0.0610351525247097,0.7324218153953552,100.0,63527.0,1.0
15:31:34.418194,196817.9375,174577.765625,233268.71875,204490.390625,197623.9375,168636.234375,686473.125,199801.1875,0.10302734375,0.979248046875,-0.236572265625,-1.0986326932907104,-0.0915527269244194,0.7629393935203552,100.0,63528.0,1.0
15:31:34.419994,196815.34375,174574.203125,233262.546875,204482.34375,197616.15625,168628.1875,686484.9375,199793.578125,0.102783203125,0.981201171875,-0.2314453125,-1.1596678495407104,-0.1831054538488388,0.7629393935203552,100.0,63529.0,1.0
15:31:34.435513,196807.828125,174560.6875,233250.484375,204481.1875,197603.640625,168591.4375,686443.8125,199799.21875,0.102783203125,0.98095703125,-0.233642578125,-1.1291502714157104,-0.0610351525247097,0.8239745497703552,100.0,63530.0,1.0
15:31:34.435592,196810.78125,174561.59375,233249.40625,204480.921875,197603.203125,168589.734375,686468.875,199796.796875,0.103515625,0.980224609375,-0.235595703125,-1.1596678495407104,-0.0915527269244194,0.7324218153953552,100.0,63531.0,1.0
15:31:34.437346,196814.359375,174568.5625,233260.046875,204481.90625,197615.8125,168623.625,686475.6875,199796.53125,0.101318359375,0.978271484375,-0.23681640625,-1.1596678495407104,-0.1525878757238388,0.7019042372703552,100.0,63532.0,1.0
15:31:34.440481,196812.84375,174568.5625,233257.71875,204473.671875,197610.4375,168625.0625,686477.875,199787.40625,0.103515625,0.9794921875,-0.237548828125,-1.0986326932907104,-0.2136230319738388,0.7629393935203552,100.0,63533.0,1.0
15:31:34.440510,196813.5625,174564.265625,233253.703125,204483.0625,197607.40625,168598.234375,686458.6875,199802.078125,0.104736328125,0.977783203125,-0.237548828125,-1.0070799589157104,-0.1525878757238388,0.6713866591453552,100.0,63534.0,1.0
15:31:34.442308,196810.78125,174561.40625,233251.734375,204483.6875,197602.03125,168587.859375,686457.875,199802.515625,0.10400390625,0.980712890625,-0.23779296875,-1.0070799589157104,-0.1220703050494194,0.8544921278953552,100.0,63535.0,1.0
15:31:34.457452,196813.46875,174567.40625,233263.625,204489.0625,197616.15625,168620.40625,686482.1875,199802.609375,0.10302734375,0.97998046875,-0.23779296875,-1.0375975370407104,-0.0610351525247097,0.8239745497703552,100.0,63536.0,1.0
15:31:34.460382,196815.875,174572.140625,233264.96875,204486.546875,197617.859375,168632.46875,686475.375,199795.640625,0.104248046875,0.980712890625,-0.23486328125,-1.0375975370407104,-0.0610351525247097,0.7934569716453552,100.0,63537.0,1.0
15:31:34.460397,196818.390625,174572.40625,233261.125,204497.109375,197614.828125,168609.140625,686467.625,199807.4375,0.1044921875,0.980712890625,-0.23583984375,-1.1291502714157104,-0.03051757626235485,0.8850097060203552,100.0,63538.0,1.0
15:31:34.462399,196819.015625,174570.984375,233256.46875,204498.625,197610.078125,168594.203125,686451.8125,199809.9375,0.10400390625,0.980712890625,-0.23486328125,-1.0681151151657104,-0.0610351525247097,0.8544921278953552,100.0,63539.0,1.0
15:31:34.477323,196821.25,174577.859375,233264.421875,204495.765625,197621.265625,168622.734375,686492.375,199806.984375,0.103759765625,0.979248046875,-0.238037109375,-1.0375975370407104,-0.0610351525247097,0.7934569716453552,100.0,63540.0,1.0
15:31:34.482943,196821.25,174583.21875,233268.09375,204489.234375,197624.484375,168642.75,686468.0,199798.59375,0.103515625,0.977783203125,-0.23681640625,-1.0681151151657104,0.03051757626235485,0.7019042372703552,100.0,63541.0,1.0
15:31:34.482978,196817.9375,174575.0,233257.09375,204484.140625,197612.59375,168615.671875,686476.4375,199800.46875,0.104248046875,0.980224609375,-0.236083984375,-1.0986326932907104,0.0,0.7019042372703552,100.0,63542.0,1.0
15:31:34.482987,196813.5625,174564.546875,233246.546875,204485.125,197602.9375,168586.875,686443.375,199804.046875,0.106201171875,0.979248046875,-0.23876953125,-1.0375975370407104,0.0915527269244194,0.6713866591453552,100.0,63543.0,1.0
15:31:34.482995,196821.515625,174575.890625,233259.78125,204489.5,197616.96875,168614.328125,686485.3125,199807.265625,0.1064453125,0.979736328125,-0.23876953125,-1.0375975370407104,0.1220703050494194,0.6408690810203552,100.0,63544.0,1.0
15:31:34.485397,196826.15625,174584.75,233270.0625,204490.84375,197626.171875,168642.40625,686452.9375,199803.59375,0.10595703125,0.979248046875,-0.239501953125,-1.0986326932907104,0.0610351525247097,0.7019042372703552,100.0,63545.0,1.0
15:31:34.485412,196825.625,174580.546875,233261.75,204488.875,197616.515625,168622.46875,686476.3125,199801.890625,0.105712890625,0.97900390625,-0.238525390625,-1.1291502714157104,0.0915527269244194,0.6103515028953552,100.0,63546.0,1.0
15:31:34.499911,196830.28125,174578.75,233260.671875,204498.359375,197613.65625,168599.03125,686438.8125,199813.703125,0.105712890625,0.979248046875,-0.23486328125,-1.0681151151657104,0.0915527269244194,0.6103515028953552,100.0,63547.0,1.0
15:31:34.502941,196837.34375,174589.84375,233268.890625,204500.234375,197622.59375,168623.265625,686491.75,199813.703125,0.103515625,0.980224609375,-0.2353515625,-1.0681151151657104,0.1220703050494194,0.5493163466453552,100.0,63548.0,1.0
15:31:34.502961,196843.234375,174601.640625,233287.21875,204503.625,197636.28125,168660.90625,686474.3125,199813.515625,0.103271484375,0.98046875,-0.23388671875,-1.1291502714157104,0.1525878757238388,0.6103515028953552,100.0,63549.0,1.0
15:31:34.531798,196839.65625,174592.96875,233284.359375,204493.796875,197623.765625,168639.890625,686487.3125,199805.734375,0.10400390625,0.98046875,-0.23388671875,-1.0986326932907104,0.1831054538488388,0.5187987685203552,100.0,63550.0,1.0
15:31:34.531812,196833.140625,174577.765625,233277.84375,204501.578125,197613.484375,168599.75,686447.25,199816.46875,0.103271484375,0.980224609375,-0.238525390625,-1.1596678495407104,0.2136230319738388,0.5493163466453552,100.0,63551.0,1.0
15:31:34.570340,196833.859375,174579.5625,233280.25,204503.546875,197616.875,168605.5625,686490.0625,199814.234375,0.10302734375,0.98095703125,-0.237548828125,-1.0986326932907104,0.3051757514476776,0.6103515028953552,100.0,63552.0,1.0
15:31:34.570373,196837.78125,174588.40625,233292.765625,204506.484375,197632.25,168639.359375,686482.4375,199812.984375,0.100830078125,0.981689453125,-0.238525390625,-1.1291502714157104,0.2136230319738388,0.6408690810203552,100.0,63553.0,1.0
15:31:34.570457,196836.984375,174588.765625,233287.765625,204497.8125,197624.828125,168634.171875,686480.125,199805.5625,0.101318359375,0.979736328125,-0.23974609375,-1.1291502714157104,0.0915527269244194,0.6408690810203552,100.0,63554.0,1.0
15:31:34.582609,196832.515625,174579.828125,233279.71875,204502.015625,197614.828125,168602.078125,686463.3125,199815.03125,0.101318359375,0.9814453125,-0.23828125,-1.0986326932907104,0.0610351525247097,0.7019042372703552,100.0,63555.0,1.0
15:31:34.582693,196833.40625,174577.6875,233277.03125,204503.546875,197613.03125,168597.078125,686481.125,199813.34375,0.102294921875,0.980712890625,-0.23828125,-1.1901854276657104,0.03051757626235485,0.6713866591453552,100.0,63556.0,1.0
15:31:34.582720,196837.421875,174586.984375,233288.203125,204508.1875,197629.484375,168631.9375,686474.25,199815.3125,0.101318359375,0.982177734375,-0.23583984375,-1.2207030057907104,0.0915527269244194,0.5798339247703552,100.0,63557.0,1.0
15:31:34.582742,196839.578125,174592.609375,233285.796875,204501.125,197626.71875,168639.984375,686480.6875,199807.53125,0.10009765625,0.982177734375,-0.238037109375,-1.2207030057907104,-0.0915527269244194,0.5798339247703552,100.0,63558.0,1.0
15:31:34.582762,196835.8125,174584.03125,233273.90625,204503.8125,197617.140625,168610.484375,686471.625,199816.46875,0.1005859375,0.98193359375,-0.237548828125,-1.1901854276657104,-0.0610351525247097,0.6103515028953552,100.0,63559.0,1.0
15:31:34.585281,196831.171875,174578.390625,233266.84375,204500.234375,197610.359375,168597.78125,686477.375,199812.453125,0.101806640625,0.980712890625,-0.237060546875,-1.2512205839157104,-0.1525878757238388,0.7324218153953552,100.0,63560.0,1.0
15:31:34.587346,196830.0,174584.203125,233276.5,204498.359375,197621.265625,168627.5625,686477.8125,199808.328125,0.1015625,0.9794921875,-0.236083984375,-1.2817381620407104,-0.2136230319738388,0.7019042372703552,100.0,63561.0,1.0
15:31:34.589931,196829.109375,174592.078125,233276.765625,204490.484375,197618.84375,168638.46875,686465.5625,199797.96875,0.101318359375,0.97900390625,-0.237548828125,-1.3427733182907104,-0.2441406100988388,0.7019042372703552,100.0,63562.0,1.0
15:31:34.594854,196827.0625,174591.359375,233272.296875,204492.90625,197611.15625,168614.0625,686458.875,199806.546875,0.101806640625,0.97998046875,-0.238037109375,-1.2207030057907104,-0.3356933295726776,0.6713866591453552,100.0,63563.0,1.0
15:31:34.597431,196820.34375,174584.921875,233264.25,204490.125,197602.75,168593.859375,686433.375,199806.359375,0.10205078125,0.97998046875,-0.237060546875,-1.2207030057907104,-0.2746581733226776,0.6408690810203552,100.0,63564.0,1.0
15:31:34.599951,196820.890625,174590.640625,233269.34375,204488.875,197612.59375,168622.015625,686484.125,199804.125,0.1005859375,0.9775390625,-0.238525390625,-1.2817381620407104,-0.3356933295726776,0.4882812201976776,100.0,63565.0,1.0
15:31:34.602396,196824.015625,174598.875,233276.046875,204485.5625,197622.515625,168645.96875,686477.0,199800.546875,0.099609375,0.975830078125,-0.23681640625,-1.3122557401657104,-0.3051757514476776,0.5798339247703552,100.0,63566.0,1.0
15:31:34.604840,196823.03125,174591.625,233268.71875,204484.3125,197615.0,168621.84375,686491.5625,199802.796875,0.10009765625,0.976318359375,-0.237548828125,-1.1901854276657104,-0.3356933295726776,0.5493163466453552,100.0,63567.0,1.0
15:31:34.607456,196820.34375,174577.953125,233259.6875,204487.265625,197604.265625,168592.0625,686461.6875,199805.375,0.100341796875,0.978271484375,-0.236083984375,-1.1901854276657104,-0.3662109076976776,0.6408690810203552,100.0,63568.0,1.0
15:31:34.609903,196826.15625,174583.40625,233266.484375,204491.921875,197613.84375,168613.875,686497.625,199804.21875,0.100830078125,0.97900390625,-0.236328125,-1.1596678495407104,-0.5187987685203552,0.6713866591453552,100.0,63569.0,1.0
15:31:34.612353,196832.953125,174593.78125,233279.0,204494.234375,197628.765625,168644.90625,686464.5,199804.9375,0.1005859375,0.9794921875,-0.238037109375,-1.1291502714157104,-0.5493163466453552,0.6103515028953552,100.0,63570.0,1.0
15:31:34.614905,196829.109375,174586.265625,233266.921875,204487.171875,197618.578125,168623.453125,686483.8125,199802.703125,0.101318359375,0.978515625,-0.23681640625,-1.0986326932907104,-0.6408690810203552,0.6713866591453552,100.0,63571.0,1.0
15:31:34.617906,196824.46875,174575.09375,233256.375,204491.921875,197610.078125,168592.328125,686445.5,199810.203125,0.10302734375,0.979248046875,-0.2353515625,-1.0681151151657104,-0.6103515028953552,0.6103515028953552,100.0,63572.0,1.0
15:31:34.617921,196827.5,174579.46875,233260.3125,204491.03125,197615.359375,168607.53125,686484.0625,199807.171875,0.102294921875,0.98095703125,-0.234375,-1.0986326932907104,-0.7019042372703552,0.6713866591453552,100.0,63573.0,1.0
15:31:34.619956,196831.34375,174587.15625,233270.234375,204493.265625,197627.96875,168638.90625,686463.125,199805.65625,0.103271484375,0.980712890625,-0.237548828125,-1.0070799589157104,-0.7324218153953552,0.7629393935203552,100.0,63574.0,1.0
15:31:34.623088,196836.359375,174592.875,233268.625,204493.078125,197625.546875,168635.0625,686481.0,199806.546875,0.1044921875,0.978759765625,-0.235107421875,-1.0986326932907104,-0.5493163466453552,0.7019042372703552,100.0,63575.0,1.0
15:31:34.623102,196831.171875,174582.515625,233258.96875,204497.375,197615.09375,168602.171875,686447.5,199814.234375,0.103759765625,0.97998046875,-0.2353515625,-1.0986326932907104,-0.5798339247703552,0.5798339247703552,100.0,63576.0,1.0
15:31:34.624985,196829.921875,174579.46875,233256.375,204493.078125,197611.15625,168601.1875,686479.3125,199807.890625,0.10205078125,0.98193359375,-0.237060546875,-1.0986326932907104,-0.6713866591453552,0.5798339247703552,100.0,63577.0,1.0
15:31:34.627448,196836.890625,174591.359375,233273.359375,204499.34375,197629.578125,168639.890625,686469.5,199812.171875,0.103271484375,0.98095703125,-0.23486328125,-1.0986326932907104,-0.7019042372703552,0.5493163466453552,100.0,63578.0,1.0
15:31:34.630533,196845.921875,174600.921875,233278.109375,204501.3125,197631.984375,168645.96875,686480.375,199813.25,0.102294921875,0.97900390625,-0.23828125,-1.1291502714157104,-0.7629393935203552,0.6103515028953552,100.0,63579.0,1.0
15:31:34.630553,196854.6875,174602.71875,233280.609375,204517.484375,197634.9375,168625.953125,686461.0625,199836.140625,0.102294921875,0.97998046875,-0.23876953125,-1.0986326932907104,-0.7629393935203552,0.6408690810203552,100.0,63580.0,1.0
15:31:34.633001,196857.71875,174606.5625,233281.6875,204517.21875,197636.640625,168628.546875,686487.1875,199836.9375,0.1025390625,0.978759765625,-0.236572265625,-0.9460448622703552,-0.7934569716453552,0.6408690810203552,100.0,63581.0,1.0
15:31:34.633025,196864.609375,174620.234375,233298.484375,204524.375,197656.125,168668.15625,686489.9375,199840.34375,0.101318359375,0.977783203125,-0.239501953125,-0.8850097060203552,-0.8239745497703552,0.7019042372703552,100.0,63582.0,1.0
15:31:34.634872,196868.8125,174628.46875,233302.515625,204524.46875,197657.203125,168678.15625,686489.8125,199835.421875,0.103515625,0.97705078125,-0.237548828125,-0.9765624403953552,-0.8239745497703552,0.5493163466453552,100.0,63583.0,1.0
15:31:34.644983,196865.40625,174619.25,233292.140625,204528.21875,197648.34375,168646.953125,686482.0,199843.015625,0.102783203125,0.979248046875,-0.23974609375,-0.9155272841453552,-0.7629393935203552,0.5798339247703552,100.0,63584.0,1.0
15:31:34.649171,196866.84375,174619.171875,233290.359375,204531.53125,197647.640625,168638.828125,686472.0,199845.890625,0.1015625,0.98095703125,-0.236572265625,-0.8544921278953552,-0.7019042372703552,0.5187987685203552,100.0,63585.0,1.0
15:31:34.649180,196867.375,174624.171875,233297.328125,204530.8125,197658.71875,168668.859375,686505.8125,199842.484375,0.103515625,0.9814453125,-0.23681640625,-0.9155272841453552,-0.7324218153953552,0.4577636420726776,100.0,63586.0,1.0
15:31:34.658642,196866.84375,174624.359375,233297.6875,204524.375,197657.296875,168675.75,686487.625,199833.1875,0.103515625,0.984130859375,-0.2353515625,-0.9765624403953552,-0.7629393935203552,0.4577636420726776,100.0,63587.0,1.0
15:31:34.661637,196860.765625,174610.578125,233284.359375,204525.71875,197642.0,168639.453125,686473.8125,199835.875,0.103515625,0.985595703125,-0.235107421875,-1.0375975370407104,-0.7629393935203552,0.5187987685203552,100.0,63588.0,1.0
15:31:34.661641,196856.65625,174605.578125,233274.4375,204527.59375,197633.421875,168617.90625,686452.5,199837.125,0.103515625,0.98193359375,-0.235595703125,-1.0681151151657104,-0.6103515028953552,0.3967284858226776,100.0,63589.0,1.0
15:31:34.663602,196855.84375,174611.65625,233279.453125,204520.171875,197641.375,168642.9375,686482.0,199830.78125,0.102783203125,0.9765625,-0.233642578125,-1.0375975370407104,-0.6103515028953552,0.3356933295726776,100.0,63590.0,1.0
15:31:34.676215,196859.59375,174618.1875,233288.125,204516.953125,197647.8125,168666.8125,686454.3125,199824.609375,0.101318359375,0.9736328125,-0.235107421875,-1.0070799589157104,-0.5493163466453552,0.4272460639476776,100.0,63591.0,1.0
15:31:34.681123,196859.875,174613.71875,233280.609375,204515.25,197639.765625,168643.5625,686466.625,199827.203125,0.104248046875,0.973876953125,-0.236083984375,-1.0070799589157104,-0.4882812201976776,0.3967284858226776,100.0,63592.0,1.0
15:31:34.681129,196850.390625,174599.5,233266.296875,204512.125,197625.109375,168610.484375,686431.75,199825.3125,0.10400390625,0.97412109375,-0.23974609375,-0.9460448622703552,-0.5493163466453552,0.3662109076976776,100.0,63593.0,1.0
15:31:34.681132,196851.640625,174605.21875,233270.765625,204510.96875,197630.921875,168631.40625,686479.75,199821.296875,0.105712890625,0.975830078125,-0.239501953125,-0.8850097060203552,-0.4577636420726776,0.4272460639476776,100.0,63594.0,1.0
15:31:34.683693,196856.203125,174615.765625,233282.75,204513.90625,197645.21875,168664.65625,686455.375,199821.5625,0.1044921875,0.975830078125,-0.23974609375,-0.7934569716453552,-0.4272460639476776,0.3662109076976776,100.0,63595.0,1.0
15:31:34.687426,196856.828125,174613.0,233277.03125,204512.578125,197638.875,168648.484375,686472.5,199823.625,0.103515625,0.980712890625,-0.240966796875,-0.5798339247703552,-0.5187987685203552,0.4272460639476776,100.0,63596.0,1.0
15:31:34.696882,196855.578125,174604.6875,233271.046875,204520.796875,197631.546875,168619.328125,686432.5,199833.71875,0.103515625,0.978271484375,-0.238525390625,-0.5187987685203552,-0.5493163466453552,0.4882812201976776,100.0,63597.0,1.0
15:31:34.706481,196860.140625,174612.640625,233276.765625,204524.015625,197638.515625,168638.015625,686485.375,199833.71875,0.10400390625,0.9794921875,-0.236083984375,-0.4882812201976776,-0.4882812201976776,0.4272460639476776,100.0,63598.0,1.0
15:31:34.706546,196866.390625,174620.6875,233291.78125,204529.203125,197654.15625,168669.484375,686476.1875,199836.40625,0.103515625,0.97802734375,-0.2373046875,-0.5493163466453552,-0.4882812201976776,0.5187987685203552,100.0,63599.0,1.0
15:31:34.706731,196865.0625,174615.5,233285.25,204523.828125,197644.953125,168654.921875,686484.9375,199830.234375,0.103515625,0.97705078125,-0.2373046875,-0.4577636420726776,-0.4577636420726776,0.4882812201976776,100.0,63600.0,1.0
15:31:34.706755,196862.640625,174606.03125,233277.921875,204530.8125,197637.4375,168622.109375,686445.6875,199841.40625,0.1015625,0.977783203125,-0.236572265625,-0.4577636420726776,-0.5187987685203552,0.6103515028953552,100.0,63601.0,1.0
15:31:34.716300,196862.90625,174607.8125,233278.546875,204528.578125,197637.4375,168626.671875,686479.4375,199835.6875,0.102294921875,0.980224609375,-0.236083984375,-0.4577636420726776,-0.3356933295726776,0.5187987685203552,100.0,63602.0,1.0
15:31:34.720506,196869.703125,174622.5625,233294.734375,204544.3125,197657.203125,168668.859375,686459.5,199839.796875,0.101806640625,0.982421875,-0.238525390625,-0.4577636420726776,-0.3967284858226776,0.5187987685203552,100.0,63603.0,1.0
15:31:34.720526,196872.65625,174625.875,233294.734375,204547.53125,197654.96875,168668.953125,686471.1875,199836.3125,0.10302734375,0.98046875,-0.237548828125,-0.4272460639476776,-0.4577636420726776,0.6103515028953552,100.0,63604.0,1.0
15:31:34.729971,196870.78125,174618.0,233288.296875,204553.78125,197648.078125,168636.59375,686452.6875,199848.203125,0.10546875,0.98046875,-0.23876953125,-0.5493163466453552,-0.3662109076976776,0.6713866591453552,100.0,63605.0,1.0
15:31:34.734850,196872.296875,174617.734375,233285.703125,204550.296875,197647.8125,168631.5,686471.1875,199846.78125,0.10546875,0.979248046875,-0.23828125,-0.4882812201976776,-0.3967284858226776,0.6713866591453552,100.0,63606.0,1.0
15:31:34.734864,196875.15625,174625.609375,233296.96875,204550.921875,197661.3125,168665.734375,686473.8125,199844.71875,0.1044921875,0.977783203125,-0.237548828125,-0.5493163466453552,-0.2746581733226776,0.6103515028953552,100.0,63607.0,1.0
15:31:34.734867,196878.203125,174632.046875,233299.390625,204545.828125,197660.421875,168676.46875,686468.5,199838.375,0.105712890625,0.9755859375,-0.23974609375,-0.5798339247703552,-0.3051757514476776,0.6713866591453552,100.0,63608.0,1.0
15:31:34.737338,196873.640625,174623.375,233289.8125,204551.734375,197652.546875,168647.3125,686472.0625,199849.734375,0.1044921875,0.97314453125,-0.23974609375,-0.5798339247703552,-0.2746581733226776,0.8239745497703552,100.0,63609.0,1.0
15:31:34.746082,196869.890625,174616.390625,233284.71875,204553.34375,197645.84375,168630.859375,686464.8125,199849.453125,0.101318359375,0.97705078125,-0.240478515625,-0.5187987685203552,-0.2746581733226776,0.7934569716453552,100.0,63610.0,1.0
15:31:34.752976,196870.0625,174618.0,233292.328125,204551.8125,197654.875,168657.421875,686473.3125,199844.984375,0.10107421875,0.974853515625,-0.2431640625,-0.5187987685203552,-0.2136230319738388,0.7019042372703552,100.0,63611.0,1.0
15:31:34.752989,196871.40625,174622.828125,233296.25,204546.640625,197656.03125,168672.890625,686469.375,199836.5,0.099853515625,0.975830078125,-0.242919921875,-0.4577636420726776,-0.2441406100988388,0.6408690810203552,100.0,63612.0,1.0
15:31:34.758635,196871.765625,174620.6875,233290.890625,204549.671875,197649.515625,168648.921875,686463.125,199844.09375,0.099365234375,0.97705078125,-0.24267578125,-0.5493163466453552,-0.1831054538488388,0.6713866591453552,100.0,63613.0,1.0
15:31:34.765443,196874.625,174619.53125,233287.765625,204556.640625,197645.484375,168630.859375,686437.375,199850.625,0.101806640625,0.9775390625,-0.24169921875,-0.4882812201976776,-0.1220703050494194,0.6103515028953552,100.0,63614.0,1.0
15:31:34.765447,196878.375,174626.671875,233296.34375,204558.703125,197655.0625,168657.421875,686485.875,199849.8125,0.103271484375,0.97802734375,-0.24267578125,-0.4272460639476776,-0.1525878757238388,0.6103515028953552,100.0,63615.0,1.0
15:31:34.767396,196881.0625,174633.296875,233303.578125,204559.234375,197661.9375,168680.21875,686468.625,199845.703125,0.103759765625,0.977783203125,-0.2431640625,-0.2746581733226776,-0.2441406100988388,0.5187987685203552,100.0,63616.0,1.0
15:31:34.774951,196879.453125,174629.453125,233295.546875,204558.890625,197654.34375,168658.671875,686480.0625,199847.9375,0.102783203125,0.97900390625,-0.244873046875,-0.2136230319738388,-0.2441406100988388,0.6713866591453552,100.0,63617.0,1.0
15:31:34.794972,196877.21875,174622.203125,233287.671875,204561.65625,197647.359375,168632.921875,686443.3125,199854.109375,0.101806640625,0.978271484375,-0.244873046875,-0.3051757514476776,-0.2746581733226776,0.4577636420726776,100.0,63618.0,1.0
15:31:34.794984,196875.25,174623.1875,233288.203125,204555.9375,197650.578125,168648.390625,686481.3125,199846.15625,0.101318359375,0.980712890625,-0.242919921875,-0.3662109076976776,-0.1831054538488388,0.4577636420726776,100.0,63619.0,1.0
15:31:34.794986,196879.265625,174632.75,233300.015625,204554.140625,197662.203125,168679.234375,686459.375,199843.921875,0.1025390625,0.97900390625,-0.242431640625,-0.3662109076976776,-0.3662109076976776,0.4577636420726776,100.0,63620.0,1.0
15:31:34.797416,196877.65625,174629.890625,233294.46875,204554.0625,197654.34375,168663.671875,686483.1875,199841.6875,0.1015625,0.978759765625,-0.240966796875,-0.4272460639476776,-0.3356933295726776,0.3662109076976776,100.0,63621.0,1.0
15:31:34.799917,196875.0625,174622.921875,233289.640625,204562.8125,197648.34375,168635.515625,686441.0625,199852.140625,0.098876953125,0.98193359375,-0.2431640625,-0.4882812201976776,-0.3051757514476776,0.2441406100988388,100.0,63622.0,1.0
15:31:34.804863,196878.46875,174626.671875,233293.125,204559.59375,197652.375,168649.46875,686493.4375,199849.375,0.09912109375,0.983642578125,-0.240478515625,-0.4272460639476776,-0.3356933295726776,0.0915527269244194,100.0,63623.0,1.0
15:31:34.807334,196879.890625,174631.234375,233302.6875,204558.171875,197663.1875,168681.109375,686469.0625,199847.046875,0.09912109375,0.983642578125,-0.24072265625,-0.4882812201976776,-0.3356933295726776,0.0,100.0,63624.0,1.0
15:31:34.809840,196882.125,174633.828125,233298.484375,204557.71875,197657.921875,168674.9375,686482.75,199845.796875,0.098388671875,0.98193359375,-0.239501953125,-0.4882812201976776,-0.4577636420726776,-0.0915527269244194,100.0,63625.0,1.0
15:31:34.812532,196877.578125,174623.375,233288.296875,204566.9375,197648.796875,168639.1875,686446.625,199857.421875,0.09814453125,0.982666015625,-0.23779296875,-0.6103515028953552,-0.4577636420726776,-0.2441406100988388,100.0,63626.0,1.0
15:31:34.815515,196873.734375,174622.03125,233284.8125,204558.96875,197644.234375,168637.21875,686486.125,199850.171875,0.097900390625,0.981201171875,-0.2421875,-0.7324218153953552,-0.5187987685203552,-0.2746581733226776,100.0,63627.0,1.0
15:31:34.815523,196880.078125,174634.640625,233304.03125,204563.078125,197663.546875,168674.671875,686489.5,199851.96875,0.0986328125,0.982177734375,-0.24365234375,-0.7324218153953552,-0.5187987685203552,-0.3051757514476776,100.0,63628.0,1.0
15:31:34.822326,196885.0,174639.90625,233306.71875,204561.390625,197664.71875,168677.53125,686483.875,199849.1875,0.09912109375,0.980712890625,-0.24267578125,-0.8239745497703552,-0.5187987685203552,-0.3356933295726776,100.0,63629.0,1.0
15:31:34.826712,196876.234375,174624.796875,233292.328125,204564.609375,197651.65625,168640.703125,686463.5625,199855.265625,0.099609375,0.978759765625,-0.241943359375,-0.7629393935203552,-0.6103515028953552,-0.1525878757238388,100.0,63630.0,1.0
15:31:34.826720,196877.390625,174627.125,233291.609375,204570.421875,197651.65625,168641.0625,686475.5625,199855.625,0.100341796875,0.979248046875,-0.241455078125,-0.9155272841453552,-0.5798339247703552,-0.1831054538488388,100.0,63631.0,1.0
15:31:34.836123,196884.28125,174639.1875,233306.984375,204581.765625,197670.4375,168681.5625,686486.3125,199860.015625,0.099609375,0.980224609375,-0.243896484375,-0.9155272841453552,-0.6408690810203552,-0.1831054538488388,100.0,63632.0,1.0
15:31:34.845434,196884.71875,174640.171875,233304.921875,204572.46875,197668.90625,168687.640625,686474.4375,199850.359375,0.10107421875,0.979736328125,-0.242919921875,-0.9460448622703552,-0.5798339247703552,-0.1220703050494194,100.0,63633.0,1.0
15:31:34.845441,196877.84375,174628.375,233291.0625,204568.0,197655.5,168652.6875,686460.9375,199852.671875,0.103271484375,0.97900390625,-0.244384765625,-0.9460448622703552,-0.6103515028953552,0.0610351525247097,100.0,63634.0,1.0
15:31:34.847919,196877.65625,174628.46875,233287.5,204564.96875,197650.9375,168639.8125,686451.875,199851.78125,0.103271484375,0.978759765625,-0.2392578125,-0.9460448622703552,-0.6103515028953552,0.1220703050494194,100.0,63635.0,1.0
15:31:34.847923,196881.78125,174638.390625,233304.21875,204568.0,197666.234375,168675.21875,686490.5625,199851.34375,0.100830078125,0.97998046875,-0.241943359375,-1.0375975370407104,-0.5493163466453552,0.1831054538488388,100.0,63636.0,1.0
15:31:34.849814,196885.078125,174644.828125,233308.859375,204562.640625,197668.5625,168693.890625,686470.0,199843.296875,0.10205078125,0.979248046875,-0.2431640625,-1.0681151151657104,-0.4577636420726776,0.2441406100988388,100.0,63637.0,1.0
15:31:34.862443,196884.640625,174640.09375,233299.390625,204562.28125,197660.953125,168669.21875,686480.375,199848.5625,0.104248046875,0.981201171875,-0.242431640625,-1.0681151151657104,-0.5493163466453552,0.3967284858226776,100.0,63638.0,1.0
15:31:34.865726,196884.09375,174635.53125,233294.828125,204566.21875,197654.78125,168647.9375,686451.875,199854.375,0.10205078125,0.979248046875,-0.23779296875,-1.0375975370407104,-0.4882812201976776,0.4882812201976776,100.0,63639.0,1.0
15:31:34.865794,196890.984375,174645.28125,233309.84375,204570.234375,197667.03125,168676.28125,686492.1875,199855.546875,0.103271484375,0.98046875,-0.2392578125,-1.1596678495407104,-0.3967284858226776,0.5798339247703552,100.0,63640.0,1.0
15:31:34.881249,196893.671875,174649.921875,233317.4375,204568.359375,197674.09375,168699.703125,686468.25,199848.828125,0.10107421875,0.981689453125,-0.23974609375,-1.2207030057907104,-0.3967284858226776,0.6408690810203552,100.0,63641.0,1.0
15:31:34.881316,196891.703125,174645.71875,233308.140625,204565.671875,197664.796875,168678.34375,686490.875,199848.484375,0.0986328125,0.978271484375,-0.240234375,-1.3732908964157104,-0.3967284858226776,0.6408690810203552,100.0,63642.0,1.0
15:31:34.881342,196892.40625,174641.609375,233302.6875,204571.3125,197659.53125,168653.21875,686457.0625,199857.78125,0.10009765625,0.9794921875,-0.240234375,-1.3427733182907104,-0.3662109076976776,0.6713866591453552,100.0,63643.0,1.0
15:31:34.884273,196897.234375,174649.5625,233310.734375,204569.96875,197668.015625,168674.234375,686502.5,199856.34375,0.10009765625,0.979736328125,-0.24169921875,-1.3732908964157104,-0.3967284858226776,0.7629393935203552,100.0,63644.0,1.0
15:31:34.884401,196896.796875,174653.40625,233317.625,204567.109375,197674.453125,168700.515625,686467.0,199849.90625,0.099609375,0.978515625,-0.239013671875,-1.3732908964157104,-0.3662109076976776,0.7019042372703552,100.0,63645.0,1.0
15:31:34.886111,196889.015625,174643.578125,233302.875,204555.21875,197659.4375,168678.15625,686485.875,199840.515625,0.100341796875,0.981689453125,-0.239990234375,-1.4343260526657104,-0.3662109076976776,0.7629393935203552,100.0,63646.0,1.0
15:31:34.893716,196885.4375,174634.640625,233294.734375,204559.953125,197651.125,168647.859375,686452.5,199850.4375,0.099609375,0.982421875,-0.242919921875,-1.5563963651657104,-0.3662109076976776,0.7934569716453552,100.0,63647.0,1.0
15:31:34.919251,196888.03125,174639.546875,233298.21875,204556.46875,197654.515625,168660.1875,686494.0625,199846.78125,0.097412109375,0.98193359375,-0.2431640625,-1.6784666776657104,-0.3967284858226776,0.7019042372703552,100.0,63648.0,1.0
15:31:34.919315,196888.125,174643.75,233308.6875,204556.640625,197664.890625,168689.78125,686472.8125,199843.921875,0.096923828125,0.97998046875,-0.24169921875,-1.6784666776657104,-0.4882812201976776,0.7934569716453552,100.0,63649.0,1.0
15:31:34.944947,196885.34375,174639.734375,233305.1875,204549.140625,197655.234375,168678.4375,686484.625,199836.765625,0.10009765625,0.978271484375,-0.2373046875,-1.6784666776657104,-0.5493163466453552,0.6408690810203552,100.0,63650.0,1.0
15:31:34.949946,196879.359375,174626.234375,233292.59375,204553.875,197645.21875,168642.671875,686449.9375,199846.59375,0.10107421875,0.97705078125,-0.239990234375,-1.7089842557907104,-0.5187987685203552,0.6408690810203552,100.0,63651.0,1.0
15:31:34.952407,196880.34375,174625.0625,233289.453125,204554.140625,197645.125,168642.40625,686476.125,199844.09375,0.1005859375,0.976318359375,-0.23779296875,-1.6174315214157104,-0.4577636420726776,0.5187987685203552,100.0,63652.0,1.0
15:31:34.955302,196886.328125,174635.890625,233306.265625,204561.46875,197664.4375,168682.28125,686470.1875,199847.765625,0.1044921875,0.974365234375,-0.23828125,-1.5869139432907104,-0.3662109076976776,0.5493163466453552,100.0,63653.0,1.0
15:31:34.957385,196882.671875,174635.0,233301.0,204549.859375,197655.765625,168681.109375,686472.4375,199837.65625,0.10546875,0.975830078125,-0.240478515625,-1.4953612089157104,-0.3051757514476776,0.5187987685203552,100.0,63654.0,1.0
15:31:34.969951,196876.40625,174624.984375,233287.5,204549.234375,197642.265625,168645.53125,686460.1875,199843.109375,0.1064453125,0.97412109375,-0.2412109375,-1.4343260526657104,-0.1525878757238388,0.4577636420726776,100.0,63655.0,1.0
15:31:34.972463,196881.421875,174631.328125,233289.90625,204551.8125,197644.234375,168644.90625,686465.9375,199846.15625,0.106689453125,0.973876953125,-0.24462890625,-1.3732908964157104,-0.1220703050494194,0.5798339247703552,100.0,63656.0,1.0
15:31:34.974964,196883.390625,174639.1875,233306.625,204553.078125,197658.8125,168680.484375,686463.75,199845.890625,0.105712890625,0.973388671875,-0.24365234375,-1.2817381620407104,-0.03051757626235485,0.5493163466453552,100.0,63657.0,1.0
15:31:34.977400,196882.046875,174640.359375,233312.34375,204543.6875,197655.953125,168687.375,686459.125,199835.609375,0.1044921875,0.97314453125,-0.240966796875,-1.1901854276657104,0.0610351525247097,0.5798339247703552,100.0,63658.0,1.0
15:31:34.979886,196873.8125,174627.75,233297.78125,204540.203125,197640.578125,168649.546875,686455.8125,199837.03125,0.10595703125,0.974853515625,-0.243408203125,-1.1596678495407104,0.0915527269244194,0.5493163466453552,100.0,63659.0,1.0
15:31:34.982948,196871.3125,174621.140625,233291.96875,204538.234375,197632.609375,168630.59375,686450.375,199834.796875,0.1083984375,0.9775390625,-0.24365234375,-1.0375975370407104,0.2136230319738388,0.5187987685203552,100.0,63660.0,1.0
15:31:34.984890,196877.21875,174630.25,233305.828125,204541.71875,197645.21875,168662.0625,686481.8125,199834.078125,0.1103515625,0.978271484375,-0.2421875,-1.1291502714157104,0.3051757514476776,0.4577636420726776,100.0,63661.0,1.0
15:31:34.987398,196879.1875,174634.640625,233308.859375,204536.171875,197647.1875,168677.265625,686468.5,199826.484375,0.10791015625,0.977783203125,-0.242431640625,-1.1596678495407104,0.3967284858226776,0.3967284858226776,100.0,63662.0,1.0
15:31:34.990456,196874.984375,174626.5,233295.984375,204534.828125,197637.359375,168651.15625,686467.8125,199830.328125,0.10546875,0.977294921875,-0.24267578125,-1.0681151151657104,0.4577636420726776,0.4577636420726776,100.0,63663.0,1.0
15:31:34.990532,196871.84375,174619.703125,233285.53125,204537.15625,197630.109375,168629.078125,686433.25,199832.65625,0.10400390625,0.9794921875,-0.240966796875,-0.9765624403953552,0.5493163466453552,0.4577636420726776,100.0,63664.0,1.0
15:31:34.992437,196879.1875,174627.578125,233294.46875,204542.96875,197642.984375,168655.1875,686482.625,199834.890625,0.1025390625,0.977783203125,-0.241455078125,-0.9765624403953552,0.6713866591453552,0.4577636420726776,100.0,63665.0,1.0
15:31:34.994855,196884.8125,174633.828125,233304.921875,204542.96875,197653.171875,168680.390625,686462.1875,199833.1875,0.10302734375,0.979248046875,-0.24267578125,-1.0375975370407104,0.6713866591453552,0.3051757514476776,100.0,63666.0,1.0
15:31:34.997610,196883.03125,174627.296875,233296.515625,204538.046875,197643.703125,168657.15625,686477.4375,199834.171875,0.100341796875,0.981201171875,-0.23828125,-0.9155272841453552,0.6408690810203552,0.2746581733226776,100.0,63667.0,1.0
15:31:34.999918,196880.34375,174619.171875,233290.796875,204543.953125,197635.125,168628.546875,686443.1875,199841.5,0.100830078125,0.98095703125,-0.240478515625,-0.9765624403953552,0.7629393935203552,0.0610351525247097,100.0,63668.0,1.0
15:31:35.003005,196882.3125,174625.15625,233299.296875,204546.8125,197643.15625,168647.40625,686479.5625,199840.515625,0.09814453125,0.980712890625,-0.24072265625,-1.0070799589157104,0.6713866591453552,0.0915527269244194,100.0,63669.0,1.0
15:31:35.003072,196883.03125,174631.328125,233309.484375,204547.796875,197654.515625,168677.8125,686453.5,199838.546875,0.09814453125,0.9814453125,-0.24169921875,-1.0375975370407104,0.7629393935203552,0.1220703050494194,100.0,63670.0,1.0
15:31:35.005694,196877.65625,174623.90625,233297.953125,204539.84375,197643.796875,168659.484375,686469.125,199833.453125,0.099365234375,0.980224609375,-0.240966796875,-1.0681151151657104,0.6713866591453552,0.0610351525247097,100.0,63671.0,1.0
15:31:35.005765,196871.765625,174612.546875,233288.921875,204552.171875,197635.296875,168627.734375,686426.8125,199842.9375,0.1005859375,0.982177734375,-0.2421875,-1.0070799589157104,0.5798339247703552,0.03051757626235485,100.0,63672.0,1.0
15:31:35.008022,196878.203125,174620.953125,233301.53125,204562.375,197643.34375,168643.296875,686483.6875,199844.453125,0.100830078125,0.980712890625,-0.244384765625,-1.0681151151657104,0.5493163466453552,-0.03051757626235485,100.0,63673.0,1.0
15:31:35.008083,196881.78125,174631.421875,233317.171875,204565.671875,197658.09375,168678.875,686476.3125,199843.296875,0.10009765625,0.9814453125,-0.24169921875,-1.0375975370407104,0.4272460639476776,-0.1525878757238388,100.0,63674.0,1.0
15:31:35.009862,196877.921875,174626.234375,233305.640625,204552.265625,197647.359375,168668.234375,686476.625,199830.5,0.09814453125,0.9794921875,-0.239990234375,-1.0986326932907104,0.4882812201976776,-0.1831054538488388,100.0,63675.0,1.0
15:31:35.015521,196873.1875,174615.953125,233293.03125,204552.984375,197637.078125,168634.796875,686446.5,199838.546875,0.097900390625,0.978271484375,-0.2412109375,-1.0681151151657104,0.3662109076976776,-0.1525878757238388,100.0,63676.0,1.0
15:31:35.015590,196877.296875,174618.90625,233292.765625,204553.421875,197639.9375,168639.265625,686470.9375,199838.546875,0.097900390625,0.97705078125,-0.239990234375,-1.0375975370407104,0.3356933295726776,-0.0610351525247097,100.0,63677.0,1.0
15:31:35.017748,196884.453125,174630.796875,233307.96875,204559.859375,197657.640625,168678.703125,686470.5,199842.046875,0.09765625,0.973876953125,-0.23828125,-1.0681151151657104,0.2136230319738388,-0.1525878757238388,100.0,63678.0,1.0
15:31:35.021169,196887.046875,174636.953125,233307.609375,204551.46875,197654.875,168684.15625,686472.4375,199836.234375,0.09619140625,0.974609375,-0.241943359375,-1.0986326932907104,0.2136230319738388,-0.03051757626235485,100.0,63679.0,1.0
15:31:35.025594,196875.15625,174623.015625,233291.0625,204547.625,197638.96875,168647.140625,686446.75,199840.25,0.0966796875,0.973876953125,-0.241455078125,-1.0986326932907104,0.1525878757238388,-0.03051757626235485,100.0,63680.0,1.0
15:31:35.025686,196873.8125,174623.28125,233287.5,204545.921875,197635.921875,168639.71875,686450.8125,199838.734375,0.09765625,0.975341796875,-0.241455078125,-1.0986326932907104,0.1831054538488388,0.0,100.0,63681.0,1.0
15:31:35.040774,196881.140625,174635.0,233303.046875,204550.921875,197654.15625,168677.71875,686458.0625,199841.234375,0.09765625,0.97509765625,-0.240966796875,-1.0986326932907104,0.0610351525247097,0.03051757626235485,100.0,63682.0,1.0
15:31:35.040869,196887.40625,174643.03125,233307.875,204550.125,197657.015625,168690.234375,686462.1875,199836.40625,0.09814453125,0.974609375,-0.241943359375,-1.0681151151657104,0.1220703050494194,0.0,100.0,63683.0,1.0
15:31:35.043069,196881.6875,174631.78125,233294.109375,204551.015625,197644.140625,168655.359375,686464.3125,199840.78125,0.09716796875,0.97509765625,-0.2431640625,-1.0070799589157104,-0.0610351525247097,0.1831054538488388,100.0,63684.0,1.0
15:31:35.043149,196879.53125,174626.5,233286.15625,204549.765625,197638.6875,168639.0,686448.125,199841.0625,0.09423828125,0.975830078125,-0.244140625,-1.0070799589157104,-0.03051757626235485,0.2746581733226776,100.0,63685.0,1.0
15:31:35.058366,196884.359375,174637.765625,233297.421875,204549.9375,197654.34375,168674.234375,686478.1875,199843.109375,0.095703125,0.97607421875,-0.2431640625,-1.0375975370407104,-0.1525878757238388,0.1525878757238388,100.0,63686.0,1.0
15:31:35.058465,196887.765625,174646.96875,233307.875,204546.90625,197661.765625,168697.46875,686462.1875,199838.1875,0.0947265625,0.978759765625,-0.243408203125,-1.0070799589157104,-0.2441406100988388,0.1525878757238388,100.0,63687.0,1.0
15:31:35.058497,196883.03125,174639.90625,233298.046875,204542.34375,197650.671875,168671.546875,686464.375,199840.15625,0.0947265625,0.97998046875,-0.242919921875,-1.0070799589157104,-0.3051757514476776,0.1831054538488388,100.0,63688.0,1.0
15:31:35.066603,196879.1875,174632.9375,233288.828125,204543.0625,197643.15625,168648.21875,686435.1875,199844.1875,0.095458984375,0.9814453125,-0.242431640625,-1.0070799589157104,-0.4882812201976776,0.03051757626235485,100.0,63689.0,1.0
15:31:35.070580,196883.203125,174638.84375,233298.21875,204544.75,197654.078125,168672.4375,686480.9375,199845.890625,0.093994140625,0.982666015625,-0.2421875,-0.9765624403953552,-0.5187987685203552,0.1525878757238388,100.0,63690.0,1.0
15:31:35.070665,196885.890625,174644.921875,233306.71875,204543.59375,197662.5625,168696.046875,686460.5625,199842.9375,0.0947265625,0.9833984375,-0.244384765625,-1.0986326932907104,-0.5798339247703552,0.1831054538488388,100.0,63691.0,1.0
15:31:35.080521,196883.390625,174640.796875,233296.703125,204540.90625,197652.109375,168676.28125,686476.0,199841.0625,0.09521484375,0.984619140625,-0.241455078125,-1.1901854276657104,-0.7019042372703552,0.2136230319738388,100.0,63692.0,1.0
15:31:35.080615,196878.828125,174631.234375,233289.015625,204544.21875,197643.15625,168647.578125,686439.875,199845.4375,0.09521484375,0.9833984375,-0.2421875,-1.3122557401657104,-0.7324218153953552,0.2746581733226776,100.0,63693.0,1.0
15:31:35.083020,196878.90625,174635.34375,233295.8125,204543.234375,197648.34375,168663.859375,686481.8125,199841.6875,0.096435546875,0.98193359375,-0.2412109375,-1.3732908964157104,-0.7934569716453552,0.3051757514476776,100.0,63694.0,1.0
15:31:35.083107,196882.046875,174643.9375,233306.09375,204544.484375,197659.96875,168695.421875,686445.4375,199839.890625,0.097900390625,0.98193359375,-0.2431640625,-1.4343260526657104,-0.8544921278953552,0.3356933295726776,100.0,63695.0,1.0
15:31:35.093729,196880.4375,174640.984375,233297.0625,204538.671875,197650.765625,168683.171875,686470.0,199835.15625,0.099853515625,0.98095703125,-0.245849609375,-1.4648436307907104,-0.8850097060203552,0.4272460639476776,100.0,63696.0,1.0
15:31:35.098040,196873.109375,174624.171875,233285.4375,204541.359375,197638.25,168643.109375,686437.5625,199839.984375,0.1005859375,0.9794921875,-0.245849609375,-1.5258787870407104,-0.8239745497703552,0.3356933295726776,100.0,63697.0,1.0
15:31:35.098123,196876.765625,174628.015625,233292.671875,204541.359375,197643.078125,168650.359375,686486.1875,199838.28125,0.100830078125,0.979248046875,-0.243896484375,-1.6174315214157104,-0.8239745497703552,0.3051757514476776,100.0,63698.0,1.0
15:31:35.104301,196879.890625,174637.765625,233304.390625,204542.25,197656.390625,168684.15625,686468.3125,199837.65625,0.10107421875,0.98046875,-0.244140625,-1.4953612089157104,-0.7934569716453552,0.4272460639476776,100.0,63699.0,1.0
15:31:35.104387,196884.359375,174641.421875,233305.375,204539.578125,197652.28125,168682.0,686474.0625,199833.90625,0.10205078125,0.980224609375,-0.244873046875,-1.6479490995407104,-0.6713866591453552,0.3662109076976776,100.0,63700.0,1.0
15:31:35.106194,196884.453125,174635.171875,233297.421875,204551.28125,197645.9375,168652.5,686448.9375,199846.78125,0.1025390625,0.979736328125,-0.244384765625,-1.6479490995407104,-0.6713866591453552,0.4272460639476776,100.0,63701.0,1.0
15:31:35.118848,196885.53125,174637.671875,233294.203125,204549.140625,197644.328125,168653.671875,686472.0625,199842.125,0.103759765625,0.980224609375,-0.24267578125,-1.6174315214157104,-0.6103515028953552,0.4882812201976776,100.0,63702.0,1.0
15:31:35.125733,196890.09375,174646.890625,233306.265625,204548.78125,197658.8125,168689.34375,686477.8125,199838.90625,0.103271484375,0.9794921875,-0.244873046875,-1.6479490995407104,-0.6103515028953552,0.5187987685203552,100.0,63703.0,1.0
15:31:35.125813,196890.09375,174646.34375,233302.875,204539.390625,197653.71875,168688.890625,686475.6875,199830.59375,0.10205078125,0.980712890625,-0.243408203125,-1.7089842557907104,-0.5187987685203552,0.5493163466453552,100.0,63704.0,1.0
15:31:35.128597,196883.390625,174633.921875,233291.0625,204540.203125,197640.84375,168653.578125,686474.125,199836.140625,0.102294921875,0.981689453125,-0.240966796875,-1.7700194120407104,-0.4577636420726776,0.6408690810203552,100.0,63705.0,1.0
15:31:35.128688,196884.546875,174633.65625,233291.34375,204540.640625,197637.171875,168645.703125,686466.625,199835.875,0.10400390625,0.97900390625,-0.24365234375,-1.8615721464157104,-0.4882812201976776,0.5798339247703552,100.0,63706.0,1.0
15:31:35.130152,196889.46875,174641.703125,233304.484375,204543.78125,197652.28125,168678.609375,686486.8125,199838.546875,0.103515625,0.97900390625,-0.241455078125,-1.8615721464157104,-0.3967284858226776,0.5798339247703552,100.0,63707.0,1.0
15:31:35.141630,196890.71875,174646.609375,233305.828125,204540.28125,197654.34375,168690.328125,686468.25,199832.734375,0.101318359375,0.98046875,-0.23974609375,-1.8920897245407104,-0.3967284858226776,0.6408690810203552,100.0,63708.0,1.0
15:31:35.146189,196890.09375,174640.53125,233296.171875,204541.71875,197646.5625,168662.0625,686474.0625,199839.453125,0.102783203125,0.979248046875,-0.240478515625,-1.8615721464157104,-0.3967284858226776,0.7019042372703552,100.0,63709.0,1.0
15:31:35.146259,196892.5,174638.65625,233295.1875,204544.9375,197643.34375,168646.78125,686453.875,199843.65625,0.100341796875,0.98046875,-0.239501953125,-1.9531248807907104,-0.3051757514476776,0.6408690810203552,100.0,63710.0,1.0
15:31:35.146290,196898.40625,174648.578125,233308.765625,204550.5625,197658.90625,168680.21875,686487.9375,199846.875,0.100830078125,0.9794921875,-0.2392578125,-1.8615721464157104,-0.2441406100988388,0.6713866591453552,100.0,63711.0,1.0
15:31:35.173783,196903.953125,174660.65625,233320.125,204552.265625,197671.78125,168707.671875,686468.5,199846.953125,0.0986328125,0.9794921875,-0.238525390625,-1.9226073026657104,-0.2441406100988388,0.6408690810203552,100.0,63712.0,1.0
15:31:35.176130,196902.421875,174656.09375,233310.921875,204552.453125,197665.25,168684.953125,686478.3125,199853.03125,0.10009765625,0.978759765625,-0.240478515625,-1.9531248807907104,-0.1525878757238388,0.6408690810203552,100.0,63713.0,1.0
15:31:35.178650,196903.953125,174653.953125,233308.5,204561.46875,197662.390625,168663.671875,686436.75,199864.03125,0.101318359375,0.98046875,-0.240234375,-2.044677495956421,-0.1525878757238388,0.6408690810203552,100.0,63714.0,1.0
15:31:35.181110,196906.453125,174659.9375,233316.109375,204561.296875,197670.171875,168685.140625,686472.25,199861.171875,0.101806640625,0.98193359375,-0.2412109375,-1.9836424589157104,-0.1831054538488388,0.5187987685203552,100.0,63715.0,1.0
15:31:35.183861,196901.53125,174658.234375,233320.03125,204552.984375,197670.703125,168703.640625,686447.0625,199848.5625,0.100830078125,0.981201171875,-0.240478515625,-2.014159917831421,-0.1220703050494194,0.4882812201976776,100.0,63716.0,1.0
15:31:35.186170,196894.921875,174649.46875,233307.609375,204547.0,197656.84375,168680.671875,686466.625,199842.125,0.100341796875,0.98046875,-0.2392578125,-2.044677495956421,-0.03051757626235485,0.2441406100988388,100.0,63717.0,1.0
15:31:35.188601,196892.59375,174644.46875,233301.34375,204557.625,197650.765625,168656.265625,686430.9375,199851.96875,0.10107421875,0.980224609375,-0.23974609375,-2.075195074081421,0.0,0.2441406100988388,100.0,63718.0,1.0
15:31:35.191097,196892.765625,174649.203125,233305.828125,204554.953125,197657.46875,168673.78125,686488.5625,199849.109375,0.1015625,0.98046875,-0.23876953125,-2.105712652206421,0.0,0.3051757514476776,100.0,63719.0,1.0
15:31:35.194170,196891.4375,174651.984375,233313.875,204550.75,197664.984375,168701.5,686465.9375,199843.015625,0.10009765625,0.98095703125,-0.23974609375,-2.105712652206421,0.0,0.2441406100988388,100.0,63720.0,1.0
15:31:35.194193,196889.734375,174646.96875,233305.28125,204541.53125,197654.78125,168685.859375,686474.25,199836.9375,0.1005859375,0.9794921875,-0.239990234375,-2.136230230331421,0.03051757626235485,0.2746581733226776,100.0,63721.0,1.0
15:31:35.196109,196886.953125,174636.515625,233295.359375,204547.265625,197646.296875,168652.6875,686441.875,199847.140625,0.099609375,0.978515625,-0.24072265625,-1.9531248807907104,0.0610351525247097,0.2746581733226776,100.0,63722.0,1.0
15:31:35.201136,196886.15625,174638.21875,233292.953125,204543.953125,197645.40625,168658.046875,686478.6875,199842.125,0.0986328125,0.97802734375,-0.239990234375,-2.014159917831421,0.03051757626235485,0.2746581733226776,100.0,63723.0,1.0
15:31:35.204278,196888.484375,174644.921875,233302.78125,204544.3125,197657.109375,168690.6875,686465.4375,199840.515625,0.09912109375,0.978515625,-0.23974609375,-1.9836424589157104,0.0,0.2136230319738388,100.0,63724.0,1.0
15:31:35.204321,196887.3125,174643.9375,233297.78125,204535.453125,197650.578125,168686.03125,686475.375,199829.875,0.09912109375,0.97802734375,-0.240478515625,-1.9226073026657104,-0.0610351525247097,0.2441406100988388,100.0,63725.0,1.0
15:31:35.209843,196879.625,174629.359375,233284.546875,204537.34375,197638.421875,168648.21875,686445.5,199836.140625,0.098388671875,0.973876953125,-0.2412109375,-1.9531248807907104,-0.1220703050494194,0.1525878757238388,100.0,63726.0,1.0
15:31:35.216738,196879.1875,174630.4375,233280.703125,204533.40625,197634.40625,168645.53125,686467.625,199832.828125,0.100341796875,0.972900390625,-0.241943359375,-1.7700194120407104,0.03051757626235485,0.03051757626235485,100.0,63727.0,1.0
15:31:35.216761,196882.484375,174641.421875,233293.125,204534.125,197649.421875,168682.0,686463.5625,199832.734375,0.0986328125,0.974609375,-0.24267578125,-1.6174315214157104,0.03051757626235485,0.0610351525247097,100.0,63728.0,1.0
15:31:35.226676,196883.203125,174641.15625,233292.40625,204528.390625,197647.1875,168685.21875,686463.125,199825.859375,0.100341796875,0.97509765625,-0.244384765625,-1.4953612089157104,0.03051757626235485,0.1525878757238388,100.0,63729.0,1.0
15:31:35.226697,196879.359375,174629.8125,233283.734375,204533.21875,197635.65625,168650.265625,686452.875,199833.453125,0.1005859375,0.976806640625,-0.240478515625,-1.4038084745407104,0.0,0.2746581733226776,100.0,63730.0,1.0
15:31:35.228603,196881.421875,174629.09375,233282.9375,204535.546875,197633.515625,168639.984375,686458.6875,199835.609375,0.1005859375,0.980224609375,-0.2412109375,-1.4038084745407104,0.03051757626235485,0.1220703050494194,100.0,63731.0,1.0
15:31:35.232345,196890.890625,174644.109375,233300.28125,204541.265625,197653.453125,168679.59375,686466.8125,199839.265625,0.0966796875,0.980224609375,-0.2392578125,-1.4953612089157104,-0.0610351525247097,0.1525878757238388,100.0,63732.0,1.0
15:31:35.242927,196897.78125,174654.9375,233308.234375,204542.078125,197659.53125,168697.921875,686463.75,199835.609375,0.096435546875,0.981201171875,-0.24072265625,-1.5258787870407104,-0.0915527269244194,0.0610351525247097,100.0,63733.0,1.0
15:31:35.242953,196890.796875,174643.84375,233294.46875,204539.390625,197647.28125,168665.640625,686477.875,199837.125,0.09814453125,0.981689453125,-0.238037109375,-1.4343260526657104,-0.0610351525247097,0.1525878757238388,100.0,63734.0,1.0
15:31:35.245448,196888.03125,174639.015625,233287.140625,204538.3125,197641.015625,168648.75,686466.0625,199837.921875,0.09814453125,0.97900390625,-0.23779296875,-1.4953612089157104,-0.03051757626235485,0.1831054538488388,100.0,63735.0,1.0
15:31:35.245473,196891.609375,174645.71875,233296.609375,204539.390625,197653.265625,168678.4375,686490.875,199837.921875,0.099853515625,0.97900390625,-0.239501953125,-1.5563963651657104,-0.03051757626235485,0.3356933295726776,100.0,63736.0,1.0
15:31:35.254839,196891.875,174651.0,233301.96875,204533.765625,197657.015625,168696.140625,686464.8125,199829.96875,0.09765625,0.979736328125,-0.2421875,-1.5563963651657104,0.03051757626235485,0.1831054538488388,100.0,63737.0,1.0
15:31:35.257317,196889.375,174646.703125,233292.671875,204531.96875,197647.015625,168672.625,686474.4375,199830.859375,0.097900390625,0.981201171875,-0.24072265625,-1.4648436307907104,-0.03051757626235485,0.3051757514476776,100.0,63738.0,1.0
15:31:35.304841,196887.859375,174643.390625,233286.953125,204538.765625,197640.484375,168651.78125,686452.875,199835.25,0.096923828125,0.980712890625,-0.241455078125,-1.5258787870407104,-0.0915527269244194,0.3967284858226776,100.0,63739.0,1.0
15:31:35.304877,196886.0625,174645.1875,233295.625,204542.4375,197645.3125,168672.171875,686489.0625,199829.078125,0.09765625,0.98046875,-0.238525390625,-1.5258787870407104,-0.0915527269244194,0.3662109076976776,100.0,63740.0,1.0
15:31:35.306123,196888.65625,174652.25,233306.53125,204542.96875,197653.453125,168698.8125,686470.1875,199825.140625,0.097412109375,0.980224609375,-0.242431640625,-1.4953612089157104,-0.0915527269244194,0.4272460639476776,100.0,63741.0,1.0
15:31:35.308662,196888.390625,174649.5625,233298.40625,204537.78125,197644.328125,168680.578125,686489.5,199824.609375,0.096923828125,0.979736328125,-0.24072265625,-1.4953612089157104,-0.1831054538488388,0.4577636420726776,100.0,63742.0,1.0
15:31:35.311113,196887.9375,174644.015625,233294.015625,204545.296875,197640.921875,168654.203125,686433.75,199837.125,0.09765625,0.979248046875,-0.2392578125,-1.5258787870407104,-0.1525878757238388,0.5187987685203552,100.0,63743.0,1.0
15:31:35.313627,196886.953125,174647.234375,233298.484375,204541.359375,197645.21875,168668.15625,686491.125,199833.359375,0.096923828125,0.978271484375,-0.24072265625,-1.5258787870407104,-0.1831054538488388,0.6103515028953552,100.0,63744.0,1.0
15:31:35.316757,196888.484375,174654.65625,233307.15625,204539.390625,197656.21875,168699.0,686471.4375,199829.515625,0.097412109375,0.97802734375,-0.2392578125,-1.5258787870407104,-0.2136230319738388,0.5493163466453552,100.0,63745.0,1.0
15:31:35.316792,196888.390625,174654.75,233299.390625,204538.953125,197650.40625,168690.6875,686486.3125,199826.65625,0.096923828125,0.979248046875,-0.24169921875,-1.5258787870407104,-0.2746581733226776,0.4882812201976776,100.0,63746.0,1.0
15:31:35.319860,196885.171875,174646.078125,233288.203125,204550.65625,197643.15625,168661.265625,686450.8125,199839.359375,0.098876953125,0.979736328125,-0.241455078125,-1.5258787870407104,-0.2746581733226776,0.4577636420726776,100.0,63747.0,1.0
15:31:35.319874,196892.40625,174654.390625,233293.9375,204556.375,197650.9375,168673.515625,686483.0625,199843.015625,0.097412109375,0.9794921875,-0.242431640625,-1.5258787870407104,-0.3356933295726776,0.5493163466453552,100.0,63748.0,1.0
15:31:35.319879,196892.6875,174659.40625,233304.75,204557.0,197664.4375,168704.890625,686469.125,199840.34375,0.098876953125,0.97900390625,-0.240966796875,-1.4953612089157104,-0.3051757514476776,0.5493163466453552,100.0,63749.0,1.0
15:31:35.323617,196890.09375,174655.375,233299.46875,204552.171875,197657.203125,168697.390625,686469.875,199831.3125,0.09814453125,0.978515625,-0.2392578125,-1.5258787870407104,-0.1525878757238388,0.6408690810203552,100.0,63750.0,1.0
15:31:35.323637,196890.796875,174647.859375,233292.59375,204559.515625,197650.671875,168666.1875,686447.3125,199843.65625,0.098876953125,0.97802734375,-0.237548828125,-1.4343260526657104,-0.1220703050494194,0.5798339247703552,100.0,63751.0,1.0
15:31:35.323642,196889.90625,174648.3125,233288.03125,204552.796875,197647.984375,168664.03125,686466.4375,199840.25,0.09814453125,0.979248046875,-0.2392578125,-1.4038084745407104,-0.2136230319738388,0.6713866591453552,100.0,63752.0,1.0
15:31:35.326666,196892.140625,174655.109375,233297.5,204557.625,197660.328125,168696.765625,686466.875,199838.546875,0.09814453125,0.980224609375,-0.23828125,-1.3732908964157104,-0.0610351525247097,0.6408690810203552,100.0,63753.0,1.0
15:31:35.326678,196895.453125,174657.34375,233299.109375,204556.375,197657.921875,168701.40625,686471.0,199831.3125,0.099609375,0.977294921875,-0.239501953125,-1.3122557401657104,-0.0915527269244194,0.6103515028953552,100.0,63754.0,1.0
15:31:35.332354,196895.28125,174650.734375,233292.328125,204561.65625,197651.203125,168670.5625,686473.3125,199842.671875,0.09912109375,0.9794921875,-0.23876953125,-1.3122557401657104,-0.0915527269244194,0.5493163466453552,100.0,63755.0,1.0
15:31:35.334868,196891.4375,174644.375,233282.484375,204559.6875,197642.890625,168653.046875,686463.75,199837.84375,0.099365234375,0.97705078125,-0.2373046875,-1.3122557401657104,-0.0610351525247097,0.5187987685203552,100.0,63756.0,1.0
15:31:35.337371,196896.53125,174653.671875,233294.90625,204562.90625,197658.8125,168687.109375,686482.25,199840.515625,0.098876953125,0.978271484375,-0.2431640625,-1.2817381620407104,-0.03051757626235485,0.5187987685203552,100.0,63757.0,1.0
15:31:35.339878,196906.09375,174665.125,233305.546875,204562.8125,197667.9375,168707.40625,686469.125,199840.34375,0.097900390625,0.97900390625,-0.242431640625,-1.3427733182907104,0.0,0.4882812201976776,100.0,63758.0,1.0
15:31:35.347939,196904.65625,174657.703125,233296.703125,204563.71875,197659.078125,168678.875,686474.125,199847.5,0.099365234375,0.97998046875,-0.241943359375,-1.3122557401657104,-0.03051757626235485,0.3967284858226776,100.0,63759.0,1.0
15:31:35.347963,196899.484375,174649.828125,233287.21875,204560.140625,197649.25,168655.8125,686451.5,199848.125,0.1015625,0.9794921875,-0.240478515625,-1.3122557401657104,0.03051757626235485,0.5798339247703552,100.0,63760.0,1.0
15:31:35.355407,196901.71875,174659.125,233295.453125,204558.96875,197659.53125,168684.6875,686484.9375,199846.234375,0.1015625,0.9794921875,-0.23876953125,-1.3122557401657104,0.03051757626235485,0.5187987685203552,100.0,63761.0,1.0
15:31:35.355427,196907.4375,174669.421875,233307.078125,204562.1875,197670.875,168711.6875,686472.4375,199845.53125,0.10107421875,0.9794921875,-0.237548828125,-1.3122557401657104,0.0610351525247097,0.5798339247703552,100.0,63762.0,1.0
15:31:35.370566,196905.5625,174662.265625,233300.1875,204562.90625,197662.5625,168689.25,686486.8125,199850.359375,0.1005859375,0.981201171875,-0.241943359375,-1.3732908964157104,0.0610351525247097,0.6103515028953552,100.0,63763.0,1.0
15:31:35.370593,196901.4375,174655.828125,233291.6875,204564.515625,197653.265625,168662.78125,686450.625,199854.015625,0.100830078125,0.98193359375,-0.242431640625,-1.3732908964157104,0.0915527269244194,0.6103515028953552,100.0,63764.0,1.0
15:31:35.373677,196901.359375,174658.859375,233293.578125,204559.859375,197657.828125,168682.0,686489.8125,199847.671875,0.099365234375,0.98095703125,-0.23828125,-1.4038084745407104,0.1220703050494194,0.5493163466453552,100.0,63765.0,1.0
15:31:35.373692,196899.5625,174660.46875,233298.125,204555.03125,197662.390625,168704.09375,686459.0,199841.5,0.100341796875,0.9814453125,-0.236328125,-1.4343260526657104,0.2441406100988388,0.6103515028953552,100.0,63766.0,1.0
15:31:35.373698,196898.21875,174657.703125,233290.265625,204552.53125,197653.53125,168686.203125,686482.75,199841.140625,0.099853515625,0.981689453125,-0.238525390625,-1.4343260526657104,0.2441406100988388,0.5493163466453552,100.0,63767.0,1.0
15:31:35.376823,196893.9375,174649.203125,233280.609375,204558.25,197646.734375,168658.046875,686446.9375,199850.171875,0.100341796875,0.98193359375,-0.243896484375,-1.4648436307907104,0.2136230319738388,0.5798339247703552,100.0,63768.0,1.0
15:31:35.376838,196897.15625,174657.078125,233284.453125,204559.953125,197653.0,168677.359375,686495.0625,199849.015625,0.101806640625,0.981689453125,-0.239013671875,-1.4038084745407104,0.2136230319738388,0.6713866591453552,100.0,63769.0,1.0
15:31:35.391136,196897.234375,174662.0,233293.578125,204562.375,197663.453125,168707.484375,686469.75,199846.15625,0.1015625,0.979736328125,-0.239501953125,-1.5258787870407104,0.3051757514476776,0.5493163466453552,100.0,63770.0,1.0
15:31:35.394218,196899.75,174664.234375,233290.53125,204565.859375,197658.546875,168698.8125,686486.375,199843.65625,0.1025390625,0.982666015625,-0.24072265625,-1.4648436307907104,0.2136230319738388,0.6103515028953552,100.0,63771.0,1.0
15:31:35.394243,196897.328125,174656.625,233288.125,204591.515625,197653.359375,168669.3125,686450.1875,199855.09375,0.101806640625,0.981689453125,-0.241455078125,-1.4038084745407104,0.2746581733226776,0.5493163466453552,100.0,63772.0,1.0
15:31:35.396142,196901.53125,174659.3125,233294.203125,204600.90625,197656.578125,168677.171875,686485.375,199855.546875,0.102783203125,0.981689453125,-0.241943359375,-1.4953612089157104,0.4272460639476776,0.6103515028953552,100.0,63773.0,1.0
15:31:35.399937,196905.28125,174666.546875,233307.609375,204608.421875,197671.953125,168712.046875,686463.5625,199857.6875,0.102783203125,0.9814453125,-0.24169921875,-1.4953612089157104,0.3967284858226776,0.5798339247703552,100.0,63774.0,1.0
15:31:35.409862,196907.515625,174668.78125,233307.875,204609.046875,197669.625,168709.015625,686478.0,199854.015625,0.102294921875,0.98095703125,-0.241455078125,-1.4648436307907104,0.3662109076976776,0.5798339247703552,100.0,63775.0,1.0
15:31:35.412976,196898.84375,174656.09375,233294.90625,204612.53125,197658.0,168673.875,686451.9375,199861.625,0.101806640625,0.980224609375,-0.239501953125,-1.5258787870407104,0.3662109076976776,0.6103515028953552,100.0,63776.0,1.0
15:31:35.412988,196893.671875,174649.5625,233286.15625,204605.015625,197649.6875,168663.046875,686459.75,199854.828125,0.10009765625,0.97900390625,-0.240478515625,-1.4648436307907104,0.3051757514476776,0.6713866591453552,100.0,63777.0,1.0
15:31:35.416078,196897.78125,174660.828125,233299.828125,204605.90625,197665.0625,168698.71875,686463.5,199855.0,0.099853515625,0.978759765625,-0.23779296875,-1.4953612089157104,0.2441406100988388,0.7324218153953552,100.0,63778.0,1.0
15:31:35.427949,196899.203125,174664.671875,233300.28125,204598.21875,197663.8125,168705.875,686465.1875,199846.78125,0.09912109375,0.979248046875,-0.2373046875,-1.4648436307907104,0.2746581733226776,0.6713866591453552,100.0,63779.0,1.0
15:31:35.427961,196890.71875,174651.890625,233285.703125,204595.890625,197651.03125,168671.640625,686454.625,199851.875,0.09912109375,0.97802734375,-0.239013671875,-1.4038084745407104,0.2746581733226776,0.7324218153953552,100.0,63780.0,1.0
15:31:35.433031,196888.296875,174650.546875,233281.140625,204593.03125,197647.1875,168660.375,686449.9375,199850.359375,0.098388671875,0.9775390625,-0.238037109375,-1.4648436307907104,0.2441406100988388,0.8239745497703552,100.0,63781.0,1.0
15:31:35.433038,196889.734375,174654.9375,233287.9375,204592.765625,197658.546875,168691.390625,686467.375,199848.203125,0.1005859375,0.9794921875,-0.24072265625,-1.5258787870407104,0.1525878757238388,0.7934569716453552,100.0,63782.0,1.0
15:31:35.434867,196884.8125,174649.828125,233281.234375,204580.609375,197652.28125,168696.9375,686449.9375,199833.640625,0.099609375,0.97802734375,-0.240234375,-1.5563963651657104,0.1831054538488388,0.7629393935203552,100.0,63783.0,1.0
15:31:35.447980,196877.03125,174637.234375,233265.59375,204575.953125,197638.875,168663.046875,686458.5625,199834.796875,0.09814453125,0.977783203125,-0.239013671875,-1.6479490995407104,0.2746581733226776,0.7019042372703552,100.0,63784.0,1.0
15:31:35.447995,196876.3125,174633.203125,233262.640625,204579.453125,197632.96875,168642.9375,686445.875,199839.453125,0.0986328125,0.978271484375,-0.23828125,-1.5563963651657104,0.3051757514476776,0.7019042372703552,100.0,63785.0,1.0
15:31:35.450414,196880.796875,174638.921875,233273.015625,204580.078125,197644.0625,168670.03125,686489.3125,199839.265625,0.097900390625,0.9765625,-0.2373046875,-1.4648436307907104,0.1525878757238388,0.6408690810203552,100.0,63786.0,1.0
15:31:35.450428,196884.546875,174645.0,233279.796875,204579.359375,197650.578125,168692.109375,686467.0,199834.53125,0.099365234375,0.97705078125,-0.23828125,-1.4953612089157104,0.1831054538488388,0.7019042372703552,100.0,63787.0,1.0
15:31:35.457440,196881.6875,174640.890625,233270.234375,204578.375,197641.640625,168670.921875,686477.0625,199835.609375,0.1005859375,0.978759765625,-0.239013671875,-1.4343260526657104,0.0915527269244194,0.6713866591453552,100.0,63788.0,1.0
15:31:35.461675,196877.296875,174632.671875,233261.828125,204579.890625,197631.984375,168644.90625,686444.25,199839.53125,0.09912109375,0.977783203125,-0.24169921875,-1.4343260526657104,0.1525878757238388,0.7629393935203552,100.0,63789.0,1.0
15:31:35.461692,196879.1875,174635.078125,233266.03125,204574.796875,197637.984375,168662.15625,686484.625,199834.4375,0.1005859375,0.978515625,-0.24267578125,-1.4953612089157104,0.2136230319738388,0.6713866591453552,100.0,63790.0,1.0
15:31:35.469874,196881.59375,174642.0625,233278.109375,204572.828125,197648.703125,168687.640625,686459.3125,199830.5,0.099609375,0.977783203125,-0.24365234375,-1.4038084745407104,0.1525878757238388,0.7019042372703552,100.0,63791.0,1.0
15:31:35.474293,196883.296875,174642.140625,233276.671875,204572.03125,197643.34375,168673.78125,686480.5625,199832.734375,0.10107421875,0.978515625,-0.240478515625,-1.3732908964157104,0.1220703050494194,0.6103515028953552,100.0,63792.0,1.0
15:31:35.474318,196882.3125,174633.296875,233270.5,204579.0,197638.25,168645.34375,686438.0,199845.171875,0.1015625,0.979248046875,-0.2392578125,-1.4038084745407104,0.2136230319738388,0.6713866591453552,100.0,63793.0,1.0
15:31:35.479972,196893.484375,174646.796875,233281.6875,204585.34375,197650.5,168665.5625,686492.625,199849.375,0.1015625,0.9775390625,-0.23974609375,-1.4648436307907104,0.2136230319738388,0.6713866591453552,100.0,63794.0,1.0
15:31:35.482321,196900.1875,174655.734375,233295.546875,204591.96875,197666.59375,168699.703125,686471.375,199851.78125,0.101806640625,0.978515625,-0.241943359375,-1.3427733182907104,0.1220703050494194,0.7324218153953552,100.0,63795.0,1.0
15:31:35.491079,196893.3125,174647.953125,233281.953125,204580.609375,197650.3125,168683.96875,686481.5625,199839.984375,0.10009765625,0.979736328125,-0.23974609375,-1.3732908964157104,0.0915527269244194,0.7019042372703552,100.0,63796.0,1.0
15:31:35.495484,196895.546875,174644.296875,233278.546875,204593.390625,197647.359375,168656.96875,686449.75,199856.25,0.1025390625,0.978515625,-0.2392578125,-1.3122557401657104,0.0610351525247097,0.6408690810203552,100.0,63797.0,1.0
15:31:35.495513,196902.15625,174653.671875,233286.78125,204600.640625,197656.484375,168669.671875,686485.5625,199860.375,0.1005859375,0.977783203125,-0.240234375,-1.3122557401657104,0.1220703050494194,0.6713866591453552,100.0,63798.0,1.0
15:31:35.509552,196908.953125,174667.453125,233303.765625,204606.8125,197676.515625,168710.53125,686478.3125,199864.84375,0.100830078125,0.978515625,-0.239990234375,-1.3122557401657104,0.1831054538488388,0.6103515028953552,100.0,63799.0,1.0
15:31:35.509592,196914.9375,174674.328125,233306.984375,204609.484375,197680.0,168721.4375,686488.8125,199866.890625,0.10205078125,0.979736328125,-0.2421875,-1.4038084745407104,0.1831054538488388,0.5493163466453552,100.0,63800.0,1.0
15:31:35.509601,196912.796875,174667.71875,233300.640625,204616.1875,197674.015625,168709.015625,686475.6875,199880.125,0.100830078125,0.98095703125,-0.24072265625,-1.3732908964157104,0.1831054538488388,0.4272460639476776,100.0,63801.0,1.0
15:31:35.521785,196915.484375,174668.703125,233300.90625,204616.28125,197673.390625,168707.21875,686487.3125,199881.640625,0.1015625,0.980712890625,-0.241943359375,-1.4343260526657104,0.1525878757238388,0.4882812201976776,100.0,63802.0,1.0
15:31:35.521795,196917.453125,174677.453125,233312.171875,204616.90625,197686.078125,168738.515625,686476.0,199878.515625,0.102294921875,0.9794921875,-0.24365234375,-1.4953612089157104,0.0915527269244194,0.5798339247703552,100.0,63803.0,1.0
15:31:35.521797,196910.203125,174671.734375,233303.859375,204598.9375,197675.625,168732.703125,686460.375,199860.09375,0.1015625,0.978759765625,-0.240234375,-1.5258787870407104,0.0915527269244194,0.4882812201976776,100.0,63804.0,1.0
15:31:35.528910,196899.5625,174655.203125,233289.546875,204598.21875,197659.53125,168689.34375,686454.3125,199862.953125,0.1005859375,0.979248046875,-0.238525390625,-1.5258787870407104,0.0610351525247097,0.4577636420726776,100.0,63805.0,1.0
15:31:35.528920,196890.453125,174643.21875,233276.859375,204593.578125,197647.984375,168664.21875,686441.4375,199858.3125,0.101806640625,0.98095703125,-0.2392578125,-1.5869139432907104,0.0915527269244194,0.5493163466453552,100.0,63806.0,1.0
15:31:35.528921,196895.0,174654.484375,233288.03125,204596.34375,197662.125,168696.3125,686464.375,199859.390625,0.101318359375,0.980712890625,-0.239013671875,-1.5869139432907104,0.0610351525247097,0.4272460639476776,100.0,63807.0,1.0
15:31:35.539900,196897.59375,174661.453125,233293.484375,204590.625,197666.671875,168713.03125,686453.75,199852.59375,0.10107421875,0.98046875,-0.24169921875,-1.5258787870407104,0.0610351525247097,0.5187987685203552,100.0,63808.0,1.0
15:31:35.542965,196892.859375,174651.4375,233280.78125,204587.578125,197654.96875,168683.34375,686469.75,199855.890625,0.10009765625,0.97900390625,-0.2421875,-1.4953612089157104,0.0610351525247097,0.5187987685203552,100.0,63809.0,1.0
15:31:35.542973,196886.0625,174640.796875,233270.6875,204586.234375,197644.421875,168658.5,686461.25,199855.984375,0.09912109375,0.97705078125,-0.241455078125,-1.4953612089157104,-0.03051757626235485,0.5493163466453552,100.0,63810.0,1.0
15:31:35.544851,196890.09375,174647.859375,233279.265625,204589.1875,197656.3125,168685.140625,686488.625,199855.1875,0.099365234375,0.978515625,-0.2431640625,-1.4953612089157104,0.0610351525247097,0.5798339247703552,100.0,63811.0,1.0
15:31:35.555602,196887.9375,174651.53125,233283.109375,204581.0625,197659.796875,168705.609375,686459.5625,199845.703125,0.099609375,0.980712890625,-0.2392578125,-1.5258787870407104,-0.03051757626235485,0.5493163466453552,100.0,63812.0,1.0
15:31:35.557899,196881.6875,174641.703125,233269.25,204574.703125,197646.03125,168680.21875,686472.5,199843.46875,0.099609375,0.979736328125,-0.240966796875,-1.4953612089157104,0.0,0.5798339247703552,100.0,63813.0,1.0
15:31:35.557904,196881.234375,174637.578125,233264.0625,204581.40625,197639.59375,168656.796875,686437.9375,199853.125,0.098876953125,0.981201171875,-0.23974609375,-1.5258787870407104,-0.0610351525247097,0.6103515028953552,100.0,63814.0,1.0
15:31:35.559893,196884.71875,174644.296875,233272.5625,204579.890625,197647.015625,168676.015625,686486.5625,199851.25,0.099853515625,0.980224609375,-0.242431640625,-1.5563963651657104,-0.0610351525247097,0.6408690810203552,100.0,63815.0,1.0
15:31:35.569864,196884.8125,174648.84375,233280.34375,204576.234375,197654.15625,168701.3125,686461.6875,199844.1875,0.0966796875,0.97998046875,-0.238525390625,-1.5258787870407104,-0.1525878757238388,0.6103515028953552,100.0,63816.0,1.0
15:31:35.576801,196878.734375,174641.34375,233268.53125,204567.46875,197641.28125,168681.734375,686477.8125,199838.46875,0.09619140625,0.97998046875,-0.2392578125,-1.5258787870407104,-0.2441406100988388,0.5493163466453552,100.0,63817.0,1.0
15:31:35.576812,196876.3125,174633.5625,233261.921875,204572.828125,197634.671875,168651.34375,686439.25,199848.390625,0.095947265625,0.979248046875,-0.2392578125,-1.4648436307907104,-0.3356933295726776,0.6103515028953552,100.0,63818.0,1.0
15:31:35.578650,196876.234375,174636.875,233262.90625,204569.96875,197637.359375,168662.609375,686493.125,199842.75,0.095703125,0.976806640625,-0.237548828125,-1.4953612089157104,-0.2136230319738388,0.6103515028953552,100.0,63819.0,1.0
15:31:35.589893,196879.359375,174644.640625,233273.71875,204570.421875,197648.96875,168695.59375,686474.25,199839.0,0.0986328125,0.97412109375,-0.240478515625,-1.4953612089157104,-0.3662109076976776,0.4577636420726776,100.0,63820.0,1.0
15:31:35.594807,196882.21875,174648.5,233270.234375,204565.671875,197644.6875,168689.34375,686473.125,199835.515625,0.099365234375,0.973388671875,-0.239990234375,-1.4343260526657104,-0.4577636420726776,0.4272460639476776,100.0,63821.0,1.0
15:31:35.594812,196875.421875,174636.953125,233257.546875,204569.4375,197634.3125,168653.75,686436.0625,199844.0,0.10009765625,0.97314453125,-0.239990234375,-1.3122557401657104,-0.3967284858226776,0.4272460639476776,100.0,63822.0,1.0
15:31:35.594814,196877.21875,174638.125,233258.171875,204568.453125,197635.296875,168657.59375,686470.625,199842.578125,0.10009765625,0.974609375,-0.239990234375,-1.3122557401657104,-0.3662109076976776,0.5798339247703552,100.0,63823.0,1.0
15:31:35.602361,196879.8125,174646.703125,233271.3125,204570.953125,197650.234375,168694.703125,686465.4375,199840.96875,0.102783203125,0.974609375,-0.24072265625,-1.2512205839157104,-0.3662109076976776,0.5798339247703552,100.0,63824.0,1.0
15:31:35.604852,196880.96875,174649.921875,233270.328125,204565.671875,197648.53125,168698.015625,686474.9375,199832.03125,0.103271484375,0.975341796875,-0.239501953125,-1.1596678495407104,-0.2136230319738388,0.6408690810203552,100.0,63825.0,1.0
15:31:35.607326,196878.015625,174642.40625,233262.546875,204570.6875,197641.640625,168666.1875,686451.25,199844.359375,0.10205078125,0.97705078125,-0.24072265625,-1.1291502714157104,-0.2746581733226776,0.6713866591453552,100.0,63826.0,1.0
15:31:35.609820,196879.453125,174644.203125,233261.390625,204573.015625,197639.859375,168659.65625,686457.25,199846.234375,0.1005859375,0.979736328125,-0.23876953125,-1.1596678495407104,-0.2746581733226776,0.6713866591453552,100.0,63827.0,1.0
15:31:35.619865,196885.703125,174653.328125,233276.5,204580.875,197658.09375,168696.3125,686479.5625,199849.90625,0.100830078125,0.97802734375,-0.241455078125,-1.0986326932907104,-0.2746581733226776,0.7019042372703552,100.0,63828.0,1.0
15:31:35.622884,196891.34375,174657.96875,233285.703125,204582.9375,197661.671875,168705.796875,686472.875,199846.421875,0.100341796875,0.9794921875,-0.244140625,-1.1901854276657104,-0.2746581733226776,0.5493163466453552,100.0,63829.0,1.0
15:31:35.622889,196888.75,174648.046875,233275.59375,204587.84375,197652.734375,168673.953125,686470.5,199855.71875,0.099609375,0.978515625,-0.241943359375,-1.1291502714157104,-0.1525878757238388,0.4577636420726776,100.0,63830.0,1.0
15:31:35.624824,196887.671875,174643.84375,233269.4375,204588.921875,197647.640625,168658.5,686456.1875,199856.96875,0.09765625,0.978515625,-0.24267578125,-1.0986326932907104,-0.2136230319738388,0.4272460639476776,100.0,63831.0,1.0
15:31:35.672952,196891.609375,174653.40625,233280.96875,204591.15625,197661.578125,168690.765625,686482.375,199857.0625,0.0986328125,0.978271484375,-0.247314453125,-1.0986326932907104,-0.2441406100988388,0.5493163466453552,100.0,63832.0,1.0
15:31:35.672973,196896.4375,174661.640625,233290.078125,204590.09375,197667.296875,168711.515625,686476.75,199852.5,0.09912109375,0.98046875,-0.24560546875,-1.1596678495407104,-0.2746581733226776,0.4882812201976776,100.0,63833.0,1.0
15:31:35.677311,196896.96875,174658.59375,233283.46875,204591.78125,197660.6875,168688.71875,686475.3125,199858.84375,0.10107421875,0.981689453125,-0.2431640625,-1.2207030057907104,-0.2136230319738388,0.5187987685203552,100.0,63834.0,1.0
15:31:35.683169,196891.078125,174649.296875,233271.84375,204588.75,197650.3125,168662.703125,686442.0625,199858.40625,0.1025390625,0.9814453125,-0.24267578125,-1.1901854276657104,-0.2441406100988388,0.5493163466453552,100.0,63835.0,1.0
15:31:35.683182,196896.796875,174656.265625,233281.6875,204591.25,197660.953125,168688.09375,686482.75,199858.578125,0.102294921875,0.982421875,-0.242431640625,-1.2207030057907104,-0.2441406100988388,0.5798339247703552,100.0,63836.0,1.0
15:31:35.684838,196900.640625,174663.328125,233290.0,204590.796875,197669.0,168712.234375,686456.8125,199853.75,0.1025390625,0.983642578125,-0.241455078125,-1.2817381620407104,-0.2441406100988388,0.6103515028953552,100.0,63837.0,1.0
15:31:35.687306,196897.515625,174657.796875,233279.171875,204586.234375,197657.828125,168688.890625,686467.625,199851.78125,0.099609375,0.984619140625,-0.24365234375,-1.3122557401657104,-0.2136230319738388,0.4272460639476776,100.0,63838.0,1.0
15:31:35.691019,196896.078125,174653.5,233272.296875,204591.15625,197650.9375,168664.65625,686421.0625,199858.84375,0.101318359375,0.985107421875,-0.24365234375,-1.4038084745407104,-0.2136230319738388,0.5187987685203552,100.0,63839.0,1.0
15:31:35.691029,196900.546875,174663.0625,233278.8125,204589.453125,197658.1875,168684.6875,686479.5,199855.265625,0.100830078125,0.985595703125,-0.243408203125,-1.3732908964157104,-0.1525878757238388,0.3967284858226776,100.0,63840.0,1.0
15:31:35.691032,196903.671875,174669.953125,233287.9375,204587.671875,197667.390625,168713.75,686451.1875,199851.0625,0.098876953125,0.984130859375,-0.240478515625,-1.4648436307907104,-0.1831054538488388,0.2136230319738388,100.0,63841.0,1.0
15:31:35.694191,196900.375,174665.5625,233278.90625,204579.796875,197656.125,168698.640625,686469.875,199844.8125,0.095947265625,0.984619140625,-0.242431640625,-1.5258787870407104,-0.2136230319738388,0.1525878757238388,100.0,63842.0,1.0
15:31:35.694211,196894.921875,174654.03125,233270.140625,204585.796875,197647.640625,168666.546875,686457.9375,199853.03125,0.095947265625,0.983154296875,-0.24072265625,-1.6479490995407104,-0.2441406100988388,0.1831054538488388,100.0,63843.0,1.0
15:31:35.696662,196898.84375,174660.390625,233276.9375,204590.359375,197652.546875,168680.125,686484.3125,199851.0625,0.095947265625,0.983154296875,-0.239501953125,-1.6479490995407104,-0.2746581733226776,0.0915527269244194,100.0,63844.0,1.0
15:31:35.696676,196903.140625,174668.078125,233293.484375,204594.921875,197667.296875,168713.125,686452.125,199850.078125,0.09765625,0.98291015625,-0.23779296875,-1.8005369901657104,-0.2441406100988388,0.0610351525247097,100.0,63845.0,1.0
15:31:35.698612,196903.859375,174667.0,233289.8125,204590.4375,197660.953125,168705.34375,686477.375,199846.0625,0.09716796875,0.9794921875,-0.23974609375,-1.8005369901657104,-0.3662109076976776,0.03051757626235485,100.0,63846.0,1.0
15:31:35.701755,196901.4375,174663.328125,233284.09375,204596.609375,197654.703125,168676.828125,686436.75,199859.203125,0.097412109375,0.977783203125,-0.23974609375,-1.8310545682907104,-0.3356933295726776,0.1220703050494194,100.0,63847.0,1.0
15:31:35.701761,196901.09375,174667.09375,233281.328125,204591.875,197655.0625,168678.25,686466.0,199856.609375,0.1005859375,0.97705078125,-0.240478515625,-1.9531248807907104,-0.3662109076976776,0.1525878757238388,100.0,63848.0,1.0
15:31:35.703579,196906.453125,174676.921875,233295.890625,204592.671875,197671.78125,168713.75,686467.8125,199857.234375,0.10009765625,0.9765625,-0.24072265625,-1.8310545682907104,-0.3662109076976776,0.2136230319738388,100.0,63849.0,1.0
15:31:35.706125,196911.28125,174682.375,233298.578125,204585.890625,197671.140625,168718.75,686479.875,199852.671875,0.1015625,0.9775390625,-0.239501953125,-1.9226073026657104,-0.3051757514476776,0.3662109076976776,100.0,63850.0,1.0
15:31:35.712422,196909.671875,174672.625,233289.109375,204591.703125,197664.359375,168686.203125,686447.9375,199865.28125,0.103515625,0.9765625,-0.238037109375,-1.8615721464157104,-0.2441406100988388,0.4882812201976776,100.0,63851.0,1.0
15:31:35.715427,196908.953125,174673.171875,233286.15625,204589.90625,197661.21875,168677.71875,686461.375,199864.21875,0.10400390625,0.975830078125,-0.236572265625,-1.8615721464157104,-0.2136230319738388,0.5493163466453552,100.0,63852.0,1.0
15:31:35.715435,196913.515625,174685.6875,233299.203125,204590.796875,197675.34375,168714.109375,686461.0625,199863.59375,0.105224609375,0.97607421875,-0.236083984375,-1.8615721464157104,-0.1525878757238388,0.5187987685203552,100.0,63853.0,1.0
15:31:35.717384,196911.640625,174684.609375,233296.515625,204581.953125,197671.78125,168720.71875,686466.25,199852.40625,0.105712890625,0.975341796875,-0.238037109375,-1.8005369901657104,-0.0915527269244194,0.6713866591453552,100.0,63854.0,1.0
15:31:35.732382,196908.5,174676.484375,233287.3125,204588.5625,197663.734375,168693.359375,686463.125,199858.40625,0.10400390625,0.974853515625,-0.235595703125,-1.8310545682907104,-0.0610351525247097,0.7019042372703552,100.0,63855.0,1.0
15:31:35.735465,196909.578125,174675.21875,233283.640625,204596.53125,197661.671875,168681.46875,686463.3125,199862.515625,0.103759765625,0.977783203125,-0.23876953125,-1.7700194120407104,0.0610351525247097,0.7629393935203552,100.0,63856.0,1.0
15:31:35.735477,196907.078125,174674.0625,233287.671875,204586.78125,197666.953125,168705.25,686497.75,199857.234375,0.1005859375,0.97802734375,-0.242431640625,-1.7395018339157104,0.0610351525247097,0.8239745497703552,100.0,63857.0,1.0
15:31:35.756670,196910.65625,174681.21875,233296.171875,204583.65625,197673.296875,168724.828125,686467.0625,199853.390625,0.10009765625,0.978515625,-0.239013671875,-1.7395018339157104,0.0610351525247097,0.8544921278953552,100.0,63858.0,1.0
15:31:35.756687,196911.640625,174679.25,233291.6875,204592.328125,197668.203125,168702.65625,686474.125,199860.90625,0.098388671875,0.9775390625,-0.239013671875,-1.8005369901657104,0.1831054538488388,0.8850097060203552,100.0,63859.0,1.0
15:31:35.756690,196908.0625,174672.984375,233284.8125,204598.484375,197662.125,168679.421875,686446.3125,199864.921875,0.0986328125,0.977783203125,-0.239013671875,-1.7089842557907104,0.0610351525247097,0.9460448622703552,100.0,63860.0,1.0
15:31:35.756693,196909.21875,174679.15625,233292.671875,204594.203125,197669.53125,168703.546875,686509.1875,199860.8125,0.097900390625,0.97998046875,-0.239013671875,-1.7089842557907104,0.1831054538488388,0.9460448622703552,100.0,63861.0,1.0
15:31:35.759029,196916.109375,174689.0,233307.078125,204593.9375,197679.734375,168730.375,686479.6875,199860.015625,0.097900390625,0.981689453125,-0.23681640625,-1.7700194120407104,0.2441406100988388,1.0070799589157104,100.0,63862.0,1.0
15:31:35.761665,196916.90625,174684.53125,233298.484375,204591.25,197670.25,168709.015625,686486.125,199861.265625,0.097900390625,0.97900390625,-0.239990234375,-1.8005369901657104,0.2441406100988388,1.0375975370407104,100.0,63863.0,1.0
15:31:35.761677,196909.578125,174672.28125,233284.546875,204591.34375,197658.984375,168676.015625,686433.375,199864.75,0.097900390625,0.980712890625,-0.238525390625,-1.8615721464157104,0.2136230319738388,0.9460448622703552,100.0,63864.0,1.0
15:31:35.763610,196912.890625,174679.875,233288.828125,204594.28125,197664.796875,168694.703125,686492.5625,199862.328125,0.098388671875,0.98046875,-0.239990234375,-1.8005369901657104,0.2136230319738388,0.8544921278953552,100.0,63865.0,1.0
15:31:35.772301,196911.8125,174681.03125,233294.5625,204592.671875,197672.21875,168721.796875,686469.875,199855.625,0.099853515625,0.978515625,-0.24169921875,-1.7700194120407104,0.1831054538488388,0.7934569716453552,100.0,63866.0,1.0
15:31:35.776703,196908.234375,174677.1875,233285.796875,204586.6875,197660.859375,168707.578125,686487.5625,199849.546875,0.100341796875,0.978759765625,-0.239990234375,-1.6784666776657104,0.2136230319738388,0.6408690810203552,100.0,63867.0,1.0
15:31:35.776708,196906.625,174669.859375,233281.234375,204597.5,197653.796875,168678.609375,686453.75,199860.90625,0.10205078125,0.978271484375,-0.238037109375,-1.6784666776657104,0.0610351525247097,0.5798339247703552,100.0,63868.0,1.0
15:31:35.782304,196908.234375,174671.203125,233281.234375,204591.703125,197654.78125,168684.6875,686495.3125,199855.265625,0.101806640625,0.9794921875,-0.236572265625,-1.6479490995407104,0.03051757626235485,0.4882812201976776,100.0,63869.0,1.0
15:31:35.811818,196909.484375,174676.484375,233288.921875,204590.0,197666.234375,168714.90625,686472.625,199852.859375,0.102294921875,0.979248046875,-0.236328125,-1.5258787870407104,0.0610351525247097,0.5187987685203552,100.0,63870.0,1.0
15:31:35.811831,196909.84375,174677.90625,233286.328125,204583.5625,197662.125,168710.171875,686477.8125,199848.203125,0.102783203125,0.98095703125,-0.23681640625,-1.4953612089157104,0.0915527269244194,0.5187987685203552,100.0,63871.0,1.0
15:31:35.813673,196905.109375,174669.59375,233279.265625,204588.125,197654.96875,168679.859375,686438.9375,199857.953125,0.101806640625,0.9775390625,-0.239013671875,-1.4038084745407104,0.1525878757238388,0.4577636420726776,100.0,63872.0,1.0
15:31:35.816080,196906.71875,174672.09375,233280.34375,204594.375,197656.578125,168683.34375,686468.6875,199856.796875,0.103271484375,0.976318359375,-0.2392578125,-1.3732908964157104,0.2746581733226776,0.3967284858226776,100.0,63873.0,1.0
15:31:35.818653,196912.265625,174681.9375,233298.046875,204599.390625,197673.390625,168720.546875,686462.3125,199858.765625,0.10498046875,0.97705078125,-0.239013671875,-1.3732908964157104,0.3051757514476776,0.5187987685203552,100.0,63874.0,1.0
15:31:35.821196,196916.375,174688.28125,233306.265625,204589.015625,197674.90625,168726.984375,686476.375,199856.25,0.104248046875,0.977783203125,-0.240234375,-1.2817381620407104,0.3356933295726776,0.4882812201976776,100.0,63875.0,1.0
15:31:35.823573,196917.265625,174684.078125,233301.703125,204595.0,197671.953125,168699.625,686452.25,199871.28125,0.101806640625,0.977294921875,-0.242431640625,-1.2207030057907104,0.3356933295726776,0.4882812201976776,100.0,63876.0,1.0
15:31:35.826207,196908.59375,174671.65625,233286.515625,204585.890625,197656.84375,168679.5,686449.75,199860.640625,0.10302734375,0.9775390625,-0.240966796875,-1.2512205839157104,0.3967284858226776,0.5493163466453552,100.0,63877.0,1.0
15:31:35.828585,196905.109375,174669.859375,233288.46875,204582.484375,197663.109375,168703.28125,686460.8125,199853.9375,0.102294921875,0.97802734375,-0.239501953125,-1.1291502714157104,0.3967284858226776,0.5798339247703552,100.0,63878.0,1.0
15:31:35.831194,196907.96875,174676.484375,233292.140625,204578.46875,197666.40625,168716.609375,686463.6875,199847.3125,0.102783203125,0.977294921875,-0.24072265625,-1.0986326932907104,0.4882812201976776,0.4577636420726776,100.0,63879.0,1.0
15:31:35.834390,196904.03125,174667.71875,233280.96875,204579.890625,197657.203125,168685.9375,686464.5,199854.46875,0.1005859375,0.978271484375,-0.2412109375,-1.0986326932907104,0.5493163466453552,0.4882812201976776,100.0,63880.0,1.0
15:31:35.834411,196903.59375,174664.765625,233275.875,204583.828125,197652.8125,168672.0,686458.375,199856.25,0.100341796875,0.978515625,-0.2431640625,-1.1291502714157104,0.5798339247703552,0.4577636420726776,100.0,63881.0,1.0
15:31:35.836906,196901.53125,174668.15625,233280.515625,204582.21875,197659.890625,168699.0,686477.0,199850.265625,0.09912109375,0.9814453125,-0.241943359375,-1.0986326932907104,0.5798339247703552,0.4272460639476776,100.0,63882.0,1.0
15:31:35.836923,196902.421875,174671.828125,233286.421875,204581.6875,197663.28125,168716.25,686453.9375,199843.203125,0.098876953125,0.98046875,-0.24267578125,-1.0986326932907104,0.5493163466453552,0.3967284858226776,100.0,63883.0,1.0
15:31:35.838968,196905.90625,174671.015625,233283.375,204589.1875,197659.53125,168694.875,686471.25,199852.046875,0.096435546875,0.98193359375,-0.24169921875,-1.1291502714157104,0.4882812201976776,0.4577636420726776,100.0,63884.0,1.0
15:31:35.849249,196904.390625,174665.03125,233276.3125,204590.171875,197652.109375,168669.21875,686444.8125,199857.0625,0.095703125,0.98193359375,-0.242919921875,-1.0986326932907104,0.3356933295726776,0.3356933295726776,100.0,63885.0,1.0
15:31:35.849269,196906.546875,174668.515625,233282.671875,204587.671875,197660.59375,168690.40625,686470.75,199853.296875,0.095703125,0.981689453125,-0.240234375,-1.1596678495407104,0.3967284858226776,0.3662109076976776,100.0,63886.0,1.0
15:31:35.851064,196910.109375,174677.8125,233306.265625,204585.96875,197669.71875,168718.21875,686454.8125,199850.796875,0.09716796875,0.98291015625,-0.240234375,-1.0681151151657104,0.3051757514476776,0.1831054538488388,100.0,63887.0,1.0
15:31:35.854833,196909.40625,174675.671875,233311.453125,204581.328125,197660.59375,168699.4375,686485.25,199850.796875,0.095458984375,0.983642578125,-0.242431640625,-1.0986326932907104,0.3051757514476776,0.2136230319738388,100.0,63888.0,1.0
15:31:35.870441,196904.65625,174665.484375,233303.671875,204582.9375,197650.859375,168667.703125,686449.9375,199856.4375,0.094482421875,0.983154296875,-0.2431640625,-1.1901854276657104,0.1220703050494194,0.1831054538488388,100.0,63889.0,1.0
15:31:35.870450,196904.390625,174669.59375,233306.71875,204576.859375,197653.625,168683.078125,686482.0,199849.546875,0.0966796875,0.9814453125,-0.2392578125,-1.2512205839157104,0.03051757626235485,0.2441406100988388,100.0,63890.0,1.0
15:31:35.872999,196902.875,174674.6875,233312.4375,204573.546875,197660.421875,168711.515625,686445.0625,199842.578125,0.09814453125,0.979248046875,-0.239013671875,-1.2512205839157104,0.0915527269244194,0.2746581733226776,100.0,63891.0,1.0
15:31:35.873013,196902.421875,174672.0,233306.71875,204567.90625,197652.546875,168700.15625,686462.625,199839.890625,0.099853515625,0.978271484375,-0.23876953125,-1.2512205839157104,-0.03051757626235485,0.3662109076976776,100.0,63892.0,1.0
15:31:35.874989,196897.515625,174660.65625,233296.078125,204571.84375,197642.71875,168666.8125,686422.5625,199847.9375,0.100341796875,0.976318359375,-0.241943359375,-1.1901854276657104,-0.0915527269244194,0.3967284858226776,100.0,63893.0,1.0
15:31:35.877404,196896.34375,174660.46875,233293.65625,204567.46875,197642.453125,168671.453125,686480.0625,199843.203125,0.098388671875,0.974609375,-0.241455078125,-1.2512205839157104,-0.03051757626235485,0.4272460639476776,100.0,63894.0,1.0
15:31:35.892364,196901.09375,174669.421875,233306.453125,204571.578125,197657.203125,168707.125,686468.4375,199845.4375,0.10009765625,0.97509765625,-0.24462890625,-1.3427733182907104,-0.0610351525247097,0.4272460639476776,100.0,63895.0,1.0
15:31:35.895418,196904.75,174674.0625,233306.09375,204569.078125,197653.984375,168707.75,686469.5,199841.6875,0.1025390625,0.9775390625,-0.242431640625,-1.3427733182907104,-0.03051757626235485,0.5493163466453552,100.0,63896.0,1.0
15:31:35.895432,196904.125,174667.359375,233299.390625,204575.25,197647.8125,168678.609375,686442.5,199852.59375,0.10205078125,0.975341796875,-0.244384765625,-1.2512205839157104,-0.0610351525247097,0.7019042372703552,100.0,63897.0,1.0
15:31:35.897650,196907.609375,174667.53125,233301.265625,204579.09375,197651.65625,168677.71875,686469.3125,199855.0,0.101806640625,0.978759765625,-0.241455078125,-1.2207030057907104,-0.1525878757238388,0.7629393935203552,100.0,63898.0,1.0
15:31:35.904737,196914.140625,174679.78125,233315.203125,204583.734375,197671.0625,168717.140625,686470.5,199857.5,0.09716796875,0.978515625,-0.245361328125,-1.2512205839157104,-0.0915527269244194,0.7934569716453552,100.0,63899.0,1.0
15:31:35.920239,196912.890625,174682.640625,233312.34375,204575.421875,197667.390625,168719.46875,686467.1875,199848.203125,0.09716796875,0.977783203125,-0.24169921875,-1.1901854276657104,-0.0915527269244194,0.8239745497703552,100.0,63900.0,1.0
15:31:35.920267,196907.515625,174682.28125,233302.515625,204578.203125,197656.390625,168686.65625,686458.5625,199855.984375,0.0966796875,0.97802734375,-0.2431640625,-1.2817381620407104,-0.1525878757238388,0.7324218153953552,100.0,63901.0,1.0
15:31:35.920274,196902.96875,174681.65625,233292.140625,204572.65625,197647.453125,168672.171875,686459.5,199850.890625,0.09423828125,0.9794921875,-0.244873046875,-1.2207030057907104,-0.1831054538488388,0.6408690810203552,100.0,63902.0,1.0
15:31:35.920280,196906.09375,174685.0625,233304.75,204573.09375,197662.125,168704.265625,686469.25,199851.78125,0.094482421875,0.97900390625,-0.24169921875,-1.2817381620407104,-0.2136230319738388,0.5493163466453552,100.0,63903.0,1.0
15:31:35.926899,196908.5,174684.96875,233312.171875,204566.84375,197664.984375,168717.5,686467.1875,199845.890625,0.095703125,0.979736328125,-0.242431640625,-1.3732908964157104,-0.3356933295726776,0.4577636420726776,100.0,63904.0,1.0
15:31:35.926912,196903.234375,174673.703125,233301.796875,204565.140625,197654.15625,168686.484375,686467.0625,199850.625,0.0966796875,0.98046875,-0.237548828125,-1.3427733182907104,-0.2746581733226776,0.3356933295726776,100.0,63905.0,1.0
15:31:35.929267,196897.234375,174664.234375,233294.109375,204566.578125,197643.078125,168663.953125,686447.75,199849.734375,0.09716796875,0.98046875,-0.240966796875,-1.4343260526657104,-0.3356933295726776,0.3051757514476776,100.0,63906.0,1.0
15:31:35.929274,196892.328125,174663.515625,233298.40625,204568.8125,197647.453125,168688.4375,686477.8125,199841.40625,0.09814453125,0.979736328125,-0.24267578125,-1.4953612089157104,-0.5187987685203552,0.2746581733226776,100.0,63907.0,1.0
15:31:35.938698,196899.921875,174676.484375,233310.109375,204569.515625,197656.671875,168714.109375,686456.1875,199839.09375,0.09765625,0.979736328125,-0.244140625,-1.4648436307907104,-0.5493163466453552,0.3662109076976776,100.0,63908.0,1.0
15:31:35.949293,196899.03125,174676.296875,233302.421875,204566.390625,197648.53125,168690.953125,686477.1875,199842.125,0.099609375,0.98193359375,-0.242431640625,-1.5563963651657104,-0.6103515028953552,0.3356933295726776,100.0,63909.0,1.0
15:31:35.949313,196895.8125,174673.796875,233295.359375,204573.375,197640.484375,168665.015625,686448.8125,199846.59375,0.10009765625,0.98193359375,-0.242919921875,-1.7089842557907104,-0.5187987685203552,0.2441406100988388,100.0,63910.0,1.0
15:31:35.955765,196903.046875,174682.640625,233306.890625,204579.359375,197654.34375,168694.96875,686486.3125,199848.203125,0.1025390625,0.980712890625,-0.241943359375,-1.8310545682907104,-0.6103515028953552,0.3051757514476776,100.0,63911.0,1.0
15:31:35.955789,196907.4375,174687.921875,233316.734375,204577.03125,197663.109375,168721.96875,686456.6875,199844.625,0.10302734375,0.97900390625,-0.242431640625,-1.8615721464157104,-0.5187987685203552,0.4272460639476776,100.0,63912.0,1.0
15:31:35.970470,196905.109375,174680.765625,233304.84375,204571.046875,197652.1875,168699.625,686473.3125,199842.3125,0.103271484375,0.98046875,-0.24365234375,-1.8615721464157104,-0.4577636420726776,0.4577636420726776,100.0,63913.0,1.0
15:31:35.970488,196901.796875,174671.296875,233298.40625,204574.890625,197646.03125,168670.46875,686439.0,199850.71875,0.104736328125,0.979736328125,-0.244873046875,-1.8920897245407104,-0.3967284858226776,0.3967284858226776,100.0,63914.0,1.0
15:31:35.973672,196904.578125,174676.5625,233302.953125,204570.859375,197650.578125,168686.828125,686481.1875,199847.671875,0.1064453125,0.9794921875,-0.244384765625,-1.8615721464157104,-0.2746581733226776,0.4272460639476776,100.0,63915.0,1.0
15:31:35.973679,196904.65625,174679.25,233310.109375,204568.359375,197659.890625,168713.5625,686448.75,199842.75,0.10595703125,0.9814453125,-0.24560546875,-1.9836424589157104,-0.2136230319738388,0.4882812201976776,100.0,63916.0,1.0
15:31:35.973681,196900.546875,174675.140625,233300.8125,204559.6875,197650.671875,168699.625,686468.4375,199836.765625,0.104248046875,0.984130859375,-0.246826171875,-1.9836424589157104,-0.1525878757238388,0.4882812201976776,100.0,63917.0,1.0
15:31:35.977899,196895.546875,174667.09375,233291.6875,204566.296875,197643.078125,168669.3125,686441.125,199847.671875,0.10498046875,0.983154296875,-0.24462890625,-1.9531248807907104,-0.1220703050494194,0.6713866591453552,100.0,63918.0,1.0
15:31:35.977904,196895.0,174666.640625,233290.4375,204573.546875,197643.15625,168672.890625,686474.4375,199844.625,0.10302734375,0.98046875,-0.243408203125,-1.8920897245407104,-0.0610351525247097,0.7019042372703552,100.0,63919.0,1.0
15:31:35.987370,196898.40625,174673.078125,233302.875,204584.71875,197657.5625,168706.953125,686461.8125,199843.828125,0.1025390625,0.980712890625,-0.2421875,-2.105712652206421,-0.03051757626235485,0.7019042372703552,100.0,63920.0,1.0
15:31:35.994256,196900.8125,174674.328125,233300.8125,204582.046875,197654.96875,168704.71875,686464.6875,199839.09375,0.102294921875,0.978759765625,-0.243408203125,-2.166747808456421,0.0,0.7629393935203552,100.0,63921.0,1.0
15:31:35.994267,196899.03125,174665.296875,233291.875,204581.328125,197649.0625,168673.609375,686443.3125,199850.984375,0.099609375,0.97998046875,-0.24462890625,-2.227782964706421,0.1525878757238388,0.7019042372703552,100.0,63922.0,1.0
15:31:35.996721,196903.59375,174669.421875,233293.03125,204578.828125,197650.3125,168674.140625,686458.6875,199853.75,0.1005859375,0.980712890625,-0.2431640625,-2.166747808456421,0.1525878757238388,0.6408690810203552,100.0,63923.0,1.0
15:31:35.996727,196909.125,174678.796875,233307.34375,204591.96875,197668.5625,168710.34375,686460.1875,199857.59375,0.10107421875,0.98095703125,-0.24267578125,-2.166747808456421,0.1831054538488388,0.5798339247703552,100.0,63924.0,1.0
15:31:36.027763,196910.734375,174683.984375,233309.578125,204590.890625,197668.640625,168717.859375,686463.5625,199850.890625,0.10009765625,0.98291015625,-0.238037109375,-2.227782964706421,0.1831054538488388,0.6103515028953552,100.0,63925.0,1.0
15:31:36.045429,196904.390625,174674.328125,233299.828125,204591.875,197658.71875,168686.484375,686446.3125,199857.59375,0.09912109375,0.983154296875,-0.2373046875,-2.319335699081421,0.1831054538488388,0.5187987685203552,100.0,63926.0,1.0
15:31:36.045442,196900.375,174667.8125,233291.421875,204589.375,197652.28125,168671.546875,686448.0625,199853.65625,0.097412109375,0.97998046875,-0.239990234375,-2.319335699081421,0.1831054538488388,0.5187987685203552,100.0,63927.0,1.0
15:31:36.048557,196904.9375,174678.265625,233303.578125,204587.578125,197666.59375,168707.484375,686486.375,199854.203125,0.098388671875,0.9794921875,-0.23876953125,-2.288818120956421,0.2136230319738388,0.4577636420726776,100.0,63928.0,1.0
15:31:36.048567,196909.484375,174685.421875,233309.390625,204578.734375,197669.8125,168722.859375,686478.25,199847.671875,0.09765625,0.9794921875,-0.240478515625,-2.319335699081421,0.2746581733226776,0.4272460639476776,100.0,63929.0,1.0
15:31:36.048568,196909.484375,174678.4375,233299.828125,204578.640625,197661.3125,168693.265625,686463.875,199854.203125,0.0986328125,0.980224609375,-0.24267578125,-2.380370855331421,0.1525878757238388,0.3051757514476776,100.0,63930.0,1.0
15:31:36.051253,196912.0,174677.546875,233297.15625,204581.328125,197658.546875,168677.53125,686443.5625,199859.109375,0.099365234375,0.980712890625,-0.2412109375,-2.380370855331421,0.0,0.3662109076976776,100.0,63931.0,1.0
15:31:36.053609,196915.390625,174685.234375,233306.984375,204581.5,197669.359375,168705.515625,686485.0625,199857.328125,0.098876953125,0.979736328125,-0.237548828125,-2.319335699081421,0.1525878757238388,0.2441406100988388,100.0,63932.0,1.0
15:31:36.056174,196915.65625,174690.515625,233312.34375,204575.78125,197674.015625,168724.75,686451.1875,199850.71875,0.0966796875,0.979736328125,-0.23876953125,-2.288818120956421,0.1220703050494194,0.1525878757238388,100.0,63933.0,1.0
15:31:36.061203,196912.890625,174683.1875,233301.625,204574.34375,197664.625,168701.3125,686471.1875,199854.203125,0.098876953125,0.979248046875,-0.237060546875,-2.288818120956421,0.0,0.0915527269244194,100.0,63934.0,1.0
15:31:36.063589,196908.78125,174673.796875,233292.40625,204576.859375,197655.40625,168675.125,686438.75,199859.921875,0.100830078125,0.97900390625,-0.23681640625,-2.258300542831421,0.1525878757238388,0.03051757626235485,100.0,63935.0,1.0
15:31:36.066166,196910.03125,174680.5,233298.84375,204578.828125,197663.453125,168697.390625,686485.3125,199858.21875,0.10009765625,0.980224609375,-0.239013671875,-2.258300542831421,0.0915527269244194,0.0,100.0,63936.0,1.0
15:31:36.068683,196912.265625,174689.703125,233307.609375,204578.734375,197673.734375,168726.265625,686467.0625,199853.75,0.099853515625,0.98095703125,-0.23779296875,-2.227782964706421,0.0,0.1220703050494194,100.0,63937.0,1.0
15:31:36.071137,196906.625,174678.09375,233294.90625,204568.984375,197660.6875,168703.015625,686488.4375,199848.75,0.098388671875,0.97998046875,-0.23876953125,-2.105712652206421,0.0,0.2136230319738388,100.0,63938.0,1.0
15:31:36.073843,196899.125,174666.015625,233283.375,204570.15625,197650.3125,168672.796875,686455.5625,199856.25,0.098876953125,0.978759765625,-0.2392578125,-2.105712652206421,-0.1831054538488388,0.2136230319738388,100.0,63939.0,1.0
15:31:36.076154,196899.484375,174671.921875,233285.25,204567.28125,197655.140625,168689.96875,686494.875,199853.390625,0.100830078125,0.97705078125,-0.235595703125,-2.044677495956421,0.0,0.2136230319738388,100.0,63940.0,1.0
15:31:36.078648,196898.21875,174674.515625,233291.609375,204563.796875,197662.390625,168716.703125,686460.4375,199846.78125,0.100341796875,0.9755859375,-0.237548828125,-2.105712652206421,0.03051757626235485,0.0915527269244194,100.0,63941.0,1.0
15:31:36.081739,196895.453125,174668.078125,233283.921875,204554.40625,197652.640625,168702.84375,686467.8125,199838.828125,0.099609375,0.9775390625,-0.237548828125,-2.044677495956421,0.0,0.1831054538488388,100.0,63942.0,1.0
15:31:36.081757,196896.171875,174663.953125,233279.796875,204563.0,197648.703125,168675.5625,686434.625,199851.875,0.099365234375,0.978759765625,-0.237060546875,-2.014159917831421,0.0,0.1831054538488388,100.0,63943.0,1.0
15:31:36.083652,196895.90625,174666.828125,233277.921875,204561.296875,197647.453125,168678.78125,686473.8125,199846.0625,0.100341796875,0.9794921875,-0.236328125,-1.9836424589157104,-0.03051757626235485,0.2441406100988388,100.0,63944.0,1.0
15:31:36.086116,196897.15625,174683.265625,233287.765625,204566.125,197659.890625,168712.671875,686455.5625,199843.921875,0.09765625,0.978515625,-0.2333984375,-1.9531248807907104,-0.0610351525247097,0.2136230319738388,100.0,63945.0,1.0
15:31:36.090427,196895.984375,174687.46875,233283.921875,204560.765625,197654.96875,168710.171875,686461.625,199836.140625,0.0986328125,0.97802734375,-0.23583984375,-2.014159917831421,-0.0610351525247097,0.2441406100988388,100.0,63946.0,1.0
15:31:36.090436,196887.40625,174671.65625,233268.71875,204560.40625,197642.8125,168674.5,686446.625,199843.375,0.09716796875,0.979736328125,-0.236572265625,-1.9226073026657104,-0.03051757626235485,0.3051757514476776,100.0,63947.0,1.0
15:31:36.099879,196885.4375,174666.203125,233263.984375,204553.34375,197637.625,168668.234375,686469.5625,199840.078125,0.096435546875,0.978515625,-0.237060546875,-1.8310545682907104,0.0,0.3356933295726776,100.0,63948.0,1.0
15:31:36.104301,196892.0625,174674.59375,233278.1875,204557.1875,197654.34375,168706.140625,686486.0,199842.125,0.096923828125,0.978759765625,-0.23828125,-1.8920897245407104,-0.2136230319738388,0.2441406100988388,100.0,63949.0,1.0
15:31:36.104311,196893.671875,174677.453125,233277.203125,204551.1875,197653.265625,168713.125,686469.875,199834.0,0.097900390625,0.977783203125,-0.238037109375,-1.8615721464157104,-0.1525878757238388,0.3051757514476776,100.0,63950.0,1.0
15:31:36.106113,196886.25,174665.296875,233262.640625,204552.71875,197640.484375,168679.0625,686466.0,199839.71875,0.098388671875,0.977783203125,-0.236328125,-1.8310545682907104,-0.2441406100988388,0.3051757514476776,100.0,63951.0,1.0
15:31:36.119847,196883.46875,174661.546875,233258.703125,204553.25,197634.484375,168666.1875,686455.5625,199838.546875,0.09765625,0.981201171875,-0.235107421875,-1.7089842557907104,-0.2746581733226776,0.3662109076976776,100.0,63952.0,1.0
15:31:36.124387,196884.8125,174667.625,233268.453125,204552.984375,197646.5625,168695.59375,686485.5,199835.875,0.097900390625,0.980224609375,-0.2353515625,-1.7089842557907104,-0.2441406100988388,0.3662109076976776,100.0,63953.0,1.0
15:31:36.124407,196884.453125,174670.3125,233268.71875,204547.078125,197647.640625,168708.03125,686473.8125,199826.484375,0.09765625,0.98046875,-0.234619140625,-1.7395018339157104,-0.2746581733226776,0.3356933295726776,100.0,63954.0,1.0
15:31:36.124415,196883.65625,174666.90625,233259.328125,204548.6875,197639.859375,168683.265625,686473.625,199832.109375,0.0986328125,0.978759765625,-0.234375,-1.7089842557907104,-0.2441406100988388,0.5493163466453552,100.0,63955.0,1.0
15:31:36.124857,196883.390625,174661.453125,233255.75,204553.078125,197635.75,168663.859375,686459.5625,199837.65625,0.0986328125,0.978759765625,-0.237060546875,-1.6174315214157104,-0.2136230319738388,0.3967284858226776,100.0,63956.0,1.0
15:31:36.128803,196886.328125,174666.640625,233268.53125,204554.0625,197645.40625,168689.875,686485.375,199837.03125,0.097900390625,0.9775390625,-0.237060546875,-1.6174315214157104,-0.2441406100988388,0.5187987685203552,100.0,63957.0,1.0
15:31:36.138596,196891.609375,174676.484375,233279.796875,204552.09375,197653.984375,168716.25,686458.5,199833.1875,0.09912109375,0.979248046875,-0.2373046875,-1.6174315214157104,-0.3051757514476776,0.5798339247703552,100.0,63958.0,1.0
15:31:36.143015,196893.75,174675.140625,233274.078125,204552.984375,197649.78125,168698.71875,686472.0,199839.171875,0.0966796875,0.980224609375,-0.23681640625,-1.6479490995407104,-0.1831054538488388,0.5493163466453552,100.0,63959.0,1.0
15:31:36.143036,196890.53125,174666.734375,233265.046875,204556.375,197643.4375,168671.71875,686437.375,199846.328125,0.0966796875,0.978515625,-0.238037109375,-1.5563963651657104,-0.2136230319738388,0.5187987685203552,100.0,63960.0,1.0
15:31:36.152453,196896.96875,174675.9375,233272.46875,204558.890625,197654.25,168695.78125,686483.4375,199847.3125,0.10009765625,0.978759765625,-0.236328125,-1.5563963651657104,-0.2136230319738388,0.5798339247703552,100.0,63961.0,1.0
15:31:36.156704,196899.75,174681.9375,233280.875,204558.171875,197663.734375,168723.578125,686456.875,199843.46875,0.0986328125,0.97802734375,-0.237060546875,-1.5258787870407104,-0.1831054538488388,0.6103515028953552,100.0,63962.0,1.0
15:31:36.156709,196897.515625,174680.046875,233272.296875,204553.875,197653.265625,168705.796875,686475.6875,199839.359375,0.099609375,0.9794921875,-0.23779296875,-1.5563963651657104,-0.1525878757238388,0.6713866591453552,100.0,63963.0,1.0
15:31:36.162377,196898.140625,174675.40625,233269.703125,204570.859375,197648.53125,168679.765625,686433.1875,199852.859375,0.1005859375,0.97998046875,-0.238525390625,-1.5258787870407104,-0.1220703050494194,0.7629393935203552,100.0,63964.0,1.0
15:31:36.165426,196899.75,174677.640625,233271.84375,204571.046875,197652.734375,168690.859375,686482.75,199851.515625,0.09912109375,0.979736328125,-0.239990234375,-1.4953612089157104,-0.0915527269244194,0.7019042372703552,100.0,63965.0,1.0
15:31:36.165430,196903.859375,174686.140625,233284.1875,204573.09375,197665.96875,168724.03125,686458.875,199851.515625,0.1005859375,0.98046875,-0.240234375,-1.5563963651657104,0.0,0.7934569716453552,100.0,63966.0,1.0
15:31:36.172434,196901.171875,174682.28125,233275.875,204565.328125,197654.96875,168712.234375,686466.875,199843.015625,0.10009765625,0.980224609375,-0.238525390625,-1.6174315214157104,0.03051757626235485,0.7019042372703552,100.0,63967.0,1.0
15:31:36.176699,196898.671875,174672.90625,233267.109375,204574.703125,197646.734375,168679.5,686432.1875,199851.875,0.099365234375,0.980224609375,-0.2431640625,-1.5563963651657104,0.0915527269244194,0.6408690810203552,100.0,63968.0,1.0
15:31:36.176707,196901.625,174676.296875,233267.203125,204574.4375,197647.359375,168684.515625,686466.625,199848.5625,0.10009765625,0.981689453125,-0.23974609375,-1.5869139432907104,0.1525878757238388,0.7324218153953552,100.0,63969.0,1.0
15:31:36.191115,196908.421875,174688.09375,233281.6875,204579.625,197664.359375,168721.96875,686455.625,199850.984375,0.1005859375,0.982177734375,-0.23681640625,-1.5258787870407104,0.1220703050494194,0.7019042372703552,100.0,63970.0,1.0
15:31:36.194203,196909.3125,174689.0,233279.890625,204571.125,197659.4375,168720.453125,686455.875,199843.015625,0.102294921875,0.981201171875,-0.23583984375,-1.4953612089157104,0.2441406100988388,0.6713866591453552,100.0,63971.0,1.0
15:31:36.194219,196906.453125,174679.703125,233270.953125,204573.28125,197650.3125,168686.921875,686440.4375,199851.25,0.100830078125,0.981201171875,-0.24072265625,-1.4648436307907104,0.3051757514476776,0.7324218153953552,100.0,63972.0,1.0
15:31:36.196387,196908.328125,174679.421875,233270.0625,204572.921875,197648.96875,168682.28125,686449.625,199850.984375,0.10009765625,0.980224609375,-0.237060546875,-1.4343260526657104,0.2441406100988388,0.6103515028953552,100.0,63973.0,1.0
15:31:36.199858,196914.234375,174689.53125,233284.0,204577.125,197666.5,168716.875,686463.125,199854.203125,0.099853515625,0.980712890625,-0.237060546875,-1.4038084745407104,0.2441406100988388,0.6408690810203552,100.0,63974.0,1.0
15:31:36.210456,196920.9375,174698.03125,233290.890625,204576.40625,197670.4375,168728.046875,686454.625,199851.15625,0.101318359375,0.979736328125,-0.238525390625,-1.4648436307907104,0.1831054538488388,0.6103515028953552,100.0,63975.0,1.0
15:31:36.210475,196913.25,174686.40625,233278.8125,204576.40625,197658.546875,168694.34375,686461.25,199855.265625,0.100830078125,0.97998046875,-0.23779296875,-1.2817381620407104,0.2441406100988388,0.6713866591453552,100.0,63976.0,1.0
15:31:36.213043,196916.015625,174687.390625,233277.203125,204583.015625,197657.828125,168685.3125,686451.875,199858.9375,0.1005859375,0.980712890625,-0.23779296875,-1.3122557401657104,0.2746581733226776,0.6713866591453552,100.0,63977.0,1.0
15:31:36.213067,196921.203125,174697.484375,233290.625,204586.78125,197674.8125,168720.09375,686467.375,199862.15625,0.101318359375,0.979736328125,-0.2373046875,-1.3122557401657104,0.3051757514476776,0.4577636420726776,100.0,63978.0,1.0
15:31:36.238136,196927.546875,174706.078125,233299.65625,204586.6875,197682.234375,168739.578125,686456.1875,199860.375,0.1015625,0.979736328125,-0.2373046875,-1.3732908964157104,0.3356933295726776,0.4272460639476776,100.0,63979.0,1.0
15:31:36.238150,196927.28125,174698.65625,233291.6875,204589.015625,197675.171875,168713.484375,686455.0,199868.0625,0.103515625,0.98046875,-0.23779296875,-1.3122557401657104,0.3967284858226776,0.5493163466453552,100.0,63980.0,1.0
15:31:36.239987,196929.25,174698.109375,233288.75,204593.21875,197672.484375,168698.71875,686426.0625,199874.859375,0.101806640625,0.981689453125,-0.237060546875,-1.3732908964157104,0.4882812201976776,0.5798339247703552,100.0,63981.0,1.0
15:31:36.252579,196931.125,174704.28125,233294.90625,204595.984375,197681.78125,168725.734375,686472.625,199871.8125,0.099365234375,0.984619140625,-0.239501953125,-1.3427733182907104,0.4882812201976776,0.5798339247703552,100.0,63982.0,1.0
15:31:36.252652,196931.03125,174707.328125,233299.734375,204595.265625,197686.265625,168747.0,686456.625,199865.28125,0.098876953125,0.9833984375,-0.237548828125,-1.2817381620407104,0.5187987685203552,0.5798339247703552,100.0,63983.0,1.0
15:31:36.252678,196930.859375,174703.390625,233294.46875,204603.9375,197681.25,168725.8125,686477.4375,199871.453125,0.099853515625,0.982666015625,-0.23828125,-1.3122557401657104,0.5187987685203552,0.5187987685203552,100.0,63984.0,1.0
15:31:36.255452,196930.140625,174698.109375,233289.90625,204618.34375,197677.046875,168702.03125,686446.75,199881.734375,0.098876953125,0.980712890625,-0.239013671875,-1.3122557401657104,0.5493163466453552,0.4882812201976776,100.0,63985.0,1.0
15:31:36.255461,196931.03125,174703.484375,233294.828125,204619.046875,197680.984375,168721.96875,686490.75,199878.96875,0.0986328125,0.979736328125,-0.23876953125,-1.2512205839157104,0.5187987685203552,0.5798339247703552,100.0,63986.0,1.0
15:31:36.261666,196936.578125,174711.4375,233308.234375,204623.25,197694.65625,168753.359375,686469.125,199880.578125,0.09814453125,0.981689453125,-0.239013671875,-1.3427733182907104,0.5798339247703552,0.6103515028953552,100.0,63987.0,1.0
15:31:36.261676,196936.140625,174712.234375,233302.875,204622.453125,197689.203125,168739.234375,686492.8125,199881.921875,0.098876953125,0.979736328125,-0.2373046875,-1.4343260526657104,0.5493163466453552,0.5798339247703552,100.0,63988.0,1.0
15:31:36.267383,196930.859375,174703.75,233294.203125,204628.4375,197680.265625,168708.203125,686449.75,199891.84375,0.098876953125,0.979248046875,-0.235107421875,-1.3732908964157104,0.5187987685203552,0.5187987685203552,100.0,63989.0,1.0
15:31:36.270461,196932.5625,174704.90625,233299.03125,204622.984375,197684.109375,168718.9375,686497.8125,199889.875,0.095703125,0.980224609375,-0.237060546875,-1.4038084745407104,0.4272460639476776,0.5798339247703552,100.0,63990.0,1.0
15:31:36.270472,196935.5,174713.578125,233317.359375,204626.296875,197700.296875,168754.515625,686474.5,199890.40625,0.09765625,0.979736328125,-0.23388671875,-1.4343260526657104,0.4272460639476776,0.6408690810203552,100.0,63991.0,1.0
15:31:36.278010,196936.21875,174714.75,233316.28125,204624.59375,197694.84375,168748.34375,686502.125,199885.765625,0.098388671875,0.98046875,-0.237548828125,-1.4038084745407104,0.3662109076976776,0.6103515028953552,100.0,63992.0,1.0
15:31:36.278023,196928.625,174700.609375,233304.125,204624.78125,197682.59375,168711.953125,686468.5,199892.203125,0.096435546875,0.98046875,-0.23779296875,-1.4343260526657104,0.2746581733226776,0.6713866591453552,100.0,63993.0,1.0
15:31:36.285505,196920.578125,174692.125,233295.09375,204619.765625,197671.78125,168703.90625,686478.9375,199879.671875,0.096923828125,0.98095703125,-0.23681640625,-1.4648436307907104,0.3051757514476776,0.5187987685203552,100.0,63994.0,1.0
15:31:36.285515,196917.171875,174696.953125,233303.40625,204617.890625,197680.890625,168734.125,686473.625,199873.0625,0.0966796875,0.980224609375,-0.236083984375,-1.4648436307907104,0.2746581733226776,0.6408690810203552,100.0,63995.0,1.0
15:31:36.287923,196913.0625,174695.96875,233297.234375,204605.734375,197673.921875,168730.109375,686462.9375,199861.078125,0.096435546875,0.979736328125,-0.234130859375,-1.4038084745407104,0.1831054538488388,0.7324218153953552,100.0,63996.0,1.0
15:31:36.287946,196904.21875,174678.359375,233279.0,204600.546875,197660.515625,168691.3125,686439.625,199864.484375,0.096435546875,0.9794921875,-0.237060546875,-1.5258787870407104,0.1525878757238388,0.7019042372703552,100.0,63997.0,1.0
15:31:36.294828,196906.453125,174679.96875,233276.671875,204597.78125,197659.890625,168687.109375,686461.6875,199862.953125,0.09912109375,0.98095703125,-0.237548828125,-1.4343260526657104,0.03051757626235485,0.7629393935203552,100.0,63998.0,1.0
15:31:36.310477,196914.9375,174696.0625,233294.640625,204606.890625,197680.265625,168727.96875,686473.875,199868.0625,0.0986328125,0.97900390625,-0.23779296875,-1.5869139432907104,0.0,0.9155272841453552,100.0,63999.0,1.0
15:31:36.310489,196918.703125,174702.859375,233300.453125,204602.96875,197682.40625,168739.765625,686471.375,199862.953125,0.097900390625,0.979248046875,-0.23681640625,-1.4953612089157104,-0.03051757626235485,0.8850097060203552,100.0,64000.0,1.0
15:31:36.313152,196910.03125,174689.4375,233286.0625,204599.203125,197666.859375,168703.640625,686470.125,199866.09375,0.099853515625,0.9775390625,-0.23583984375,-1.5563963651657104,-0.0610351525247097,0.8239745497703552,100.0,64001.0,1.0
15:31:36.313156,196905.5625,174680.5,233277.03125,204602.6875,197659.25,168684.6875,686457.0,199865.46875,0.09765625,0.977294921875,-0.236328125,-1.4343260526657104,-0.0610351525247097,0.8850097060203552,100.0,64002.0,1.0
