Timestamp,Fz,FC3,FCz,FC4,Cz,C3,C4
15:35:35.006979,198477.15625,179572.21875,231774.453125,208294.390625,199461.34375,174338.078125,686351.3125,201072.375,0.110595703125,0.98974609375,-0.217529296875,-1.4038084745407104,1.6784666776657104,1.0681151151657104,100.0,123720.0,1.0
15:35:35.009360,198483.328125,179583.125,231789.65625,208299.140625,199476.8125,174374.90625,686339.6875,201074.0625,0.111328125,0.99169921875,-0.21826171875,-1.5869139432907104,1.6784666776657104,1.3732908964157104,100.0,123721.0,1.0
15:35:35.011920,198484.3125,179585.015625,231786.625,208290.640625,199472.4375,174375.796875,686321.25,201066.5625,0.11279296875,0.9931640625,-0.22119140625,-1.6784666776657104,1.8005369901657104,1.5258787870407104,100.0,123722.0,1.0
15:35:35.014472,198477.875,179574.109375,231777.046875,208292.078125,199464.203125,174344.328125,686295.0625,201074.609375,0.112548828125,0.99462890625,-0.219482421875,-1.8310545682907104,1.8920897245407104,1.7700194120407104,100.0,123723.0,1.0
15:35:35.016994,198482.609375,179578.9375,231780.8125,208295.828125,199468.859375,174347.1875,686338.75,201078.09375,0.11328125,0.994140625,-0.219970703125,-1.9531248807907104,2.014159917831421,1.8920897245407104,100.0,123724.0,1.0
15:35:35.019414,198488.328125,179587.25,231792.078125,208303.78125,199482.890625,174380.359375,686340.9375,201079.34375,0.1123046875,0.993896484375,-0.22265625,-1.9836424589157104,2.075195074081421,1.9531248807907104,100.0,123725.0,1.0
15:35:35.021954,198488.6875,179586.984375,231790.015625,208301.28125,199477.890625,174381.875,686307.375,201069.0625,0.112548828125,0.990966796875,-0.223876953125,-2.166747808456421,2.197265386581421,2.197265386581421,100.0,123726.0,1.0
15:35:35.024356,198480.640625,179574.734375,231775.0,208301.1875,199466.34375,174347.1875,686291.375,201070.578125,0.112548828125,0.99072265625,-0.218994140625,-2.258300542831421,2.288818120956421,2.380370855331421,100.0,123727.0,1.0
15:35:35.027444,198475.546875,179567.3125,231764.984375,208296.8125,199456.609375,174329.3125,686326.0625,201065.9375,0.11181640625,0.986572265625,-0.21826171875,-2.319335699081421,2.471923589706421,2.532958745956421,100.0,123728.0,1.0
15:35:35.027456,198484.484375,179581.171875,231780.09375,208300.203125,199474.578125,174368.015625,686338.125,201070.3125,0.111083984375,0.9853515625,-0.21923828125,-2.319335699081421,2.471923589706421,2.868652105331421,100.0,123729.0,1.0
15:35:35.029345,198484.125,179583.578125,231780.359375,208290.015625,199472.78125,174380.09375,686300.125,201059.671875,0.109130859375,0.984130859375,-0.221923828125,-2.380370855331421,2.502441167831421,3.234863042831421,100.0,123730.0,1.0
15:35:35.047188,198473.9375,179568.46875,231764.0,208283.046875,199458.65625,174343.96875,686293.875,201057.890625,0.10791015625,0.9833984375,-0.223388671875,-2.319335699081421,2.502441167831421,3.540038824081421,100.0,123731.0,1.0
15:35:35.047218,198469.734375,179563.1875,231757.296875,208283.125,199453.65625,174324.84375,686312.5,201059.859375,0.109375,0.98486328125,-0.22705078125,-2.288818120956421,2.380370855331421,3.814697027206421,100.0,123732.0,1.0
15:35:35.047225,198474.46875,179574.28125,231767.9375,208285.453125,199465.90625,174356.125,686363.8125,201059.21875,0.110595703125,0.984619140625,-0.227294921875,-2.227782964706421,2.380370855331421,4.180907726287842,100.0,123733.0,1.0
15:35:35.050034,198479.03125,179582.234375,231776.0625,208289.296875,199473.234375,174381.25,686322.0625,201057.609375,0.111328125,0.986572265625,-0.2275390625,-2.288818120956421,2.410888433456421,4.425048351287842,100.0,123734.0,1.0
15:35:35.050046,198481.265625,179580.359375,231774.09375,208293.59375,199469.296875,174362.390625,686317.4375,201065.03125,0.11279296875,0.9853515625,-0.2265625,-2.197265386581421,2.441406011581421,4.730224132537842,100.0,123735.0,1.0
15:35:35.058775,198476.265625,179570.4375,231764.796875,208296.453125,199460.71875,174332.078125,686313.0,201070.40625,0.11279296875,0.98193359375,-0.226318359375,-2.166747808456421,2.563476324081421,4.943847179412842,100.0,123736.0,1.0
15:35:35.058809,198478.40625,179575.796875,231769.265625,208293.5,199465.09375,174352.46875,686373.375,201065.390625,0.11279296875,0.979736328125,-0.224853515625,-2.136230230331421,2.593993902206421,5.126952648162842,100.0,123737.0,1.0
15:35:35.060684,198484.75,179589.03125,231783.40625,208296.8125,199477.96875,174388.765625,686343.8125,201066.296875,0.11279296875,0.9775390625,-0.221923828125,-2.166747808456421,2.655029058456421,5.462646007537842,100.0,123738.0,1.0
15:35:35.070765,198485.203125,179588.5,231777.59375,208294.671875,199472.875,174372.765625,686323.875,201066.5625,0.113525390625,0.974609375,-0.221923828125,-1.9531248807907104,2.563476324081421,5.706786632537842,100.0,123739.0,1.0
15:35:35.073883,198478.9375,179574.734375,231767.84375,208297.53125,199464.390625,174335.390625,686297.625,201073.984375,0.113037109375,0.972900390625,-0.219970703125,-1.7395018339157104,2.593993902206421,5.889892101287842,100.0,123740.0,1.0
15:35:35.073932,198484.21875,179579.375,231774.28125,208302.796875,199470.46875,174349.34375,686355.0625,201074.25,0.112548828125,0.972412109375,-0.224609375,-1.6784666776657104,2.593993902206421,6.164550304412842,100.0,123741.0,1.0
15:35:35.079506,198482.515625,179581.796875,231782.59375,208299.84375,199476.1875,174379.015625,686331.25,201064.953125,0.11181640625,0.97216796875,-0.22216796875,-1.6479490995407104,2.563476324081421,6.408690929412842,100.0,123742.0,1.0
15:35:35.086252,198481.09375,179580.546875,231776.328125,208289.921875,199469.21875,174368.734375,686317.25,201058.0625,0.111572265625,0.96923828125,-0.2197265625,-1.5563963651657104,2.349853277206421,6.561278820037842,100.0,123743.0,1.0
15:35:35.086270,198482.703125,179576.6875,231773.03125,208299.3125,199467.953125,174340.84375,686305.3125,201073.703125,0.111572265625,0.970458984375,-0.21875,-1.4038084745407104,2.319335699081421,6.683349132537842,100.0,123744.0,1.0
15:35:35.092489,198481.625,179577.328125,231771.78125,208296.28125,199467.421875,174343.890625,686350.9375,201070.765625,0.1123046875,0.970947265625,-0.22119140625,-1.1901854276657104,2.227782964706421,6.713866710662842,100.0,123745.0,1.0
15:35:35.092502,198484.3125,179585.28125,231782.421875,208298.59375,199480.03125,174379.109375,686352.4375,201071.46875,0.111328125,0.974365234375,-0.22314453125,-1.0986326932907104,2.105712652206421,6.835937023162842,100.0,123746.0,1.0
15:35:35.102000,198487.796875,179587.421875,231782.0625,208293.859375,199477.53125,174378.3125,686321.625,201066.109375,0.110595703125,0.977294921875,-0.22265625,-1.0681151151657104,1.9836424589157104,6.805419445037842,100.0,123747.0,1.0
15:35:35.106193,198486.0,179579.640625,231776.328125,208299.40625,199471.8125,174347.453125,686300.625,201076.65625,0.1103515625,0.9814453125,-0.22119140625,-1.0070799589157104,1.7700194120407104,6.744384288787842,100.0,123748.0,1.0
15:35:35.106205,198489.578125,179583.40625,231777.859375,208302.265625,199472.875,174346.65625,686346.0,201075.9375,0.11083984375,0.986572265625,-0.22265625,-0.9460448622703552,1.5563963651657104,6.622313976287842,100.0,123749.0,1.0
15:35:35.115639,198490.03125,179588.5,231785.453125,208301.546875,199484.046875,174378.75,686369.5625,201073.4375,0.111572265625,0.98876953125,-0.220703125,-0.9765624403953552,1.4038084745407104,6.591796398162842,100.0,123750.0,1.0
15:35:35.118796,198493.421875,179591.71875,231788.578125,208296.28125,199483.34375,174386.265625,686324.0,201067.625,0.11279296875,0.99072265625,-0.22021484375,-0.8544921278953552,1.2817381620407104,6.500243663787842,100.0,123751.0,1.0
15:35:35.118812,198497.453125,179590.734375,231787.515625,208305.21875,199484.046875,174365.078125,686306.75,201083.640625,0.113525390625,0.99169921875,-0.21875,-0.8850097060203552,0.9460448622703552,6.439208507537842,100.0,123752.0,1.0
15:35:35.121220,198499.953125,179593.5,231785.984375,208307.453125,199484.328125,174359.96875,686324.125,201085.78125,0.1142578125,0.99462890625,-0.2177734375,-0.9155272841453552,0.8239745497703552,6.195067882537842,100.0,123753.0,1.0
15:35:35.121233,198495.921875,179591.171875,231788.859375,208303.609375,199488.53125,174376.515625,686348.4375,201078.09375,0.11572265625,0.9921875,-0.215576171875,-1.0986326932907104,0.6408690810203552,6.042479991912842,100.0,123754.0,1.0
15:35:35.130698,198497.09375,179594.578125,231791.53125,208298.6875,199490.3125,174389.125,686326.875,201071.203125,0.116455078125,0.989013671875,-0.215576171875,-1.0681151151657104,0.4882812201976776,5.859374523162842,100.0,123755.0,1.0
15:35:35.135065,198498.15625,179591.0,231785.453125,208301.1875,199484.046875,174365.875,686317.5625,201078.359375,0.119873046875,0.988525390625,-0.215576171875,-1.1596678495407104,0.3662109076976776,5.676269054412842,100.0,123756.0,1.0
15:35:35.135105,198494.59375,179584.734375,231777.765625,208301.640625,199475.5625,174342.984375,686314.8125,201079.609375,0.123046875,0.985107421875,-0.214111328125,-1.1901854276657104,0.1220703050494194,5.554198741912842,100.0,123757.0,1.0
15:35:35.136979,198495.03125,179590.015625,231782.234375,208299.3125,199481.015625,174366.765625,686357.75,201074.15625,0.121826171875,0.984130859375,-0.213623046875,-1.1596678495407104,0.0,5.218505382537842,100.0,123758.0,1.0
15:35:35.147105,198499.234375,179600.203125,231792.703125,208297.078125,199488.34375,174393.59375,686319.8125,201068.796875,0.124755859375,0.9814453125,-0.2138671875,-1.2512205839157104,-0.0915527269244194,4.974364757537842,100.0,123759.0,1.0
15:35:35.178125,198498.15625,179596.984375,231786.53125,208292.25,199482.171875,174374.90625,686307.75,201067.625,0.1259765625,0.979248046875,-0.2119140625,-1.2512205839157104,-0.0610351525247097,4.852294445037842,100.0,123760.0,1.0
15:35:35.181189,198497.0,179587.6875,231781.4375,208296.71875,199477.171875,174346.390625,686313.75,201075.046875,0.129638671875,0.9775390625,-0.215087890625,-1.3122557401657104,-0.2746581733226776,4.547118663787842,100.0,123761.0,1.0
15:35:35.181201,198493.515625,179586.171875,231780.265625,208292.875,199479.140625,174357.203125,686367.5,201068.96875,0.13134765625,0.9794921875,-0.2119140625,-1.3427733182907104,-0.2746581733226776,4.302978038787842,100.0,123762.0,1.0
15:35:35.183164,198493.609375,179591.453125,231786.078125,208292.34375,199486.46875,174384.203125,686328.4375,201065.578125,0.13134765625,0.979736328125,-0.210693359375,-1.4038084745407104,-0.3051757514476776,3.936767339706421,100.0,123763.0,1.0
15:35:35.185847,198494.5,179590.90625,231780.0,208289.296875,199480.484375,174369.625,686314.875,201064.765625,0.131103515625,0.982421875,-0.211669921875,-1.2512205839157104,-0.2746581733226776,3.601073980331421,100.0,123764.0,1.0
15:35:35.188155,198489.578125,179582.234375,231773.203125,208297.171875,199474.9375,174342.546875,686312.9375,201075.3125,0.134033203125,0.982177734375,-0.210693359375,-1.3732908964157104,-0.2746581733226776,3.387450933456421,100.0,123765.0,1.0
15:35:35.190609,198495.921875,179591.71875,231782.859375,208302.171875,199484.328125,174360.328125,686366.3125,201079.078125,0.135498046875,0.985107421875,-0.208984375,-1.4038084745407104,-0.3051757514476776,3.265380620956421,100.0,123766.0,1.0
15:35:35.193066,198498.25,179601.015625,231795.109375,208301.546875,199496.390625,174395.109375,686340.5625,201076.21875,0.1357421875,0.98779296875,-0.20947265625,-1.4953612089157104,-0.2136230319738388,3.021239995956421,100.0,123767.0,1.0
15:35:35.195632,198499.328125,179607.0,231792.15625,208295.375,199491.203125,174392.875,686312.0625,201071.203125,0.13525390625,0.988525390625,-0.210693359375,-1.7089842557907104,-0.3356933295726776,2.777099370956421,100.0,123768.0,1.0
15:35:35.198124,198498.25,179601.640625,231785.28125,208303.515625,199485.578125,174361.40625,686305.625,201082.828125,0.13720703125,0.9892578125,-0.212646484375,-1.7395018339157104,-0.3662109076976776,2.655029058456421,100.0,123769.0,1.0
15:35:35.201263,198493.515625,179593.859375,231779.203125,208297.796875,199478.25,174353.625,686347.4375,201076.921875,0.13720703125,0.990478515625,-0.2119140625,-1.8310545682907104,-0.1831054538488388,2.410888433456421,100.0,123770.0,1.0
15:35:35.201277,198495.21875,179597.53125,231790.8125,208301.453125,199491.46875,174385.28125,686344.3125,201077.640625,0.136962890625,0.9912109375,-0.211181640625,-1.9531248807907104,-0.1525878757238388,2.227782964706421,100.0,123771.0,1.0
15:35:35.203146,198494.3125,179597.703125,231788.5,208294.03125,199487.984375,174386.4375,686321.875,201070.40625,0.135986328125,0.990966796875,-0.210693359375,-2.166747808456421,-0.1525878757238388,2.014159917831421,100.0,123772.0,1.0
15:35:35.206797,198488.953125,179586.890625,231778.296875,208297.96875,199479.859375,174355.5,686319.75,201081.484375,0.136474609375,0.98974609375,-0.208984375,-2.319335699081421,-0.1525878757238388,1.7395018339157104,100.0,123773.0,1.0
15:35:35.206847,198491.375,179588.140625,231777.234375,208301.1875,199478.953125,174350.40625,686347.0625,201084.4375,0.137939453125,0.98779296875,-0.208984375,-2.349853277206421,-0.1220703050494194,1.6784666776657104,100.0,123774.0,1.0
15:35:35.214347,198499.5,179603.875,231794.390625,208306.90625,199497.015625,174392.703125,686346.0,201088.546875,0.13427734375,0.987060546875,-0.20751953125,-2.471923589706421,-0.0915527269244194,1.4648436307907104,100.0,123775.0,1.0
15:35:35.214421,198496.203125,179606.734375,231792.609375,208296.28125,199493.078125,174403.421875,686326.8125,201077.546875,0.1337890625,0.985595703125,-0.2080078125,-2.593993902206421,-0.1525878757238388,1.1596678495407104,100.0,123776.0,1.0
15:35:35.220675,198482.78125,179584.921875,231773.46875,208292.421875,199476.09375,174359.625,686303.5625,201078.1875,0.13134765625,0.984619140625,-0.20751953125,-2.777099370956421,-0.2136230319738388,1.0681151151657104,100.0,123777.0,1.0
15:35:35.225047,198477.59375,179573.65625,231764.625,208292.078125,199467.0625,174334.578125,686329.9375,201077.546875,0.1298828125,0.98486328125,-0.20654296875,-2.838134527206421,-0.1525878757238388,0.9155272841453552,100.0,123778.0,1.0
15:35:35.225119,198479.828125,179579.734375,231771.78125,208296.71875,199477.078125,174364.09375,686365.6875,201075.046875,0.130126953125,0.983642578125,-0.20556640625,-2.929687261581421,-0.1525878757238388,0.7934569716453552,100.0,123779.0,1.0
15:35:35.234369,198476.078125,179580.1875,231770.96875,208287.78125,199474.484375,174377.953125,686327.4375,201063.421875,0.130126953125,0.98193359375,-0.205322265625,-3.082275152206421,-0.2136230319738388,0.7324218153953552,100.0,123780.0,1.0
15:35:35.238977,198475.984375,179578.125,231764.984375,208289.03125,199468.671875,174355.5,686311.75,201069.6875,0.1318359375,0.98095703125,-0.20361328125,-3.112792730331421,-0.2746581733226776,0.6103515028953552,100.0,123781.0,1.0
15:35:35.238989,198472.59375,179571.328125,231759.265625,208291.71875,199462.421875,174329.671875,686316.875,201071.828125,0.129638671875,0.983154296875,-0.2041015625,-3.204345464706421,-0.4272460639476776,0.5187987685203552,100.0,123782.0,1.0
15:35:35.245734,198475.28125,179577.140625,231767.578125,208291.0,199472.078125,174353.359375,686359.1875,201067.0,0.128173828125,0.98193359375,-0.202880859375,-3.417968511581421,-0.5798339247703552,0.4577636420726776,100.0,123783.0,1.0
15:35:35.250022,198478.21875,179584.109375,231775.796875,208289.125,199478.78125,174379.46875,686316.875,201061.8125,0.130126953125,0.98291015625,-0.201171875,-3.570556402206421,-0.6408690810203552,0.5187987685203552,100.0,123784.0,1.0
15:35:35.250035,198479.125,179583.578125,231771.0625,208286.0,199472.078125,174362.65625,686309.75,201063.15625,0.129150390625,0.984130859375,-0.200927734375,-3.631591558456421,-0.7629393935203552,0.5187987685203552,100.0,123785.0,1.0
15:35:35.260149,198475.8125,179575.984375,231762.75,208290.46875,199464.203125,174335.65625,686320.6875,201069.328125,0.12890625,0.984619140625,-0.20068359375,-3.692626714706421,-0.7324218153953552,0.5798339247703552,100.0,123786.0,1.0
15:35:35.260178,198480.28125,179581.96875,231770.078125,208291.359375,199471.359375,174351.578125,686371.3125,201070.484375,0.129150390625,0.985107421875,-0.198974609375,-3.753661870956421,-0.8850097060203552,0.5493163466453552,100.0,123787.0,1.0
15:35:35.262084,198481.890625,179586.53125,231778.65625,208290.015625,199479.9375,174378.9375,686337.8125,201067.0,0.12939453125,0.984375,-0.197021484375,-3.906249761581421,-0.9155272841453552,0.4577636420726776,100.0,123788.0,1.0
15:35:35.267149,198483.328125,179586.171875,231772.765625,208286.0,199474.046875,174366.234375,686314.625,201065.390625,0.130126953125,0.98583984375,-0.198974609375,-4.028319835662842,-0.9155272841453552,0.4882812201976776,100.0,123789.0,1.0
15:35:35.273297,198486.890625,179585.640625,231771.953125,208297.25,199475.5625,174345.21875,686316.0625,201082.109375,0.12890625,0.98681640625,-0.19970703125,-4.180907726287842,-0.9765624403953552,0.4577636420726776,100.0,123790.0,1.0
15:35:35.280208,198493.78125,179599.578125,231779.015625,208299.765625,199484.234375,174368.734375,686358.0625,201082.03125,0.130615234375,0.987548828125,-0.200927734375,-4.211425304412842,-1.0986326932907104,0.4272460639476776,100.0,123791.0,1.0
15:35:35.280253,198492.984375,179600.125,231786.078125,208302.0,199493.265625,174390.375,686330.1875,201081.75,0.13134765625,0.988037109375,-0.200439453125,-4.241942882537842,-1.1291502714157104,0.5187987685203552,100.0,123792.0,1.0
15:35:35.283783,198486.71875,179592.609375,231776.328125,208287.25,199481.640625,174373.484375,686327.0,201068.4375,0.130859375,0.98876953125,-0.200439453125,-4.241942882537842,-1.2207030057907104,0.4272460639476776,100.0,123793.0,1.0
15:35:35.283811,198482.515625,179583.9375,231770.078125,208291.796875,199476.28125,174344.953125,686315.375,201077.203125,0.130126953125,0.989013671875,-0.200439453125,-4.394530773162842,-1.3122557401657104,0.5187987685203552,100.0,123794.0,1.0
15:35:35.290671,198478.3125,179580.265625,231765.515625,208287.6875,199473.0625,174341.203125,686343.25,201072.09375,0.13037109375,0.987548828125,-0.199951171875,-4.394530773162842,-1.3122557401657104,0.6103515028953552,100.0,123795.0,1.0
15:35:35.301259,198481.71875,179591.171875,231778.125,208292.421875,199488.078125,174379.203125,686340.1875,201072.90625,0.130615234375,0.988525390625,-0.198974609375,-4.425048351287842,-1.2817381620407104,0.4882812201976776,100.0,123796.0,1.0
15:35:35.301294,198483.59375,179594.75,231778.578125,208288.234375,199485.125,174384.03125,686314.1875,201066.109375,0.130615234375,0.98876953125,-0.200927734375,-4.394530773162842,-1.4343260526657104,0.4882812201976776,100.0,123797.0,1.0
15:35:35.303667,198477.515625,179581.515625,231769.453125,208290.015625,199475.5625,174347.90625,686310.5,201073.984375,0.1337890625,0.98974609375,-0.20361328125,-4.486083507537842,-1.3122557401657104,0.5187987685203552,100.0,123798.0,1.0
15:35:35.303681,198476.171875,179579.828125,231767.578125,208289.65625,199472.078125,174340.390625,686333.9375,201073.796875,0.131103515625,0.990234375,-0.2021484375,-4.516601085662842,-1.2817381620407104,0.7629393935203552,100.0,123799.0,1.0
15:35:35.348130,198483.59375,179592.703125,231783.046875,208296.90625,199490.484375,174379.015625,686356.75,201079.25,0.130126953125,0.99072265625,-0.2021484375,-4.547118663787842,-1.2512205839157104,0.7324218153953552,100.0,123800.0,1.0
15:35:35.351207,198485.5625,179598.875,231785.8125,208292.703125,199489.859375,174390.546875,686326.1875,201072.71875,0.13134765625,0.98974609375,-0.19921875,-4.516601085662842,-1.3427733182907104,0.7629393935203552,100.0,123801.0,1.0
15:35:35.351222,198484.3125,179594.3125,231782.5,208295.375,199481.640625,174362.65625,686303.9375,201080.234375,0.13134765625,0.990234375,-0.198486328125,-4.486083507537842,-1.4038084745407104,0.7934569716453552,100.0,123802.0,1.0
15:35:35.353651,198488.421875,179593.140625,231784.734375,208303.25,199481.546875,174348.53125,686327.25,201087.296875,0.1328125,0.990234375,-0.19970703125,-4.486083507537842,-1.4953612089157104,0.7934569716453552,100.0,123803.0,1.0
15:35:35.353658,198494.40625,179599.84375,231796.1875,208308.515625,199493.4375,174378.03125,686367.1875,201089.09375,0.1337890625,0.98828125,-0.197265625,-4.302978038787842,-1.4648436307907104,0.7934569716453552,100.0,123804.0,1.0
15:35:35.355552,198498.78125,179607.890625,231801.640625,208308.078125,199498.265625,174397.890625,686331.375,201085.78125,0.13525390625,0.989013671875,-0.197021484375,-4.302978038787842,-1.4038084745407104,0.7629393935203552,100.0,123805.0,1.0
15:35:35.358064,198496.46875,179600.921875,231792.34375,208306.734375,199488.703125,174369.8125,686314.375,201089.171875,0.13427734375,0.987060546875,-0.197509765625,-4.180907726287842,-1.4953612089157104,0.7934569716453552,100.0,123806.0,1.0
15:35:35.360561,198495.921875,179597.609375,231788.046875,208311.03125,199484.859375,174349.421875,686310.4375,201096.234375,0.1337890625,0.98583984375,-0.19873046875,-3.997802495956421,-1.3427733182907104,0.7019042372703552,100.0,123807.0,1.0
15:35:35.363282,198491.90625,179596.984375,231786.53125,208303.15625,199486.46875,174366.859375,686369.4375,201085.59375,0.13525390625,0.983154296875,-0.196044921875,-3.936767339706421,-1.2512205839157104,0.7324218153953552,100.0,123808.0,1.0
15:35:35.365660,198486.09375,179594.75,231786.625,208293.953125,199486.109375,174385.28125,686327.25,201073.0,0.134521484375,0.97998046875,-0.19677734375,-3.814697027206421,-1.1901854276657104,0.7019042372703552,100.0,123809.0,1.0
15:35:35.368205,198488.953125,179595.109375,231783.671875,208296.0,199481.109375,174370.34375,686307.9375,201078.71875,0.13623046875,0.975830078125,-0.198486328125,-3.692626714706421,-1.2207030057907104,0.6408690810203552,100.0,123810.0,1.0
15:35:35.373241,198488.0625,179591.625,231779.015625,208302.890625,199477.078125,174345.21875,686300.625,201087.75,0.135986328125,0.973876953125,-0.201416015625,-3.417968511581421,-1.0986326932907104,0.6103515028953552,100.0,123811.0,1.0
15:35:35.375707,198487.796875,179594.3125,231780.359375,208296.09375,199478.953125,174356.40625,686364.1875,201078.71875,0.1357421875,0.970458984375,-0.20166015625,-3.112792730331421,-1.0375975370407104,0.5187987685203552,100.0,123812.0,1.0
15:35:35.378103,198489.671875,179600.484375,231789.390625,208293.5,199489.0625,174386.4375,686347.8125,201074.78125,0.1357421875,0.970947265625,-0.201171875,-2.929687261581421,-0.9765624403953552,0.5187987685203552,100.0,123813.0,1.0
15:35:35.381191,198490.46875,179601.546875,231785.90625,208288.671875,199484.953125,174378.84375,686328.4375,201073.265625,0.137939453125,0.970458984375,-0.19921875,-2.532958745956421,-0.9155272841453552,0.4272460639476776,100.0,123814.0,1.0
15:35:35.381213,198487.4375,179592.515625,231780.71875,208296.28125,199478.953125,174350.234375,686305.9375,201086.5,0.1376953125,0.969482421875,-0.2001953125,-2.410888433456421,-0.9460448622703552,0.3356933295726776,100.0,123815.0,1.0
15:35:35.383138,198490.5625,179598.515625,231785.09375,208297.078125,199484.5,174362.296875,686351.5625,201086.234375,0.138427734375,0.9697265625,-0.199951171875,-2.105712652206421,-0.8544921278953552,0.1525878757238388,100.0,123816.0,1.0
15:35:35.385606,198492.703125,179608.4375,231796.546875,208298.0625,199498.8125,174401.375,686333.4375,201084.96875,0.138671875,0.96923828125,-0.204345703125,-1.8310545682907104,-0.8239745497703552,0.1831054538488388,100.0,123817.0,1.0
15:35:35.388688,198486.890625,179603.421875,231788.046875,208286.890625,199489.859375,174392.875,686321.4375,201076.65625,0.137451171875,0.9697265625,-0.20263671875,-1.5258787870407104,-0.6713866591453552,0.0610351525247097,100.0,123818.0,1.0
15:35:35.388707,198481.71875,179589.84375,231779.46875,208294.75,199482.71875,174355.15625,686307.75,201088.734375,0.1376953125,0.968505859375,-0.20361328125,-1.2207030057907104,-0.6103515028953552,-0.1220703050494194,100.0,123819.0,1.0
15:35:35.390605,198479.828125,179588.40625,231776.515625,208290.8125,199480.296875,174351.390625,686341.8125,201086.671875,0.135986328125,0.97119140625,-0.2041015625,-0.9765624403953552,-0.5798339247703552,-0.1220703050494194,100.0,123820.0,1.0
15:35:35.394425,198480.8125,179595.46875,231785.453125,208290.8125,199490.578125,174383.671875,686338.5,201083.453125,0.135009765625,0.97216796875,-0.200927734375,-0.8239745497703552,-0.6713866591453552,-0.2441406100988388,100.0,123821.0,1.0
15:35:35.410074,198483.328125,179599.046875,231787.15625,208288.234375,199488.703125,174388.234375,686321.3125,201078.625,0.13427734375,0.974365234375,-0.2021484375,-0.5798339247703552,-0.5493163466453552,-0.3051757514476776,100.0,123822.0,1.0
15:35:35.410084,198480.734375,179590.28125,231779.375,208297.078125,199483.609375,174356.9375,686320.0,201091.140625,0.134521484375,0.9765625,-0.20068359375,-0.4577636420726776,-0.4577636420726776,-0.5187987685203552,100.0,123823.0,1.0
15:35:35.412554,198476.796875,179584.921875,231770.96875,208293.765625,199476.984375,174343.25,686342.8125,201087.484375,0.13330078125,0.978271484375,-0.202392578125,-0.2746581733226776,-0.4577636420726776,-0.5493163466453552,100.0,123824.0,1.0
15:35:35.412565,198481.171875,179595.296875,231782.140625,208295.375,199488.875,174377.59375,686366.9375,201086.046875,0.13232421875,0.9794921875,-0.202880859375,-0.2441406100988388,-0.2746581733226776,-0.7324218153953552,100.0,123825.0,1.0
15:35:35.414469,198483.40625,179600.125,231785.359375,208291.984375,199489.234375,174390.828125,686330.3125,201078.1875,0.133544921875,0.9814453125,-0.203125,-0.1831054538488388,-0.3051757514476776,-0.7324218153953552,100.0,123826.0,1.0
15:35:35.416942,198477.953125,179589.84375,231774.375,208291.71875,199477.609375,174359.796875,686315.0625,201081.9375,0.133544921875,0.981201171875,-0.2021484375,-0.0610351525247097,-0.3967284858226776,-0.7324218153953552,100.0,123827.0,1.0
15:35:35.432506,198477.15625,179584.734375,231771.0625,208294.671875,199473.140625,174341.734375,686330.4375,201086.671875,0.133056640625,0.9833984375,-0.204345703125,-0.03051757626235485,-0.4577636420726776,-0.8239745497703552,100.0,123828.0,1.0
15:35:35.432519,198485.375,179596.984375,231784.5625,208303.34375,199487.890625,174374.734375,686366.5,201089.09375,0.1328125,0.980712890625,-0.205078125,-0.1525878757238388,-0.3051757514476776,-0.8544921278953552,100.0,123829.0,1.0
15:35:35.435044,198482.96875,179598.875,231787.59375,208300.828125,199488.96875,174391.171875,686324.9375,201078.359375,0.130615234375,0.981689453125,-0.2001953125,-0.0915527269244194,-0.3356933295726776,-0.9460448622703552,100.0,123830.0,1.0
15:35:35.435074,198475.359375,179588.046875,231775.796875,208291.171875,199476.0,174360.515625,686314.75,201075.3125,0.130859375,0.98388671875,-0.20751953125,-0.03051757626235485,-0.3662109076976776,-0.9765624403953552,100.0,123831.0,1.0
15:35:35.436926,198472.5,179582.6875,231771.15625,208291.71875,199471.53125,174338.34375,686322.75,201081.3125,0.1298828125,0.9833984375,-0.206787109375,-0.1220703050494194,-0.3356933295726776,-1.0070799589157104,100.0,123832.0,1.0
15:35:35.440649,198479.296875,179593.953125,231782.953125,208293.328125,199483.609375,174366.59375,686374.875,201083.640625,0.127197265625,0.981201171875,-0.207763671875,-0.1220703050494194,-0.3356933295726776,-1.0986326932907104,100.0,123833.0,1.0
15:35:35.451290,198480.453125,179599.84375,231789.75,208290.90625,199490.671875,174391.625,686342.0,201080.765625,0.128173828125,0.981201171875,-0.207275390625,-0.1831054538488388,-0.4272460639476776,-1.2512205839157104,100.0,123834.0,1.0
15:35:35.451307,198483.046875,179602.984375,231786.53125,208289.75,199486.828125,174382.328125,686328.4375,201082.46875,0.1279296875,0.981689453125,-0.206298828125,-0.2746581733226776,-0.4272460639476776,-1.1901854276657104,100.0,123835.0,1.0
15:35:35.453688,198478.5,179594.578125,231777.859375,208291.890625,199479.859375,174355.0625,686313.375,201086.765625,0.126708984375,0.98095703125,-0.20458984375,-0.3051757514476776,-0.4272460639476776,-1.2817381620407104,100.0,123836.0,1.0
15:35:35.453709,198477.515625,179593.6875,231779.46875,208288.234375,199481.015625,174360.421875,686360.75,201081.3125,0.12841796875,0.98046875,-0.205078125,-0.3662109076976776,-0.3662109076976776,-1.2207030057907104,100.0,123837.0,1.0
15:35:35.461946,198471.15625,179592.15625,231780.890625,208281.515625,199484.859375,174381.078125,686328.6875,201072.375,0.12646484375,0.982177734375,-0.205810546875,-0.3356933295726776,-0.4272460639476776,-1.2817381620407104,100.0,123838.0,1.0
15:35:35.468709,198466.515625,179588.59375,231770.34375,208270.96875,199475.828125,174370.34375,686321.1875,201064.6875,0.12646484375,0.98095703125,-0.20654296875,-0.3967284858226776,-0.5493163466453552,-1.2817381620407104,100.0,123839.0,1.0
15:35:35.468717,198460.703125,179578.9375,231760.25,208274.8125,199468.59375,174339.765625,686303.375,201073.078125,0.1279296875,0.9814453125,-0.2080078125,-0.3662109076976776,-0.6408690810203552,-1.2817381620407104,100.0,123840.0,1.0
15:35:35.478254,198462.125,179581.171875,231761.578125,208274.015625,199468.765625,174344.859375,686360.75,201069.421875,0.126220703125,0.980712890625,-0.20849609375,-0.4882812201976776,-0.5493163466453552,-1.3122557401657104,100.0,123841.0,1.0
15:35:35.481347,198466.875,179590.015625,231776.96875,208279.203125,199482.796875,174378.65625,686354.0,201070.671875,0.125244140625,0.981201171875,-0.208251953125,-0.5187987685203552,-0.5187987685203552,-1.4038084745407104,100.0,123842.0,1.0
15:35:35.481356,198473.484375,179596.640625,231780.265625,208277.046875,199482.4375,174381.53125,686325.125,201069.953125,0.124755859375,0.984619140625,-0.211181640625,-0.6103515028953552,-0.6103515028953552,-1.3122557401657104,100.0,123843.0,1.0
15:35:35.488145,198473.390625,179591.453125,231776.515625,208285.359375,199478.875,174353.359375,686308.8125,201084.625,0.126220703125,0.98583984375,-0.209228515625,-0.6713866591453552,-0.6103515028953552,-1.3732908964157104,100.0,123844.0,1.0
15:35:35.495044,198475.8125,179593.234375,231778.125,208286.0,199480.828125,174351.125,686352.125,201085.78125,0.125244140625,0.983642578125,-0.2080078125,-0.7934569716453552,-0.6713866591453552,-1.2512205839157104,100.0,123845.0,1.0
15:35:35.495050,198477.328125,179601.015625,231786.890625,208287.328125,199494.609375,174386.359375,686358.875,201086.046875,0.1240234375,0.984619140625,-0.210205078125,-0.7934569716453552,-0.7324218153953552,-1.0986326932907104,100.0,123846.0,1.0
15:35:35.497535,198484.84375,179610.140625,231791.796875,208287.515625,199498.359375,174399.40625,686342.0,201083.359375,0.125,0.984375,-0.208984375,-0.9765624403953552,-0.6713866591453552,-1.1901854276657104,100.0,123847.0,1.0
15:35:35.497546,198490.921875,179610.21875,231791.984375,208299.765625,199499.96875,174378.125,686344.5,201100.359375,0.125,0.98681640625,-0.210205078125,-1.0986326932907104,-0.7324218153953552,-1.1291502714157104,100.0,123848.0,1.0
15:35:35.507067,198497.09375,179614.875,231796.453125,208306.109375,199504.171875,174372.578125,686366.0625,201108.578125,0.123291015625,0.98876953125,-0.21142578125,-1.0375975370407104,-0.7324218153953552,-1.0986326932907104,100.0,123849.0,1.0
15:35:35.509437,198507.734375,179630.515625,231814.421875,208318.796875,199524.5625,174412.1875,686379.0,201115.015625,0.1220703125,0.988525390625,-0.2099609375,-1.1291502714157104,-0.6713866591453552,-1.1291502714157104,100.0,123850.0,1.0
15:35:35.517704,198513.8125,179640.171875,231822.375,208322.5625,199530.359375,174432.3125,686350.9375,201111.0,0.123779296875,0.9892578125,-0.210693359375,-1.1596678495407104,-0.7629393935203552,-1.0986326932907104,100.0,123851.0,1.0
15:35:35.517722,198509.609375,179631.59375,231812.28125,208323.1875,199520.890625,174404.59375,686341.625,201113.9375,0.123291015625,0.987548828125,-0.212646484375,-1.2817381620407104,-0.9155272841453552,-1.0986326932907104,100.0,123852.0,1.0
15:35:35.523222,198496.734375,179612.71875,231796.8125,208316.921875,199503.71875,174368.46875,686338.625,201105.453125,0.123291015625,0.98828125,-0.2109375,-1.3732908964157104,-0.8544921278953552,-0.9155272841453552,100.0,123853.0,1.0
15:35:35.531263,198489.484375,179608.078125,231794.390625,208312.546875,199503.09375,174384.5625,686371.5625,201092.671875,0.123779296875,0.98876953125,-0.2138671875,-1.4038084745407104,-0.9155272841453552,-0.8544921278953552,100.0,123854.0,1.0
15:35:35.531281,198487.703125,179611.5625,231794.21875,208305.484375,199501.484375,174404.6875,686328.9375,201080.328125,0.12451171875,0.98974609375,-0.214599609375,-1.4343260526657104,-0.9155272841453552,-0.7324218153953552,100.0,123855.0,1.0
15:35:35.544311,198486.453125,179607.0,231786.625,208306.015625,199494.875,174381.609375,686308.75,201084.171875,0.124755859375,0.987060546875,-0.212890625,-1.5563963651657104,-0.9460448622703552,-0.6713866591453552,100.0,123856.0,1.0
15:35:35.544335,198486.890625,179600.03125,231784.828125,208316.03125,199494.96875,174356.84375,686328.5625,201096.6875,0.124267578125,0.986328125,-0.214111328125,-1.6479490995407104,-1.0070799589157104,-0.8850097060203552,100.0,123857.0,1.0
15:35:35.549520,198494.046875,179607.984375,231794.75,208319.703125,199506.671875,174378.21875,686364.5,201098.828125,0.12255859375,0.987060546875,-0.212158203125,-1.7089842557907104,-0.9765624403953552,-0.7019042372703552,100.0,123858.0,1.0
15:35:35.552463,198501.65625,179619.25,231807.53125,208324.265625,199520.984375,174409.515625,686327.875,201100.53125,0.123779296875,0.98486328125,-0.211669921875,-1.8005369901657104,-1.0070799589157104,-0.7019042372703552,100.0,123859.0,1.0
15:35:35.552475,198501.296875,179617.734375,231800.296875,208322.015625,199514.90625,174392.96875,686321.6875,201099.90625,0.126220703125,0.984130859375,-0.2109375,-1.6784666776657104,-0.9765624403953552,-0.6408690810203552,100.0,123860.0,1.0
15:35:35.554381,198498.34375,179610.046875,231792.34375,208328.375,199506.671875,174364.0,686341.125,201108.671875,0.126220703125,0.983642578125,-0.21044921875,-1.6479490995407104,-0.8850097060203552,-0.7324218153953552,100.0,123861.0,1.0
15:35:35.558161,198499.421875,179613.796875,231795.375,208326.578125,199508.46875,174376.15625,686382.875,201105.890625,0.12646484375,0.98388671875,-0.2099609375,-1.6784666776657104,-0.8239745497703552,-0.7324218153953552,100.0,123862.0,1.0
15:35:35.566337,198506.203125,179628.015625,231811.46875,208331.5,199525.1875,174416.390625,686354.25,201111.171875,0.12646484375,0.98193359375,-0.212158203125,-1.6784666776657104,-0.7934569716453552,-0.6408690810203552,100.0,123863.0,1.0
15:35:35.566352,198500.390625,179621.3125,231800.65625,208318.359375,199513.5625,174402.265625,686329.8125,201102.046875,0.1259765625,0.984375,-0.21240234375,-1.5869139432907104,-0.8850097060203552,-0.5187987685203552,100.0,123864.0,1.0
15:35:35.572632,198490.296875,179601.546875,231786.34375,208316.5625,199499.25,174358.1875,686322.0625,201107.421875,0.1259765625,0.982666015625,-0.211669921875,-1.5869139432907104,-0.8544921278953552,-0.3967284858226776,100.0,123865.0,1.0
15:35:35.572682,198488.953125,179600.5625,231784.734375,208313.4375,199495.234375,174356.9375,686366.375,201101.609375,0.12548828125,0.980712890625,-0.211181640625,-1.6479490995407104,-0.7019042372703552,-0.5493163466453552,100.0,123866.0,1.0
15:35:35.582001,198494.5,179613.078125,231799.765625,208317.640625,199510.515625,174396.640625,686363.625,201101.78125,0.12451171875,0.982421875,-0.2099609375,-1.5563963651657104,-0.7629393935203552,-0.5187987685203552,100.0,123867.0,1.0
15:35:35.586242,198497.171875,179615.9375,231799.84375,208311.828125,199508.109375,174398.59375,686327.4375,201094.90625,0.1240234375,0.98095703125,-0.213134765625,-1.4648436307907104,-0.6713866591453552,-0.5493163466453552,100.0,123868.0,1.0
15:35:35.586269,198489.765625,179601.28125,231787.515625,208313.4375,199497.90625,174360.953125,686325.0,201103.21875,0.1240234375,0.981201171875,-0.213623046875,-1.3732908964157104,-0.6713866591453552,-0.5187987685203552,100.0,123869.0,1.0
15:35:35.593120,198488.78125,179600.203125,231784.734375,208310.3125,199496.578125,174354.875,686359.8125,201102.140625,0.1220703125,0.979248046875,-0.214111328125,-1.3732908964157104,-0.7019042372703552,-0.4882812201976776,100.0,123870.0,1.0
15:35:35.597482,198495.03125,179611.828125,231797.53125,208314.953125,199514.1875,174393.59375,686365.6875,201104.375,0.12353515625,0.978759765625,-0.21142578125,-1.4038084745407104,-0.6103515028953552,-0.3967284858226776,100.0,123871.0,1.0
15:35:35.597492,198496.46875,179616.65625,231798.59375,208309.6875,199511.765625,174402.171875,686326.6875,201095.171875,0.126708984375,0.978759765625,-0.2109375,-1.3732908964157104,-0.6713866591453552,-0.2746581733226776,100.0,123872.0,1.0
15:35:35.603698,198495.921875,179614.421875,231794.390625,208314.0625,199505.515625,174377.859375,686318.1875,201103.484375,0.12841796875,0.979736328125,-0.208984375,-1.3427733182907104,-0.6408690810203552,-0.1525878757238388,100.0,123873.0,1.0
15:35:35.603701,198487.4375,179603.515625,231781.25,208307.0,199494.25,174354.078125,686346.1875,201095.4375,0.128173828125,0.979736328125,-0.21044921875,-1.3732908964157104,-0.3967284858226776,-0.2441406100988388,100.0,123874.0,1.0
15:35:35.605729,198489.578125,179611.296875,231788.40625,208306.90625,199505.25,174383.765625,686365.6875,201093.640625,0.127685546875,0.98193359375,-0.21240234375,-1.2817381620407104,-0.3967284858226776,-0.3662109076976776,100.0,123875.0,1.0
15:35:35.616980,198487.96875,179613.984375,231788.5,208298.234375,199503.984375,174397.53125,686331.0,201083.71875,0.128173828125,0.983154296875,-0.211669921875,-1.2512205839157104,-0.3662109076976776,-0.3051757514476776,100.0,123876.0,1.0
15:35:35.620038,198486.8125,179609.421875,231783.671875,208303.875,199496.03125,174373.296875,686317.875,201089.265625,0.12841796875,0.984375,-0.21142578125,-1.2817381620407104,-0.3662109076976776,-0.4882812201976776,100.0,123877.0,1.0
15:35:35.620047,198492.265625,179610.765625,231788.234375,208319.515625,199497.640625,174360.0625,686332.0,201101.0625,0.126953125,0.982666015625,-0.20751953125,-1.3122557401657104,-0.3356933295726776,-0.5493163466453552,100.0,123878.0,1.0
15:35:35.622097,198492.703125,179613.984375,231792.609375,208318.984375,199504.796875,174382.421875,686376.25,201097.84375,0.123779296875,0.98193359375,-0.209716796875,-1.3732908964157104,-0.2441406100988388,-0.4577636420726776,100.0,123879.0,1.0
15:35:35.640058,198494.140625,179620.421875,231798.0625,208317.109375,199509.984375,174405.578125,686333.3125,201092.671875,0.122802734375,0.98095703125,-0.20849609375,-1.4343260526657104,-0.2136230319738388,-0.6103515028953552,100.0,123880.0,1.0
15:35:35.640139,198492.171875,179616.75,231791.09375,208315.5,199502.828125,174386.359375,686327.6875,201093.828125,0.12255859375,0.982421875,-0.211669921875,-1.3732908964157104,-0.3051757514476776,-0.6713866591453552,100.0,123881.0,1.0
15:35:35.642509,198487.796875,179608.4375,231784.46875,208315.765625,199496.03125,174359.53125,686333.125,201097.765625,0.121826171875,0.982666015625,-0.21142578125,-1.2512205839157104,-0.1831054538488388,-0.6408690810203552,100.0,123882.0,1.0
15:35:35.642571,198485.828125,179608.703125,231784.5625,208308.515625,199497.546875,174373.921875,686381.4375,201089.71875,0.121826171875,0.982666015625,-0.213134765625,-1.3427733182907104,-0.2136230319738388,-0.7019042372703552,100.0,123883.0,1.0
15:35:35.649463,198489.84375,179616.921875,231795.203125,208308.796875,199508.1875,174404.234375,686349.0,201087.84375,0.1220703125,0.982177734375,-0.21240234375,-1.3427733182907104,-0.2136230319738388,-0.7324218153953552,100.0,123884.0,1.0
15:35:35.655811,198493.609375,179618.984375,231793.234375,208307.8125,199504.890625,174393.765625,686330.8125,201091.140625,0.123291015625,0.981201171875,-0.212646484375,-1.3427733182907104,-0.3051757514476776,-0.8239745497703552,100.0,123885.0,1.0
15:35:35.668779,198490.65625,179612.546875,231786.078125,208314.953125,199500.859375,174364.359375,686332.0,201103.21875,0.125,0.982666015625,-0.213134765625,-1.3122557401657104,-0.3051757514476776,-0.8544921278953552,100.0,123886.0,1.0
15:35:35.668809,198491.640625,179616.921875,231789.03125,208313.171875,199503.71875,174375.71875,686374.625,201100.078125,0.125244140625,0.984130859375,-0.211669921875,-1.4343260526657104,-0.2746581733226776,-0.9155272841453552,100.0,123887.0,1.0
15:35:35.670636,198495.65625,179623.546875,231802.4375,208315.5,199516.6875,174409.234375,686340.375,201100.171875,0.125244140625,0.98388671875,-0.209228515625,-1.3732908964157104,-0.2136230319738388,-1.0681151151657104,100.0,123888.0,1.0
15:35:35.673160,198494.140625,179619.796875,231796.8125,208308.609375,199508.015625,174396.640625,686329.5,201093.640625,0.125,0.985107421875,-0.208251953125,-1.3122557401657104,-0.1220703050494194,-1.1901854276657104,100.0,123889.0,1.0
15:35:35.675760,198490.5625,179610.84375,231789.203125,208316.21875,199501.046875,174363.109375,686332.625,201103.84375,0.121337890625,0.98681640625,-0.20849609375,-1.4343260526657104,-0.1525878757238388,-1.3427733182907104,100.0,123890.0,1.0
15:35:35.711994,198489.140625,179607.984375,231785.546875,208313.890625,199496.578125,174360.25,686366.125,201098.46875,0.117431640625,0.98779296875,-0.20703125,-1.5258787870407104,-0.1525878757238388,-1.4343260526657104,100.0,123891.0,1.0
15:35:35.727468,198491.1875,179612.453125,231795.734375,208317.90625,199508.734375,174391.359375,686348.1875,201098.46875,0.116455078125,0.987060546875,-0.204833984375,-1.5563963651657104,-0.2746581733226776,-1.5563963651657104,100.0,123892.0,1.0
15:35:35.727494,198492.703125,179615.3125,231796.0,208313.171875,199505.78125,174391.71875,686334.0625,201090.96875,0.114501953125,0.98681640625,-0.205078125,-1.5563963651657104,-0.2136230319738388,-1.7395018339157104,100.0,123893.0,1.0
15:35:35.729480,198485.734375,179604.5,231784.734375,208317.375,199496.390625,174357.828125,686324.75,201098.46875,0.11376953125,0.98828125,-0.207763671875,-1.6784666776657104,-0.3662109076976776,-1.6174315214157104,100.0,123894.0,1.0
15:35:35.731922,198484.9375,179602.09375,231780.359375,208315.5,199493.171875,174349.34375,686360.9375,201096.234375,0.115234375,0.9873046875,-0.20654296875,-1.8005369901657104,-0.4272460639476776,-1.7395018339157104,100.0,123895.0,1.0
15:35:35.734355,198490.734375,179611.65625,231792.96875,208315.5,199507.296875,174385.90625,686372.125,201094.546875,0.11474609375,0.988525390625,-0.205078125,-1.9226073026657104,-0.6103515028953552,-1.8005369901657104,100.0,123896.0,1.0
15:35:35.736925,198497.890625,179621.84375,231800.203125,208311.65625,199512.75,174402.53125,686347.6875,201091.859375,0.113525390625,0.987060546875,-0.206787109375,-2.075195074081421,-0.7019042372703552,-1.7700194120407104,100.0,123897.0,1.0
15:35:35.739377,198497.0,179615.5,231793.6875,208316.296875,199508.375,174375.359375,686331.5625,201101.421875,0.11474609375,0.988037109375,-0.205322265625,-2.075195074081421,-0.8850097060203552,-1.8310545682907104,100.0,123898.0,1.0
15:35:35.741920,198494.9375,179611.828125,231789.75,208320.859375,199504.078125,174361.40625,686349.3125,201102.765625,0.115966796875,0.98828125,-0.205322265625,-2.136230230331421,-1.0070799589157104,-1.7700194120407104,100.0,123899.0,1.0
15:35:35.744366,198505.578125,179626.859375,231806.734375,208332.03125,199523.65625,174400.921875,686370.8125,201109.734375,0.11865234375,0.989013671875,-0.207275390625,-2.258300542831421,-1.0681151151657104,-1.8615721464157104,100.0,123900.0,1.0
15:35:35.746926,198508.4375,179632.65625,231812.453125,208330.609375,199527.78125,174416.578125,686348.8125,201105.453125,0.1181640625,0.989013671875,-0.205322265625,-2.258300542831421,-1.1596678495407104,-1.7089842557907104,100.0,123901.0,1.0
15:35:35.749388,198503.4375,179623.71875,231803.96875,208329.984375,199519.09375,174388.5,686336.1875,201110.1875,0.11865234375,0.98974609375,-0.2041015625,-2.380370855331421,-1.0681151151657104,-1.5869139432907104,100.0,123902.0,1.0
15:35:35.752146,198505.046875,179621.75,231800.65625,208334.453125,199517.3125,174372.40625,686356.6875,201117.96875,0.11865234375,0.989013671875,-0.20703125,-2.410888433456421,-1.0986326932907104,-1.4953612089157104,100.0,123903.0,1.0
15:35:35.754501,198510.234375,179632.3125,231808.703125,208334.8125,199528.125,174400.921875,686392.0,201118.328125,0.120361328125,0.98779296875,-0.2060546875,-2.502441167831421,-1.1596678495407104,-1.4343260526657104,100.0,123904.0,1.0
15:35:35.756947,198511.3125,179641.515625,231815.859375,208331.59375,199533.9375,174423.71875,686343.875,201114.03125,0.11962890625,0.9873046875,-0.205078125,-2.563476324081421,-1.0986326932907104,-1.4038084745407104,100.0,123905.0,1.0
15:35:35.759393,198509.609375,179639.015625,231809.859375,208329.53125,199526.171875,174404.59375,686332.3125,201114.5625,0.12158203125,0.987548828125,-0.203369140625,-2.563476324081421,-1.1596678495407104,-1.3122557401657104,100.0,123906.0,1.0
15:35:35.761940,198508.71875,179632.21875,231806.375,208337.3125,199522.859375,174380.625,686334.3125,201125.296875,0.119140625,0.9892578125,-0.202880859375,-2.563476324081421,-1.1596678495407104,-1.2817381620407104,100.0,123907.0,1.0
15:35:35.764984,198513.546875,179637.21875,231813.4375,208343.65625,199532.515625,174399.3125,686384.5625,201127.359375,0.11962890625,0.98779296875,-0.202392578125,-2.685546636581421,-1.1901854276657104,-1.2817381620407104,100.0,123908.0,1.0
15:35:35.764999,198514.703125,179641.96875,231823.71875,208344.375,199541.0,174428.109375,686350.6875,201123.515625,0.1201171875,0.98876953125,-0.202392578125,-2.746581792831421,-1.1901854276657104,-1.0070799589157104,100.0,123909.0,1.0
15:35:35.767504,198507.015625,179631.859375,231809.59375,208330.609375,199525.453125,174405.578125,686328.5625,201112.609375,0.119384765625,0.989990234375,-0.2041015625,-2.838134527206421,-1.1291502714157104,-1.0986326932907104,100.0,123910.0,1.0
15:35:35.767520,198503.703125,179621.3125,231801.734375,208338.109375,199518.203125,174373.03125,686317.75,201123.15625,0.119140625,0.991455078125,-0.20458984375,-2.868652105331421,-1.1291502714157104,-1.0375975370407104,100.0,123911.0,1.0
15:35:35.769372,198506.296875,179624.078125,231804.234375,208335.4375,199520.703125,174382.421875,686374.25,201118.59375,0.11865234375,0.989013671875,-0.20751953125,-2.960204839706421,-1.1901854276657104,-1.0681151151657104,100.0,123912.0,1.0
15:35:35.772484,198508.984375,179631.40625,231817.015625,208337.3125,199533.578125,174416.84375,686355.6875,201117.703125,0.117919921875,0.98828125,-0.203857421875,-2.990722417831421,-1.1291502714157104,-1.0070799589157104,100.0,123913.0,1.0
15:35:35.772494,198501.921875,179623.8125,231804.765625,208324.609375,199520.171875,174402.890625,686334.3125,201105.265625,0.119140625,0.987548828125,-0.203369140625,-2.868652105331421,-1.2207030057907104,-0.9765624403953552,100.0,123914.0,1.0
15:35:35.776970,198497.0,179612.90625,231794.671875,208330.515625,199511.6875,174367.046875,686331.0,201116.0,0.115234375,0.984375,-0.20068359375,-2.899169683456421,-1.1596678495407104,-1.0070799589157104,100.0,123915.0,1.0
15:35:35.779399,198499.6875,179614.0625,231796.546875,208332.578125,199513.921875,174366.0625,686364.6875,201117.25,0.116455078125,0.98095703125,-0.200927734375,-2.929687261581421,-1.0681151151657104,-1.0681151151657104,100.0,123916.0,1.0
15:35:35.782548,198502.71875,179620.765625,231807.53125,208334.0,199525.890625,174398.421875,686358.625,201114.390625,0.11474609375,0.981689453125,-0.203857421875,-2.807616949081421,-1.0681151151657104,-1.1291502714157104,100.0,123917.0,1.0
15:35:35.782577,198508.4375,179628.546875,231811.109375,208330.875,199527.0625,174405.65625,686329.0625,201110.71875,0.115234375,0.9814453125,-0.2041015625,-2.807616949081421,-1.0681151151657104,-1.0681151151657104,100.0,123918.0,1.0
15:35:35.784992,198507.015625,179621.21875,231807.625,208337.40625,199523.484375,174376.34375,686308.5625,201122.890625,0.115234375,0.979736328125,-0.200927734375,-2.624511480331421,-1.1291502714157104,-1.1596678495407104,100.0,123919.0,1.0
15:35:35.785013,198509.96875,179620.6875,231809.5,208339.71875,199523.03125,174369.28125,686346.0,201124.5,0.115234375,0.978271484375,-0.19775390625,-2.624511480331421,-1.0681151151657104,-1.0681151151657104,100.0,123920.0,1.0
15:35:35.814701,198513.453125,179623.453125,231816.65625,208341.875,199533.859375,174397.609375,686355.5625,201123.859375,0.115966796875,0.978271484375,-0.199462890625,-2.502441167831421,-1.2207030057907104,-1.0375975370407104,100.0,123921.0,1.0
15:35:35.818183,198516.484375,179627.125,231818.984375,208339.546875,199535.46875,174406.46875,686321.4375,201119.125,0.117919921875,0.97607421875,-0.198486328125,-2.258300542831421,-1.1596678495407104,-1.1291502714157104,100.0,123922.0,1.0
15:35:35.818211,198513.546875,179621.40625,231810.671875,208339.546875,199528.75,174378.3125,686313.125,201126.453125,0.115966796875,0.97607421875,-0.20068359375,-2.197265386581421,-1.0986326932907104,-1.1596678495407104,100.0,123923.0,1.0
15:35:35.818224,198514.4375,179620.0625,231809.6875,208341.15625,199526.96875,174364.71875,686342.1875,201129.859375,0.117919921875,0.975830078125,-0.203369140625,-1.9531248807907104,-1.0986326932907104,-1.0986326932907104,100.0,123924.0,1.0
15:35:35.821880,198522.75,179633.5625,231825.15625,208347.59375,199543.515625,174400.203125,686360.75,201133.875,0.119384765625,0.9755859375,-0.20263671875,-1.8920897245407104,-1.0375975370407104,-1.0070799589157104,100.0,123925.0,1.0
15:35:35.821896,198521.765625,179636.328125,231826.9375,208343.21875,199543.59375,174415.859375,686327.25,201123.15625,0.11962890625,0.976318359375,-0.2041015625,-1.7089842557907104,-0.9460448622703552,-0.8850097060203552,100.0,123926.0,1.0
15:35:35.821907,198515.421875,179625.953125,231814.515625,208338.921875,199531.96875,174388.140625,686311.0625,201122.703125,0.1201171875,0.97705078125,-0.20556640625,-1.4953612089157104,-0.9460448622703552,-0.9460448622703552,100.0,123927.0,1.0
15:35:35.825012,198517.125,179624.53125,231812.546875,208347.421875,199530.453125,174368.921875,686336.875,201132.8125,0.121337890625,0.978271484375,-0.206298828125,-1.3732908964157104,-0.8239745497703552,-0.8850097060203552,100.0,123928.0,1.0
15:35:35.825045,198515.953125,179627.65625,231815.5,208345.453125,199534.390625,174386.703125,686373.9375,201127.4375,0.124755859375,0.98046875,-0.206787109375,-1.2512205839157104,-0.5493163466453552,-0.8850097060203552,100.0,123929.0,1.0
15:35:35.827152,198517.828125,179632.578125,231821.578125,208345.625,199541.546875,174413.265625,686341.9375,201121.984375,0.122314453125,0.9794921875,-0.205810546875,-1.0681151151657104,-0.6103515028953552,-0.7629393935203552,100.0,123930.0,1.0
15:35:35.830894,198517.46875,179628.734375,231815.234375,208343.484375,199534.390625,174395.5625,686323.375,201120.65625,0.119384765625,0.981201171875,-0.2060546875,-0.9460448622703552,-0.5187987685203552,-0.7019042372703552,100.0,123931.0,1.0
15:35:35.846181,198511.484375,179617.46875,231806.640625,208346.609375,199525.359375,174362.75,686314.25,201125.5625,0.119384765625,0.9814453125,-0.2060546875,-0.8239745497703552,-0.4882812201976776,-0.6408690810203552,100.0,123932.0,1.0
15:35:35.846192,198510.234375,179618.53125,231808.875,208340.0,199527.421875,174374.640625,686371.875,201120.203125,0.11865234375,0.984130859375,-0.20556640625,-0.7324218153953552,-0.3356933295726776,-0.7019042372703552,100.0,123933.0,1.0
15:35:35.848666,198515.0625,179627.5625,231819.609375,208341.15625,199540.375,174408.4375,686344.5625,201120.109375,0.115234375,0.9853515625,-0.20556640625,-0.5187987685203552,-0.3967284858226776,-0.5493163466453552,100.0,123934.0,1.0
15:35:35.848675,198518.015625,179627.75,231814.15625,208338.03125,199536.359375,174397.796875,686323.25,201120.65625,0.1162109375,0.986328125,-0.20458984375,-0.5493163466453552,-0.3662109076976776,-0.5187987685203552,100.0,123935.0,1.0
15:35:35.858119,198512.375,179616.296875,231804.5,208340.984375,199528.046875,174364.453125,686337.875,201128.609375,0.114990234375,0.984619140625,-0.2041015625,-0.4882812201976776,-0.3051757514476776,-0.4882812201976776,100.0,123936.0,1.0
15:35:35.865022,198517.125,179624.34375,231809.859375,208343.484375,199533.234375,174378.3125,686377.75,201127.0,0.113037109375,0.982421875,-0.20068359375,-0.4577636420726776,-0.1220703050494194,-0.4272460639476776,100.0,123937.0,1.0
15:35:35.865039,198520.6875,179636.0625,231823.71875,208347.6875,199548.609375,174416.390625,686338.5,201128.515625,0.11083984375,0.980712890625,-0.200927734375,-0.3356933295726776,-0.2136230319738388,-0.3051757514476776,100.0,123938.0,1.0
15:35:35.874946,198522.03125,179639.28125,231821.390625,208342.40625,199543.0625,174414.25,686325.875,201123.0625,0.11474609375,0.97900390625,-0.201904296875,-0.2441406100988388,-0.2441406100988388,-0.2746581733226776,100.0,123939.0,1.0
15:35:35.874955,198515.421875,179625.6875,231812.09375,208346.78125,199533.859375,174376.96875,686321.3125,201131.28125,0.113525390625,0.97900390625,-0.2021484375,-0.1831054538488388,-0.2136230319738388,-0.2136230319738388,100.0,123940.0,1.0
15:35:35.877515,198514.703125,179623.28125,231811.203125,208343.484375,199530.546875,174370.96875,686361.375,201125.828125,0.11279296875,0.977294921875,-0.2041015625,-0.1220703050494194,-0.1831054538488388,-0.1525878757238388,100.0,123941.0,1.0
15:35:35.877522,198513.265625,179626.40625,231818.359375,208340.4375,199539.21875,174400.03125,686361.875,201121.359375,0.115966796875,0.978271484375,-0.20703125,-0.0610351525247097,-0.1525878757238388,-0.1220703050494194,100.0,123942.0,1.0
15:35:35.884435,198515.421875,179631.953125,231817.015625,208332.3125,199538.0625,174406.734375,686322.9375,201115.015625,0.113037109375,0.978759765625,-0.206298828125,0.03051757626235485,-0.1525878757238388,-0.0915527269244194,100.0,123943.0,1.0
15:35:35.893746,198517.75,179632.03125,231812.8125,208340.796875,199535.90625,174382.6875,686306.6875,201128.96875,0.11328125,0.9794921875,-0.20849609375,0.1525878757238388,-0.1220703050494194,-0.0915527269244194,100.0,123944.0,1.0
15:35:35.893755,198519.53125,179632.125,231810.3125,208343.65625,199533.40625,174374.375,686334.75,201128.25,0.11572265625,0.981201171875,-0.20947265625,0.2136230319738388,-0.03051757626235485,-0.1220703050494194,100.0,123945.0,1.0
15:35:35.896229,198522.484375,179640.4375,231819.25,208345.71875,199545.5625,174409.234375,686370.625,201127.53125,0.1162109375,0.97998046875,-0.208984375,0.3051757514476776,-0.0915527269244194,0.0,100.0,123946.0,1.0
15:35:35.896245,198524.0,179644.828125,231821.046875,208340.4375,199546.640625,174420.59375,686338.3125,201121.28125,0.11328125,0.980224609375,-0.2109375,0.5187987685203552,-0.0610351525247097,0.0,100.0,123947.0,1.0
15:35:35.898143,198521.3125,179635.609375,231812.546875,208343.578125,199539.75,174389.5625,686332.4375,201128.421875,0.111572265625,0.98046875,-0.2099609375,0.5187987685203552,0.0,-0.1525878757238388,100.0,123948.0,1.0
15:35:35.906919,198521.140625,179634.8125,231809.59375,208346.078125,199537.703125,174375.171875,686364.5,201133.34375,0.11181640625,0.9814453125,-0.209716796875,0.6103515028953552,0.0915527269244194,-0.1220703050494194,100.0,123949.0,1.0
15:35:35.910637,198527.578125,179647.0625,231821.9375,208350.09375,199552.09375,174407.625,686381.1875,201135.578125,0.110595703125,0.981689453125,-0.2099609375,0.6713866591453552,0.0915527269244194,-0.2136230319738388,100.0,123950.0,1.0
15:35:35.917493,198530.53125,179657.515625,231828.109375,208345.8125,199557.1875,174428.640625,686337.25,201129.859375,0.108154296875,0.98486328125,-0.207763671875,0.6103515028953552,0.0,-0.2441406100988388,100.0,123951.0,1.0
15:35:35.917506,198531.875,179655.546875,231823.0,208347.6875,199552.453125,174409.234375,686322.75,201135.671875,0.1064453125,0.984619140625,-0.207763671875,0.7019042372703552,-0.0610351525247097,-0.1831054538488388,100.0,123952.0,1.0
15:35:35.926917,198524.984375,179642.859375,231813.890625,208349.203125,199545.296875,174382.78125,686333.75,201138.078125,0.107666015625,0.985595703125,-0.20947265625,0.6103515028953552,-0.03051757626235485,-0.2136230319738388,100.0,123953.0,1.0
15:35:35.930097,198527.9375,179650.640625,231821.390625,208347.5,199554.859375,174409.6875,686384.9375,201134.0625,0.106201171875,0.986328125,-0.20849609375,0.6103515028953552,-0.1220703050494194,-0.1525878757238388,100.0,123954.0,1.0
15:35:35.930125,198528.296875,179655.546875,231826.765625,208341.421875,199559.953125,174433.734375,686344.6875,201127.171875,0.107177734375,0.9873046875,-0.208740234375,0.6103515028953552,-0.2136230319738388,-0.1831054538488388,100.0,123955.0,1.0
15:35:35.933062,198524.53125,179647.78125,231816.5625,208334.71875,199548.96875,174410.3125,686326.875,201124.5,0.1083984375,0.987548828125,-0.2109375,0.5187987685203552,-0.2746581733226776,-0.0915527269244194,100.0,123956.0,1.0
15:35:35.943696,198524.09375,179643.03125,231812.28125,208342.671875,199546.375,174386.53125,686324.125,201135.9375,0.109130859375,0.986572265625,-0.212158203125,0.5493163466453552,-0.3051757514476776,-0.0915527269244194,100.0,123957.0,1.0
15:35:35.943713,198525.875,179648.9375,231816.390625,208340.703125,199550.75,174402.71875,686372.9375,201133.609375,0.11083984375,0.98583984375,-0.21044921875,0.5187987685203552,-0.2746581733226776,-0.0915527269244194,100.0,123958.0,1.0
15:35:35.946223,198526.421875,179655.109375,231826.140625,208340.078125,199558.890625,174433.375,686353.0625,201129.765625,0.111083984375,0.986572265625,-0.2099609375,0.3967284858226776,-0.3356933295726776,-0.0610351525247097,100.0,123959.0,1.0
15:35:35.946241,198531.953125,179658.234375,231829.890625,208341.328125,199556.390625,174426.40625,686336.1875,201132.625,0.113525390625,0.98828125,-0.20947265625,0.4577636420726776,-0.3662109076976776,-0.0610351525247097,100.0,123960.0,1.0
15:35:35.953091,198525.875,179644.015625,231818.09375,208348.3125,199547.53125,174389.125,686317.4375,201142.28125,0.115234375,0.98779296875,-0.21142578125,0.3356933295726776,-0.4577636420726776,0.0915527269244194,100.0,123961.0,1.0
15:35:35.960038,198527.40625,179646.515625,231818.359375,208346.78125,199548.6875,174392.875,686372.125,201138.53125,0.118896484375,0.986083984375,-0.20849609375,0.2136230319738388,-0.3356933295726776,0.2746581733226776,100.0,123962.0,1.0
15:35:35.960109,198528.734375,179652.0625,231829.171875,208346.4375,199559.6875,174424.34375,686352.75,201136.03125,0.11865234375,0.988525390625,-0.2119140625,0.0915527269244194,-0.3967284858226776,0.1831054538488388,100.0,123963.0,1.0
15:35:35.961967,198526.6875,179649.296875,231823.0,208335.96875,199550.65625,174417.546875,686324.3125,201125.46875,0.118896484375,0.98681640625,-0.213623046875,0.0610351525247097,-0.2441406100988388,0.3051757514476776,100.0,123964.0,1.0
15:35:35.971999,198524.8125,179643.65625,231816.75,208343.390625,199545.125,174387.421875,686328.125,201135.84375,0.117919921875,0.987060546875,-0.215087890625,-0.03051757626235485,-0.1525878757238388,0.3662109076976776,100.0,123965.0,1.0
15:35:35.976313,198524.625,179644.640625,231814.0625,208342.671875,199542.96875,174384.03125,686373.3125,201134.5,0.117919921875,0.986572265625,-0.2158203125,0.0,-0.0610351525247097,0.4272460639476776,100.0,123966.0,1.0
15:35:35.976336,198526.0625,179649.828125,231821.9375,208343.65625,199554.5,174418.1875,686379.4375,201133.609375,0.118896484375,0.9873046875,-0.2119140625,-0.1220703050494194,0.0,0.4272460639476776,100.0,123967.0,1.0
15:35:35.983164,198529.1875,179656.453125,231824.609375,208337.40625,199553.96875,174427.84375,686346.0,201126.734375,0.11865234375,0.985595703125,-0.212158203125,-0.1831054538488388,0.1525878757238388,0.4577636420726776,100.0,123968.0,1.0
15:35:35.991892,198526.6875,179650.546875,231817.46875,208341.328125,199547.984375,174396.90625,686345.6875,201135.765625,0.117431640625,0.984375,-0.210693359375,-0.3356933295726776,0.2746581733226776,0.5798339247703552,100.0,123969.0,1.0
15:35:35.991952,198525.609375,179645.890625,231812.453125,208340.984375,199542.078125,174382.0625,686358.5625,201135.125,0.116943359375,0.98681640625,-0.212158203125,-0.3662109076976776,0.2441406100988388,0.5798339247703552,100.0,123970.0,1.0
15:35:35.993705,198535.265625,179658.59375,231830.34375,208350.1875,199562.28125,174419.875,686386.0,201143.71875,0.11669921875,0.9892578125,-0.212890625,-0.3967284858226776,0.3662109076976776,0.7019042372703552,100.0,123971.0,1.0
15:35:35.993751,198538.75,179664.9375,231834.09375,208345.265625,199565.5,174435.078125,686350.0625,201136.734375,0.116455078125,0.988037109375,-0.2109375,-0.5493163466453552,0.3967284858226776,0.6713866591453552,100.0,123972.0,1.0
15:35:36.003244,198528.296875,179649.109375,231817.640625,208336.5,199548.15625,174397.96875,686332.8125,201132.1875,0.115478515625,0.986572265625,-0.21240234375,-0.5798339247703552,0.4882812201976776,0.5493163466453552,100.0,123973.0,1.0
15:35:36.010215,198526.328125,179643.21875,231815.3125,208340.0,199543.6875,174378.125,686337.875,201136.296875,0.11474609375,0.9853515625,-0.2099609375,-0.6103515028953552,0.5187987685203552,0.5493163466453552,100.0,123974.0,1.0
15:35:36.010288,198531.15625,179656.09375,231826.40625,208344.28125,199556.203125,174416.21875,686386.25,201134.78125,0.113525390625,0.984130859375,-0.20947265625,-0.7324218153953552,0.5493163466453552,0.4272460639476776,100.0,123975.0,1.0
15:35:36.012502,198546.359375,179679.515625,231845.53125,208359.75,199574.09375,174456.0,686349.4375,201146.75,0.11474609375,0.985107421875,-0.211669921875,-0.7934569716453552,0.5798339247703552,0.3967284858226776,100.0,123976.0,1.0
15:35:36.012566,198537.953125,179662.25,231829.71875,208354.484375,199558.265625,174416.390625,686332.0625,201142.46875,0.114013671875,0.984130859375,-0.2109375,-0.7934569716453552,0.6408690810203552,0.3356933295726776,100.0,123977.0,1.0
15:35:36.018157,198517.828125,179633.109375,231805.125,208336.328125,199534.484375,174363.90625,686338.75,201123.421875,0.115966796875,0.98291015625,-0.212646484375,-0.8544921278953552,0.6408690810203552,0.2746581733226776,100.0,123978.0,1.0
15:35:36.028220,198522.21875,179640.625,231813.0,208336.953125,199545.125,174386.796875,686383.5625,201124.40625,0.115966796875,0.982177734375,-0.209716796875,-0.7934569716453552,0.6713866591453552,0.3051757514476776,100.0,123979.0,1.0
15:35:36.032465,198526.859375,179651.703125,231824.34375,208337.9375,199556.921875,174417.640625,686345.75,201125.125,0.115966796875,0.982177734375,-0.212158203125,-0.8239745497703552,0.6713866591453552,0.1831054538488388,100.0,123980.0,1.0
15:35:36.032492,198530.34375,179655.109375,231821.84375,208337.84375,199554.5,174407.265625,686335.3125,201128.15625,0.11767578125,0.9814453125,-0.211669921875,-0.8239745497703552,0.8239745497703552,0.1525878757238388,100.0,123981.0,1.0
15:35:36.041975,198523.015625,179644.90625,231811.03125,208340.53125,199544.765625,174379.015625,686338.875,201134.234375,0.11669921875,0.983154296875,-0.2138671875,-0.8239745497703552,0.9765624403953552,0.0,100.0,123982.0,1.0
15:35:36.083876,198528.03125,179655.1875,231819.078125,208345.359375,199553.34375,174403.96875,686384.75,201138.53125,0.1171875,0.982666015625,-0.212646484375,-0.7934569716453552,1.0375975370407104,-0.03051757626235485,100.0,123983.0,1.0
15:35:36.083904,198530.078125,179658.859375,231829.0,208347.59375,199564.515625,174431.765625,686351.125,201138.265625,0.116455078125,0.981689453125,-0.212646484375,-0.7629393935203552,1.0986326932907104,-0.03051757626235485,100.0,123984.0,1.0
15:35:36.088199,198524.984375,179651.53125,231817.28125,208336.234375,199551.375,174411.65625,686328.0625,201127.359375,0.116455078125,0.980712890625,-0.212646484375,-0.7019042372703552,1.1291502714157104,-0.0915527269244194,100.0,123985.0,1.0
15:35:36.090777,198519.4375,179643.125,231807.0,208341.0625,199543.859375,174382.0625,686331.6875,201133.4375,0.116455078125,0.982421875,-0.2109375,-0.7019042372703552,1.2207030057907104,-0.2136230319738388,100.0,123986.0,1.0
15:35:36.093175,198521.671875,179642.234375,231808.25,208343.484375,199545.03125,174379.640625,686374.1875,201133.078125,0.1162109375,0.984130859375,-0.2109375,-0.8239745497703552,1.3122557401657104,-0.1525878757238388,100.0,123987.0,1.0
15:35:36.095812,198531.25,179658.140625,231828.640625,208351.609375,199565.234375,174423.1875,686345.0625,201138.53125,0.115234375,0.982666015625,-0.2138671875,-0.7324218153953552,1.2512205839157104,-0.0915527269244194,100.0,123988.0,1.0
15:35:36.098154,198535.53125,179664.765625,231830.78125,208348.125,199563.8125,174428.90625,686332.3125,201133.078125,0.114501953125,0.982421875,-0.214111328125,-0.7934569716453552,1.3427733182907104,-0.2441406100988388,100.0,123989.0,1.0
15:35:36.100693,198532.3125,179650.71875,231819.515625,208355.90625,199555.9375,174391.0,686314.75,201144.609375,0.114501953125,0.984375,-0.211181640625,-0.7629393935203552,1.3122557401657104,-0.1831054538488388,100.0,123990.0,1.0
15:35:36.106941,198533.75,179650.71875,231817.375,208355.734375,199554.59375,174387.421875,686359.0625,201145.59375,0.1142578125,0.984619140625,-0.21240234375,-0.7324218153953552,1.3732908964157104,-0.1525878757238388,100.0,123991.0,1.0
15:35:36.111921,198538.84375,179661.625,231831.40625,208358.328125,199570.875,174426.859375,686375.0,201149.171875,0.1123046875,0.98583984375,-0.210205078125,-0.6408690810203552,1.4648436307907104,-0.0610351525247097,100.0,123992.0,1.0
15:35:36.114429,198533.65625,179656.625,231824.703125,208347.140625,199562.28125,174425.328125,686335.3125,201137.1875,0.111328125,0.986083984375,-0.2119140625,-0.6408690810203552,1.4343260526657104,-0.0915527269244194,100.0,123993.0,1.0
15:35:36.116929,198527.9375,179645.71875,231815.046875,208351.890625,199551.90625,174391.984375,686317.3125,201145.140625,0.109375,0.987060546875,-0.215087890625,-0.7629393935203552,1.4038084745407104,-0.03051757626235485,100.0,123994.0,1.0
15:35:36.119365,198524.453125,179641.25,231812.09375,208351.53125,199545.296875,174376.96875,686346.1875,201143.453125,0.1083984375,0.987548828125,-0.212646484375,-0.8239745497703552,1.4038084745407104,-0.0915527269244194,100.0,123995.0,1.0
15:35:36.122520,198527.21875,179648.9375,231822.296875,208351.265625,199556.65625,174409.421875,686377.25,201141.21875,0.10791015625,0.986328125,-0.2119140625,-0.8544921278953552,1.3427733182907104,-0.0610351525247097,100.0,123996.0,1.0
15:35:36.122561,198533.296875,179660.203125,231830.875,208345.1875,199561.21875,174429.71875,686348.0625,201134.0625,0.10791015625,0.986328125,-0.21044921875,-0.7934569716453552,1.2817381620407104,-0.03051757626235485,100.0,123997.0,1.0
15:35:36.124975,198532.859375,179656.171875,231825.421875,208346.515625,199556.03125,174405.578125,686335.9375,201139.953125,0.107666015625,0.987060546875,-0.211181640625,-0.8239745497703552,1.1291502714157104,0.1220703050494194,100.0,123998.0,1.0
15:35:36.124999,198529.1875,179647.59375,231817.640625,208347.5,199549.140625,174382.59375,686343.9375,201141.21875,0.10498046875,0.98583984375,-0.211181640625,-0.9460448622703552,1.1291502714157104,0.2136230319738388,100.0,123999.0,1.0
15:35:36.126948,198534.109375,179655.8125,231827.46875,208353.046875,199560.5,174410.765625,686377.6875,201140.3125,0.104248046875,0.9873046875,-0.213134765625,-1.0070799589157104,1.0681151151657104,0.2441406100988388,100.0,124000.0,1.0
15:35:36.129472,198538.75,179663.59375,231835.875,208354.75,199567.828125,174434.1875,686347.375,201136.65625,0.10546875,0.986083984375,-0.2138671875,-1.0375975370407104,0.9155272841453552,0.3356933295726776,100.0,124001.0,1.0
15:35:36.132651,198538.125,179659.03125,231828.015625,208350.546875,199560.3125,174410.40625,686329.8125,201137.90625,0.107421875,0.985107421875,-0.20849609375,-1.0375975370407104,0.9765624403953552,0.3356933295726776,100.0,124002.0,1.0
15:35:36.132699,198534.109375,179648.40625,231818.984375,208352.78125,199553.515625,174380.359375,686340.5625,201143.890625,0.107666015625,0.985595703125,-0.211181640625,-1.1291502714157104,0.7934569716453552,0.3356933295726776,100.0,124003.0,1.0
15:35:36.135011,198535.625,179651.078125,231823.90625,208349.203125,199557.90625,174397.96875,686387.9375,201140.046875,0.107666015625,0.98681640625,-0.211181640625,-1.0986326932907104,0.7934569716453552,0.4577636420726776,100.0,124004.0,1.0
15:35:36.135033,198535.0,179655.90625,231830.15625,208346.078125,199565.859375,174425.421875,686349.0625,201134.421875,0.10693359375,0.986083984375,-0.209716796875,-1.1901854276657104,0.7019042372703552,0.5798339247703552,100.0,124005.0,1.0
15:35:36.137640,198530.796875,179651.078125,231820.5,208340.265625,199556.734375,174408.34375,686333.9375,201128.875,0.107666015625,0.985595703125,-0.210205078125,-1.2512205839157104,0.6408690810203552,0.6103515028953552,100.0,124006.0,1.0
15:35:36.137669,198526.953125,179642.859375,231811.203125,208345.890625,199548.6875,174378.125,686341.0,201135.125,0.10888671875,0.984619140625,-0.2109375,-1.4038084745407104,0.5798339247703552,0.6713866591453552,100.0,124007.0,1.0
15:35:36.144411,198527.125,179646.703125,231812.09375,208342.046875,199549.765625,174391.8125,686389.375,201129.234375,0.1103515625,0.984619140625,-0.213134765625,-1.4343260526657104,0.6408690810203552,0.6713866591453552,100.0,124008.0,1.0
15:35:36.151261,198537.5,179663.15625,231829.984375,208349.921875,199568.546875,174435.171875,686365.4375,201131.90625,0.110107421875,0.984619140625,-0.21630859375,-1.4343260526657104,0.5798339247703552,0.7324218153953552,100.0,124009.0,1.0
15:35:36.151274,198538.3125,179661.8125,231824.265625,208344.734375,199560.765625,174422.65625,686339.125,201125.75,0.11083984375,0.986328125,-0.21435546875,-1.4648436307907104,0.4272460639476776,0.9155272841453552,100.0,124010.0,1.0
15:35:36.153702,198533.75,179651.265625,231817.46875,208351.171875,199551.828125,174387.515625,686336.1875,201134.328125,0.1103515625,0.986328125,-0.2158203125,-1.5869139432907104,0.3967284858226776,0.9460448622703552,100.0,124011.0,1.0
15:35:36.153725,198536.96875,179656.171875,231819.078125,208351.4375,199552.8125,174394.484375,686375.4375,201133.609375,0.109619140625,0.9853515625,-0.2158203125,-1.6174315214157104,0.3662109076976776,0.9460448622703552,100.0,124012.0,1.0
15:35:36.164524,198545.90625,179669.765625,231836.953125,208361.0,199571.3125,174436.0625,686370.1875,201141.03125,0.109375,0.984375,-0.213134765625,-1.6479490995407104,0.3662109076976776,1.0681151151657104,100.0,124013.0,1.0
15:35:36.167532,198546.359375,179671.109375,231836.5,208356.4375,199567.203125,174436.0625,686332.625,201135.9375,0.109375,0.98583984375,-0.211669921875,-1.7395018339157104,0.2136230319738388,1.0375975370407104,100.0,124014.0,1.0
15:35:36.167594,198545.109375,179666.1875,231831.671875,208367.703125,199563.71875,174411.828125,686324.0,201150.78125,0.11181640625,0.985107421875,-0.21484375,-1.7089842557907104,0.2441406100988388,0.8850097060203552,100.0,124015.0,1.0
15:35:36.173158,198541.609375,179660.203125,231825.0625,208364.578125,199556.921875,174399.21875,686357.1875,201145.5,0.112548828125,0.9853515625,-0.2138671875,-1.7089842557907104,0.3967284858226776,0.9765624403953552,100.0,124016.0,1.0
15:35:36.180111,198543.3125,179661.09375,231833.375,208366.453125,199568.90625,174421.21875,686370.1875,201144.515625,0.112060546875,0.985595703125,-0.212158203125,-1.7700194120407104,0.3967284858226776,1.0681151151657104,100.0,124017.0,1.0
15:35:36.180160,198550.828125,179672.453125,231840.796875,208365.828125,199577.65625,174438.5625,686340.1875,201144.4375,0.113037109375,0.98583984375,-0.213623046875,-1.8005369901657104,0.4272460639476776,1.1596678495407104,100.0,124018.0,1.0
15:35:36.189486,198552.4375,179671.109375,231841.328125,208372.71875,199577.03125,174415.3125,686324.125,201157.9375,0.113525390625,0.98583984375,-0.213134765625,-1.8005369901657104,0.3051757514476776,1.2817381620407104,100.0,124019.0,1.0
15:35:36.193721,198557.265625,179678.0,231848.3125,208380.671875,199581.0625,174412.1875,686347.5625,201164.71875,0.114501953125,0.98583984375,-0.215576171875,-1.8615721464157104,0.3356933295726776,1.0681151151657104,100.0,124020.0,1.0
15:35:36.193738,198554.046875,179675.9375,231848.671875,208376.921875,199587.3125,174430.96875,686389.625,201159.546875,0.11376953125,0.986328125,-0.21484375,-1.9226073026657104,0.3662109076976776,1.1596678495407104,100.0,124021.0,1.0
15:35:36.199982,198551.265625,179674.15625,231847.59375,208367.171875,199586.0625,174439.109375,686349.3125,201150.15625,0.11328125,0.986572265625,-0.211669921875,-1.8920897245407104,0.3356933295726776,1.2512205839157104,100.0,124022.0,1.0
15:35:36.200000,198545.90625,179666.015625,231837.3125,208365.390625,199577.390625,174411.296875,686324.0,201154.0,0.113525390625,0.986083984375,-0.212646484375,-2.014159917831421,0.2746581733226776,1.3732908964157104,100.0,124023.0,1.0
15:35:36.205762,198542.59375,179658.953125,231835.25,208366.375,199571.5,174389.296875,686333.9375,201157.125,0.115478515625,0.984130859375,-0.212158203125,-2.044677495956421,0.2441406100988388,1.4343260526657104,100.0,124024.0,1.0
15:35:36.218771,198550.828125,179669.859375,231851.53125,208369.5,199583.75,174418.453125,686382.3125,201158.46875,0.115478515625,0.984619140625,-0.213134765625,-2.166747808456421,0.3356933295726776,1.4648436307907104,100.0,124025.0,1.0
15:35:36.218778,198553.78125,179676.734375,231855.375,208363.515625,199587.59375,174438.46875,686341.25,201149.703125,0.11572265625,0.985595703125,-0.21142578125,-2.288818120956421,0.3051757514476776,1.4343260526657104,100.0,124026.0,1.0
15:35:36.221859,198548.5,179668.421875,231840.34375,208356.4375,199574.09375,174411.828125,686324.8125,201143.8125,0.114501953125,0.98779296875,-0.214599609375,-2.319335699081421,0.2136230319738388,1.3122557401657104,100.0,124027.0,1.0
15:35:36.221888,198547.6875,179664.84375,231834.546875,208364.3125,199570.78125,174390.546875,686330.0,201151.765625,0.11328125,0.9873046875,-0.213134765625,-2.380370855331421,0.3356933295726776,1.4038084745407104,100.0,124028.0,1.0
15:35:36.221899,198554.21875,179677.28125,231843.125,208367.53125,199581.234375,174417.734375,686391.375,201152.65625,0.112548828125,0.98583984375,-0.213623046875,-2.349853277206421,0.3662109076976776,1.4648436307907104,100.0,124029.0,1.0
15:35:36.225646,198557.171875,179685.765625,231850.453125,208370.921875,199590.0,174447.59375,686357.125,201148.09375,0.11181640625,0.986083984375,-0.2119140625,-2.471923589706421,0.3356933295726776,1.4953612089157104,100.0,124030.0,1.0
15:35:36.232063,198554.40625,179684.78125,231845.09375,208365.921875,199581.15625,174434.71875,686345.5625,201142.109375,0.1142578125,0.986328125,-0.2119140625,-2.532958745956421,0.2746581733226776,1.4953612089157104,100.0,124031.0,1.0
15:35:36.247589,198548.859375,179678.34375,231840.890625,208369.953125,199574.359375,174409.6875,686343.9375,201151.046875,0.114013671875,0.986083984375,-0.21337890625,-2.471923589706421,0.2136230319738388,1.4343260526657104,100.0,124032.0,1.0
15:35:36.247628,198547.78125,179680.234375,231845.359375,208367.703125,199575.25,174416.390625,686395.1875,201147.203125,0.1142578125,0.9873046875,-0.211181640625,-2.563476324081421,0.1525878757238388,1.4343260526657104,100.0,124033.0,1.0
15:35:36.250042,198548.40625,179685.5,231856.171875,208369.671875,199585.359375,174448.21875,686363.0,201144.609375,0.11328125,0.986328125,-0.206787109375,-2.563476324081421,0.1525878757238388,1.4343260526657104,100.0,124034.0,1.0
15:35:36.250076,198547.34375,179685.765625,231850.28125,208363.953125,199578.640625,174442.671875,686349.9375,201139.6875,0.11328125,0.987060546875,-0.20947265625,-2.532958745956421,0.1220703050494194,1.4038084745407104,100.0,124035.0,1.0
15:35:36.257055,198543.21875,179680.5,231841.78125,208371.375,199574.53125,174417.203125,686329.9375,201152.5625,0.115234375,0.98681640625,-0.21142578125,-2.624511480331421,0.1525878757238388,1.3122557401657104,100.0,124036.0,1.0
15:35:36.261199,198532.5,179667.890625,231827.125,208356.359375,199560.859375,174401.109375,686366.125,201138.53125,0.115478515625,0.985595703125,-0.21240234375,-2.593993902206421,0.0610351525247097,1.4038084745407104,100.0,124037.0,1.0
15:35:36.261213,198529.984375,179669.5,231831.671875,208348.9375,199568.359375,174426.671875,686353.8125,201131.5625,0.115478515625,0.98583984375,-0.21044921875,-2.624511480331421,0.03051757626235485,1.3427733182907104,100.0,124038.0,1.0
15:35:36.271243,198531.78125,179670.578125,231829.984375,208345.453125,199568.71875,174429.265625,686326.0625,201129.859375,0.116455078125,0.986572265625,-0.211669921875,-2.624511480331421,0.0,1.3427733182907104,100.0,124039.0,1.0
15:35:36.271256,198530.96875,179660.46875,231824.53125,208356.796875,199566.390625,174396.71875,686323.5625,201144.96875,0.116943359375,0.985595703125,-0.207763671875,-2.716064214706421,0.0,1.3122557401657104,100.0,124040.0,1.0
15:35:36.273077,198538.9375,179664.765625,231831.234375,208367.078125,199572.125,174394.9375,686357.9375,201154.796875,0.117431640625,0.98583984375,-0.206298828125,-2.593993902206421,-0.03051757626235485,1.3122557401657104,100.0,124041.0,1.0
15:35:36.277026,198549.484375,179677.1875,231847.859375,208377.546875,199593.3125,174436.0625,686367.0,201164.453125,0.118408203125,0.984619140625,-0.2060546875,-2.563476324081421,-0.0610351525247097,1.3427733182907104,100.0,124042.0,1.0
15:35:36.287488,198557.53125,179685.765625,231854.296875,208380.140625,199599.75,174452.515625,686337.375,201166.96875,0.117431640625,0.984619140625,-0.205322265625,-2.563476324081421,-0.03051757626235485,1.3122557401657104,100.0,124043.0,1.0
15:35:36.287498,198549.125,179669.59375,231838.921875,208376.734375,199585.796875,174411.921875,686317.3125,201167.40625,0.116455078125,0.9814453125,-0.207275390625,-2.471923589706421,-0.1220703050494194,1.3122557401657104,100.0,124044.0,1.0
15:35:36.293814,198545.109375,179663.15625,231831.671875,208376.734375,199577.484375,174390.828125,686329.9375,201165.984375,0.11474609375,0.982666015625,-0.20556640625,-2.441406011581421,-0.0915527269244194,1.2817381620407104,100.0,124045.0,1.0
15:35:36.293823,198548.40625,179672.1875,231843.125,208379.953125,199589.28125,174423.015625,686356.5,201165.890625,0.116943359375,0.981689453125,-0.203369140625,-2.288818120956421,-0.1525878757238388,1.3122557401657104,100.0,124046.0,1.0
15:35:36.300071,198552.703125,179678.4375,231849.03125,208380.671875,199594.46875,174439.90625,686331.6875,201162.40625,0.11572265625,0.982177734375,-0.205078125,-2.258300542831421,-0.1525878757238388,1.2817381620407104,100.0,124047.0,1.0
15:35:36.300079,198552.34375,179673.4375,231842.40625,208379.515625,199588.484375,174415.9375,686320.875,201166.515625,0.116943359375,0.982177734375,-0.20751953125,-2.258300542831421,-0.3662109076976776,1.2512205839157104,100.0,124048.0,1.0
15:35:36.308171,198544.921875,179663.6875,231830.515625,208374.5,199577.03125,174391.53125,686332.9375,201163.390625,0.11572265625,0.982421875,-0.207275390625,-2.166747808456421,-0.3662109076976776,1.3122557401657104,100.0,124049.0,1.0
15:35:36.311240,198547.421875,179667.984375,231835.96875,208372.890625,199581.78125,174412.09375,686372.0625,201160.25,0.114501953125,0.98046875,-0.20849609375,-2.044677495956421,-0.2746581733226776,1.1901854276657104,100.0,124050.0,1.0
15:35:36.311315,198549.578125,179670.125,231841.0625,208370.578125,199585.078125,174430.34375,686335.625,201152.390625,0.115966796875,0.98095703125,-0.205078125,-1.9531248807907104,-0.3356933295726776,1.0986326932907104,100.0,124051.0,1.0
15:35:36.324425,198545.734375,179663.234375,231830.78125,208365.75,199573.734375,174406.828125,686313.0,201149.078125,0.115234375,0.981689453125,-0.206298828125,-1.9836424589157104,-0.4577636420726776,1.1291502714157104,100.0,124052.0,1.0
15:35:36.329333,198544.75,179658.59375,231824.4375,208371.28125,199567.5625,174383.21875,686312.25,201155.34375,0.1181640625,0.979248046875,-0.20361328125,-1.8920897245407104,-0.3662109076976776,1.0986326932907104,100.0,124053.0,1.0
15:35:36.329339,198544.828125,179661.359375,231825.953125,208366.1875,199568.0,174397.796875,686364.8125,201147.03125,0.1171875,0.9765625,-0.203369140625,-1.8310545682907104,-0.4577636420726776,1.1596678495407104,100.0,124054.0,1.0
15:35:36.329341,198540.28125,179659.84375,231829.171875,208358.59375,199568.8125,174418.359375,686332.3125,201134.953125,0.1201171875,0.976318359375,-0.202880859375,-1.8005369901657104,-0.4577636420726776,1.0986326932907104,100.0,124055.0,1.0
15:35:36.331963,198537.5,179658.5,231822.828125,208349.203125,199559.328125,174406.296875,686324.125,201128.609375,0.121826171875,0.9765625,-0.20458984375,-1.7089842557907104,-0.4882812201976776,1.0986326932907104,100.0,124056.0,1.0
15:35:36.335588,198535.890625,179655.546875,231817.015625,208357.421875,199556.921875,174382.859375,686326.0625,201141.03125,0.122802734375,0.976806640625,-0.20751953125,-1.7089842557907104,-0.3662109076976776,1.0375975370407104,100.0,124057.0,1.0
15:35:36.346331,198543.765625,179666.109375,231825.328125,208364.671875,199567.375,174402.265625,686370.1875,201143.984375,0.12158203125,0.978271484375,-0.209228515625,-1.5869139432907104,-0.2746581733226776,1.1291502714157104,100.0,124058.0,1.0
15:35:36.346345,198549.03125,179675.40625,231840.4375,208369.59375,199582.484375,174440.0,686342.625,201146.578125,0.122314453125,0.98046875,-0.209716796875,-1.5563963651657104,-0.1831054538488388,0.9460448622703552,100.0,124059.0,1.0
15:35:36.348916,198544.5625,179670.125,231831.234375,208357.421875,199571.84375,174429.53125,686327.75,201135.671875,0.120361328125,0.98046875,-0.210693359375,-1.5258787870407104,-0.1831054538488388,1.0375975370407104,100.0,124060.0,1.0
15:35:36.348935,198541.25,179661.359375,231824.34375,208361.984375,199568.71875,174397.96875,686313.3125,201149.078125,0.12109375,0.980712890625,-0.21044921875,-1.5258787870407104,-0.0915527269244194,0.9155272841453552,100.0,124061.0,1.0
15:35:36.358228,198549.578125,179672.890625,231832.21875,208370.03125,199577.484375,174407.625,686364.1875,201157.03125,0.12109375,0.980712890625,-0.2080078125,-1.3732908964157104,-0.0915527269244194,0.9765624403953552,100.0,124062.0,1.0
15:35:36.365084,198552.4375,179684.96875,231846.4375,208375.125,199592.140625,174448.21875,686361.875,201157.9375,0.119873046875,0.981201171875,-0.20703125,-1.2817381620407104,-0.1831054538488388,0.8544921278953552,100.0,124063.0,1.0
15:35:36.365089,198558.609375,179695.609375,231851.34375,208373.796875,199595.984375,174464.046875,686320.875,201154.796875,0.1201171875,0.983642578125,-0.2099609375,-1.2817381620407104,-0.0915527269244194,0.9155272841453552,100.0,124064.0,1.0
15:35:36.374977,198542.859375,179667.890625,231830.34375,208367.796875,199574.796875,174408.078125,686320.375,201154.0,0.119873046875,0.984619140625,-0.20751953125,-1.2512205839157104,-0.1525878757238388,0.6713866591453552,100.0,124065.0,1.0
15:35:36.374986,198537.0625,179655.546875,231820.5,208364.765625,199566.578125,174384.5625,686354.875,201150.0625,0.119873046875,0.983154296875,-0.211181640625,-1.2817381620407104,-0.0915527269244194,0.6713866591453552,100.0,124066.0,1.0
15:35:36.376994,198544.390625,179666.546875,231834.890625,208372.1875,199585.078125,174422.109375,686375.875,201156.859375,0.1201171875,0.983154296875,-0.2099609375,-1.2207030057907104,-0.0915527269244194,0.7019042372703552,100.0,124067.0,1.0
15:35:36.383133,198550.109375,179675.671875,231841.609375,208369.671875,199590.625,174437.765625,686342.1875,201153.90625,0.121826171875,0.984130859375,-0.208740234375,-1.3732908964157104,-0.0610351525247097,0.6103515028953552,100.0,124068.0,1.0
15:35:36.402206,198556.015625,179678.34375,231842.40625,208381.390625,199594.203125,174418.984375,686325.8125,201172.0625,0.124267578125,0.984375,-0.209716796875,-1.2207030057907104,0.0,0.6408690810203552,100.0,124069.0,1.0
15:35:36.402220,198561.640625,179681.921875,231843.75,208391.9375,199597.78125,174407.71875,686337.5,201181.890625,0.1220703125,0.984619140625,-0.207763671875,-1.1291502714157104,0.0610351525247097,0.5493163466453552,100.0,124070.0,1.0
15:35:36.402221,198562.265625,179686.671875,231848.3125,208388.8125,199602.875,174432.9375,686362.625,201174.5625,0.1201171875,0.986083984375,-0.2119140625,-1.1596678495407104,0.1220703050494194,0.5187987685203552,100.0,124071.0,1.0
15:35:36.415253,198563.875,179690.78125,231854.390625,208382.90625,199605.109375,174449.921875,686336.125,201165.796875,0.120849609375,0.9853515625,-0.20947265625,-1.2207030057907104,0.1831054538488388,0.3662109076976776,100.0,124072.0,1.0
15:35:36.415277,198558.953125,179681.65625,231846.4375,208378.796875,199595.0,174420.421875,686327.875,201166.515625,0.11962890625,0.986572265625,-0.2080078125,-1.2512205839157104,0.2441406100988388,0.0915527269244194,100.0,124073.0,1.0
15:35:36.415281,198558.78125,179678.796875,231842.5,208385.0625,199591.96875,174401.546875,686334.125,201174.5625,0.118896484375,0.987060546875,-0.207763671875,-1.2512205839157104,0.2441406100988388,-0.0610351525247097,100.0,124074.0,1.0
15:35:36.415284,198557.171875,179682.203125,231847.0625,208381.75,199595.984375,174423.546875,686368.375,201166.96875,0.117919921875,0.9853515625,-0.207763671875,-1.2512205839157104,0.2441406100988388,-0.1220703050494194,100.0,124075.0,1.0
15:35:36.440739,198557.625,179688.09375,231852.59375,208373.515625,199600.734375,174450.359375,686337.0625,201156.140625,0.11669921875,0.986083984375,-0.208740234375,-1.3122557401657104,0.2746581733226776,-0.2746581733226776,100.0,124076.0,1.0
15:35:36.466244,198550.015625,179678.796875,231836.328125,208361.546875,199585.171875,174426.40625,686320.625,201146.578125,0.115478515625,0.985595703125,-0.208740234375,-1.2817381620407104,0.1831054538488388,-0.3356933295726776,100.0,124077.0,1.0
15:35:36.466258,198543.40625,179666.640625,231824.703125,208365.03125,199573.734375,174393.953125,686320.0625,201150.875,0.1142578125,0.986328125,-0.20849609375,-1.2817381620407104,0.03051757626235485,-0.3051757514476776,100.0,124078.0,1.0
15:35:36.485661,198547.515625,179676.203125,231831.140625,208367.625,199580.796875,174415.234375,686376.0,201151.3125,0.11279296875,0.98583984375,-0.210205078125,-1.4038084745407104,0.0610351525247097,-0.3967284858226776,100.0,124079.0,1.0
15:35:36.488161,198549.296875,179683.09375,231841.15625,208369.40625,199591.609375,174449.203125,686345.9375,201147.203125,0.114990234375,0.986572265625,-0.209228515625,-1.3122557401657104,-0.03051757626235485,-0.3967284858226776,100.0,124080.0,1.0
15:35:36.490772,198550.015625,179681.21875,231837.578125,208366.640625,199587.3125,174439.375,686330.75,201145.421875,0.115966796875,0.9853515625,-0.20849609375,-1.3427733182907104,-0.03051757626235485,-0.4272460639476776,100.0,124081.0,1.0
15:35:36.493251,198541.96875,179667.625,231825.6875,208369.671875,199578.109375,174404.140625,686328.75,201151.578125,0.11474609375,0.987060546875,-0.20947265625,-1.4343260526657104,-0.03051757626235485,-0.3356933295726776,100.0,124082.0,1.0
15:35:36.495711,198538.9375,179666.90625,231823.28125,208367.53125,199577.390625,174407.8125,686376.25,201145.5,0.1171875,0.987060546875,-0.209716796875,-1.4953612089157104,-0.0915527269244194,-0.3662109076976776,100.0,124083.0,1.0
15:35:36.498236,198540.359375,179674.859375,231835.25,208370.21875,199591.15625,174443.03125,686351.375,201146.84375,0.11767578125,0.984375,-0.208251953125,-1.5258787870407104,-0.1220703050494194,-0.3662109076976776,100.0,124084.0,1.0
15:35:36.500752,198539.015625,179673.171875,231832.484375,208362.796875,199585.796875,174437.765625,686333.25,201141.5625,0.117431640625,0.986572265625,-0.206787109375,-1.6174315214157104,-0.1220703050494194,-0.2441406100988388,100.0,124085.0,1.0
15:35:36.503228,198534.546875,179662.34375,231825.953125,208370.65625,199583.109375,174406.375,686325.8125,201155.875,0.118408203125,0.983642578125,-0.208740234375,-1.6479490995407104,-0.0610351525247097,-0.1831054538488388,100.0,124086.0,1.0
15:35:36.505620,198534.375,179665.46875,231826.140625,208371.109375,199583.5625,174405.125,686378.8125,201157.03125,0.11865234375,0.9853515625,-0.21142578125,-1.6784666776657104,0.03051757626235485,-0.03051757626235485,100.0,124087.0,1.0
15:35:36.508198,198537.953125,179675.484375,231838.46875,208373.171875,199596.890625,174440.890625,686377.0625,201157.484375,0.11962890625,0.9853515625,-0.209228515625,-1.7089842557907104,0.0915527269244194,0.1220703050494194,100.0,124088.0,1.0
15:35:36.510702,198540.625,179675.671875,231838.03125,208368.0625,199593.578125,174441.609375,686344.25,201151.046875,0.1181640625,0.9833984375,-0.21142578125,-1.7395018339157104,0.1525878757238388,0.2441406100988388,100.0,124089.0,1.0
15:35:36.513294,198539.109375,179666.453125,231830.34375,208377.359375,199587.765625,174408.4375,686336.4375,201160.875,0.116943359375,0.982666015625,-0.207275390625,-1.7089842557907104,0.03051757626235485,0.3356933295726776,100.0,124090.0,1.0
15:35:36.515653,198543.84375,179668.78125,231832.578125,208383.625,199589.28125,174400.828125,686359.8125,201164.640625,0.117431640625,0.984619140625,-0.207763671875,-1.7395018339157104,0.1220703050494194,0.4882812201976776,100.0,124091.0,1.0
15:35:36.518099,198547.15625,179676.734375,231843.75,208381.65625,199602.25,174434.1875,686375.1875,201162.40625,0.11669921875,0.985107421875,-0.2109375,-1.7089842557907104,0.1525878757238388,0.6408690810203552,100.0,124092.0,1.0
15:35:36.520662,198554.40625,179685.140625,231850.640625,208380.140625,199606.8125,174449.921875,686345.75,201160.078125,0.114013671875,0.984619140625,-0.20751953125,-1.6784666776657104,0.1525878757238388,0.7324218153953552,100.0,124093.0,1.0
15:35:36.527101,198557.796875,179680.671875,231846.078125,208387.921875,199603.40625,174422.109375,686333.125,201173.40625,0.114990234375,0.983642578125,-0.208740234375,-1.7089842557907104,0.1220703050494194,0.5798339247703552,100.0,124094.0,1.0
15:35:36.529338,198559.40625,179678.265625,231842.140625,208393.28125,199599.75,174405.578125,686346.75,201177.953125,0.114501953125,0.983154296875,-0.2060546875,-1.7089842557907104,0.1220703050494194,0.6103515028953552,100.0,124095.0,1.0
15:35:36.531943,198566.109375,179690.78125,231854.296875,208395.515625,199612.359375,174438.390625,686377.3125,201177.875,0.1142578125,0.98388671875,-0.20849609375,-1.7700194120407104,0.1220703050494194,0.6408690810203552,100.0,124096.0,1.0
15:35:36.534358,198567.453125,179700.078125,231859.9375,208390.328125,199616.828125,174460.65625,686337.0,201169.734375,0.11328125,0.986328125,-0.2080078125,-1.6479490995407104,0.0,0.6408690810203552,100.0,124097.0,1.0
15:35:36.537442,198562.796875,179691.40625,231849.65625,208385.328125,199606.8125,174434.453125,686323.75,201168.75,0.114990234375,0.986328125,-0.20458984375,-1.8310545682907104,0.0,0.6713866591453552,100.0,124098.0,1.0
15:35:36.537449,198557.53125,179679.78125,231838.921875,208385.59375,199597.25,174407.359375,686337.875,201169.28125,0.114013671875,0.985107421875,-0.20751953125,-1.7395018339157104,-0.0915527269244194,0.5798339247703552,100.0,124099.0,1.0
15:35:36.540526,198560.921875,179687.5625,231846.34375,208388.625,199605.640625,174432.9375,686375.375,201165.703125,0.1142578125,0.98388671875,-0.21142578125,-1.6784666776657104,-0.1220703050494194,0.7019042372703552,100.0,124100.0,1.0
15:35:36.540534,198568.265625,179700.25,231860.203125,208395.875,199618.171875,174467.0,686342.1875,201164.71875,0.112548828125,0.981689453125,-0.207763671875,-1.8005369901657104,-0.2136230319738388,0.6103515028953552,100.0,124101.0,1.0
15:35:36.540535,198570.046875,179700.703125,231856.09375,208392.5625,199614.765625,174453.234375,686333.4375,201168.296875,0.114013671875,0.978759765625,-0.207763671875,-1.7395018339157104,-0.2441406100988388,0.5187987685203552,100.0,124102.0,1.0
15:35:36.543699,198559.140625,179687.015625,231842.046875,208385.6875,199603.59375,174420.59375,686337.625,201169.734375,0.11669921875,0.98095703125,-0.20751953125,-1.7089842557907104,-0.1220703050494194,0.3967284858226776,100.0,124103.0,1.0
15:35:36.543705,198551.09375,179682.90625,231836.15625,208370.921875,199598.40625,174426.140625,686373.625,201155.78125,0.1162109375,0.982666015625,-0.20703125,-1.5869139432907104,-0.0915527269244194,0.4882812201976776,100.0,124104.0,1.0
15:35:36.545744,198548.3125,179689.078125,231839.90625,208367.265625,199602.96875,174453.578125,686337.0,201148.984375,0.11767578125,0.9814453125,-0.208740234375,-1.4648436307907104,-0.0915527269244194,0.5493163466453552,100.0,124105.0,1.0
15:35:36.548815,198544.5625,179686.3125,231830.15625,208357.421875,199592.421875,174440.359375,686318.125,201141.484375,0.119140625,0.982666015625,-0.20703125,-1.4343260526657104,-0.1220703050494194,0.3356933295726776,100.0,124106.0,1.0
15:35:36.548820,198536.15625,179673.4375,231818.53125,208358.59375,199583.921875,174406.015625,686316.0,201150.875,0.119873046875,0.98291015625,-0.207763671875,-1.2207030057907104,-0.0915527269244194,0.3662109076976776,100.0,124107.0,1.0
15:35:36.550700,198537.859375,179676.65625,231821.390625,208358.59375,199587.59375,174413.171875,686373.3125,201151.671875,0.1201171875,0.98193359375,-0.210693359375,-1.2817381620407104,-0.03051757626235485,0.3662109076976776,100.0,124108.0,1.0
15:35:36.553153,198536.15625,179681.296875,231829.71875,208359.75,199597.15625,174445.625,686368.125,201148.0,0.119873046875,0.983642578125,-0.209228515625,-1.2512205839157104,0.0610351525247097,0.3662109076976776,100.0,124109.0,1.0
15:35:36.555712,198537.40625,179682.46875,231830.421875,208352.6875,199590.625,174442.765625,686338.75,201141.390625,0.120849609375,0.98291015625,-0.209716796875,-1.2512205839157104,0.1525878757238388,0.3356933295726776,100.0,124110.0,1.0
15:35:36.558138,198529.640625,179667.984375,231819.34375,208353.671875,199577.578125,174404.59375,686317.125,201148.359375,0.121337890625,0.98291015625,-0.211669921875,-1.1901854276657104,0.2746581733226776,0.3051757514476776,100.0,124111.0,1.0
15:35:36.561238,198526.953125,179662.34375,231814.6875,208350.0,199571.578125,174396.90625,686352.875,201144.609375,0.11962890625,0.9833984375,-0.2080078125,-1.1291502714157104,0.3356933295726776,0.3051757514476776,100.0,124112.0,1.0
15:35:36.561245,198537.234375,179675.9375,231834.1875,208358.59375,199592.140625,174438.75,686358.875,201149.890625,0.120849609375,0.983154296875,-0.20849609375,-1.1596678495407104,0.3356933295726776,0.2441406100988388,100.0,124113.0,1.0
15:35:36.563463,198541.703125,179678.984375,231836.421875,208356.171875,199591.796875,174443.65625,686333.9375,201144.515625,0.117431640625,0.983154296875,-0.209228515625,-1.0986326932907104,0.4272460639476776,0.2136230319738388,100.0,124114.0,1.0
15:35:36.578891,198542.15625,179673.25,231830.78125,208365.5625,199586.421875,174414.96875,686323.375,201156.953125,0.116455078125,0.983642578125,-0.209716796875,-1.0986326932907104,0.3967284858226776,0.3051757514476776,100.0,124115.0,1.0
15:35:36.578908,198537.953125,179667.53125,231823.71875,208362.4375,199579.265625,174397.078125,686345.9375,201152.921875,0.1162109375,0.9833984375,-0.211181640625,-1.0986326932907104,0.4272460639476776,0.2746581733226776,100.0,124116.0,1.0
15:35:36.581231,198543.5,179676.921875,231833.375,208361.0,199590.265625,174427.03125,686370.0625,201149.53125,0.117431640625,0.984375,-0.21142578125,-1.0375975370407104,0.4272460639476776,0.1220703050494194,100.0,124117.0,1.0
15:35:36.581240,198550.015625,179685.953125,231839.640625,208358.765625,199594.734375,174443.578125,686339.9375,201142.546875,0.114013671875,0.9853515625,-0.20703125,-1.0375975370407104,0.3967284858226776,0.1525878757238388,100.0,124118.0,1.0
15:35:36.583330,198553.5,179684.515625,231838.828125,208367.078125,199592.859375,174422.46875,686323.5625,201150.25,0.112548828125,0.986083984375,-0.209716796875,-1.0681151151657104,0.3662109076976776,0.1525878757238388,100.0,124119.0,1.0
15:35:36.593182,198554.671875,179682.015625,231837.578125,208373.25,199590.53125,174406.734375,686334.1875,201154.171875,0.11181640625,0.986328125,-0.2099609375,-1.0681151151657104,0.3356933295726776,0.1220703050494194,100.0,124120.0,1.0
15:35:36.604375,198565.390625,179696.234375,231853.671875,208380.234375,199607.875,174441.78125,686368.5625,201158.921875,0.11279296875,0.984619140625,-0.203369140625,-1.0375975370407104,0.2746581733226776,0.03051757626235485,100.0,124121.0,1.0
15:35:36.604387,198577.640625,179713.3125,231870.03125,208385.859375,199623.171875,174473.96875,686335.75,201161.15625,0.11279296875,0.982666015625,-0.20654296875,-1.0070799589157104,0.2746581733226776,-0.1220703050494194,100.0,124122.0,1.0
15:35:36.604389,198577.28125,179710.0,231862.96875,208384.875,199617.53125,174451.4375,686317.9375,201163.46875,0.111328125,0.9833984375,-0.20654296875,-1.0070799589157104,0.2746581733226776,-0.1831054538488388,100.0,124123.0,1.0
15:35:36.607428,198575.140625,179702.765625,231856.625,208390.0625,199613.6875,174426.671875,686336.4375,201169.828125,0.114013671875,0.983642578125,-0.20751953125,-1.0070799589157104,0.2746581733226776,-0.1220703050494194,100.0,124124.0,1.0
15:35:36.607432,198584.078125,179715.09375,231868.609375,208396.234375,199627.46875,174454.296875,686376.625,201174.921875,0.114501953125,0.982666015625,-0.208251953125,-0.9765624403953552,0.1525878757238388,-0.03051757626235485,100.0,124125.0,1.0
15:35:36.609413,198586.5,179723.859375,231877.71875,208396.765625,199638.453125,174486.3125,686332.1875,201174.03125,0.114501953125,0.98193359375,-0.208251953125,-1.0375975370407104,0.0915527269244194,0.1525878757238388,100.0,124126.0,1.0
15:35:36.619411,198579.25,179713.3125,231865.46875,208388.359375,199626.5625,174463.953125,686315.5625,201170.890625,0.11767578125,0.983154296875,-0.208984375,-1.0070799589157104,0.1525878757238388,0.2136230319738388,100.0,124127.0,1.0
15:35:36.622461,198567.1875,179694.359375,231850.09375,208388.0,199612.265625,174424.34375,686325.1875,201175.09375,0.115478515625,0.98095703125,-0.208984375,-1.0070799589157104,0.0915527269244194,0.1831054538488388,100.0,124128.0,1.0
15:35:36.622480,198565.484375,179696.328125,231850.984375,208384.34375,199611.734375,174435.078125,686375.875,201170.890625,0.115478515625,0.980712890625,-0.20947265625,-0.9460448622703552,0.0915527269244194,0.1831054538488388,100.0,124129.0,1.0
15:35:36.624366,198565.671875,179703.390625,231859.84375,208385.859375,199623.796875,174467.265625,686359.0625,201170.265625,0.11376953125,0.981201171875,-0.208984375,-0.8850097060203552,0.0915527269244194,0.2746581733226776,100.0,124130.0,1.0
15:35:36.636959,198560.21875,179695.421875,231849.203125,208377.1875,199609.671875,174450.09375,686328.5,201161.328125,0.113037109375,0.9814453125,-0.21044921875,-0.8239745497703552,0.03051757626235485,0.2136230319738388,100.0,124131.0,1.0
15:35:36.643215,198553.421875,179681.75,231837.484375,208381.65625,199599.296875,174415.40625,686323.5625,201170.09375,0.109375,0.982666015625,-0.211669921875,-0.9460448622703552,0.03051757626235485,0.1220703050494194,100.0,124132.0,1.0
15:35:36.643236,198549.21875,179678.625,231832.578125,208374.5,199594.03125,174414.515625,686368.125,201162.671875,0.109130859375,0.9853515625,-0.2138671875,-0.7934569716453552,-0.0915527269244194,0.0915527269244194,100.0,124133.0,1.0
15:35:36.643242,198549.296875,179683.890625,231841.953125,208374.859375,199605.015625,174446.515625,686363.5625,201161.59375,0.107177734375,0.986328125,-0.212646484375,-0.8850097060203552,-0.1831054538488388,0.0915527269244194,100.0,124134.0,1.0
15:35:36.654966,198543.40625,179679.0625,231831.671875,208360.828125,199595.546875,174439.640625,686339.375,201150.515625,0.107421875,0.98583984375,-0.21044921875,-0.9765624403953552,-0.1831054538488388,0.1220703050494194,100.0,124135.0,1.0
15:35:36.654979,198534.015625,179664.046875,231816.296875,208359.578125,199582.578125,174402.0,686318.75,201155.78125,0.108154296875,0.986328125,-0.211669921875,-0.9155272841453552,-0.3662109076976776,0.2441406100988388,100.0,124136.0,1.0
15:35:36.657437,198533.203125,179663.328125,231813.34375,208356.625,199578.28125,174395.65625,686347.4375,201150.15625,0.107421875,0.98681640625,-0.211181640625,-0.9765624403953552,-0.4882812201976776,0.2136230319738388,100.0,124137.0,1.0
15:35:36.657445,198542.59375,179677.015625,231831.953125,208365.390625,199597.953125,174433.375,686375.875,201154.796875,0.108642578125,0.98876953125,-0.21142578125,-1.1596678495407104,-0.5493163466453552,0.1831054538488388,100.0,124138.0,1.0
15:35:36.668125,198543.671875,179680.5,231833.828125,208357.609375,199595.984375,174439.546875,686345.125,201145.859375,0.10888671875,0.98876953125,-0.2109375,-1.1901854276657104,-0.6408690810203552,0.1525878757238388,100.0,124139.0,1.0
15:35:36.683101,198539.46875,179672.890625,231824.703125,208358.40625,199586.421875,174408.796875,686314.75,201151.40625,0.108642578125,0.987548828125,-0.210205078125,-1.2512205839157104,-0.7324218153953552,0.2441406100988388,100.0,124140.0,1.0
15:35:36.683113,198538.484375,179671.640625,231820.140625,208360.296875,199583.109375,174398.6875,686330.3125,201152.125,0.111083984375,0.987060546875,-0.210205078125,-1.3427733182907104,-0.8850097060203552,0.2441406100988388,100.0,124141.0,1.0
15:35:36.683115,198543.046875,179680.3125,231830.6875,208361.984375,199596.53125,174432.3125,686360.6875,201149.96875,0.11279296875,0.986328125,-0.2138671875,-1.4038084745407104,-0.8544921278953552,0.2441406100988388,100.0,124142.0,1.0
15:35:36.685677,198549.578125,179689.4375,231840.265625,208359.3125,199603.859375,174451.078125,686326.875,201144.78125,0.115234375,0.986572265625,-0.208740234375,-1.4343260526657104,-0.8850097060203552,0.3051757514476776,100.0,124143.0,1.0
15:35:36.688208,198558.15625,179694.53125,231843.5625,208371.640625,199607.875,174435.703125,686312.375,201159.09375,0.1162109375,0.98681640625,-0.20947265625,-1.4038084745407104,-0.8850097060203552,0.2746581733226776,100.0,124144.0,1.0
15:35:36.690699,198565.046875,179698.734375,231848.9375,208384.609375,199612.078125,174426.234375,686324.3125,201170.71875,0.11376953125,0.9873046875,-0.21142578125,-1.4038084745407104,-0.8544921278953552,0.3356933295726776,100.0,124145.0,1.0
15:35:36.693164,198572.453125,179707.671875,231858.59375,208389.96875,199624.953125,174453.765625,686373.4375,201172.0625,0.115234375,0.9853515625,-0.212646484375,-1.5869139432907104,-0.7629393935203552,0.2746581733226776,100.0,124146.0,1.0
15:35:36.699349,198573.71875,179708.84375,231861.984375,208384.96875,199628.171875,174467.359375,686336.8125,201164.1875,0.11669921875,0.986083984375,-0.21240234375,-1.6174315214157104,-0.7324218153953552,0.3967284858226776,100.0,124147.0,1.0
15:35:36.707472,198573.53125,179704.28125,231855.375,208382.015625,199619.0625,174443.921875,686313.5625,201164.09375,0.1171875,0.986083984375,-0.213134765625,-1.6174315214157104,-0.7019042372703552,0.4577636420726776,100.0,124148.0,1.0
15:35:36.707493,198574.34375,179701.859375,231853.578125,208391.046875,199617.71875,174423.90625,686327.25,201176.171875,0.11767578125,0.98486328125,-0.213623046875,-1.6784666776657104,-0.7019042372703552,0.6103515028953552,100.0,124149.0,1.0
15:35:36.715015,198581.484375,179711.78125,231864.140625,208394.984375,199630.40625,174448.9375,686377.6875,201179.03125,0.117919921875,0.983642578125,-0.211669921875,-1.7700194120407104,-0.7019042372703552,0.6103515028953552,100.0,124150.0,1.0
15:35:36.715024,198583.8125,179717.953125,231873.96875,208397.390625,199641.5,174477.8125,686343.25,201177.875,0.120361328125,0.9853515625,-0.210693359375,-1.8615721464157104,-0.6713866591453552,0.6103515028953552,100.0,124151.0,1.0
15:35:36.721284,198581.484375,179713.21875,231866.09375,208396.671875,199633.546875,174461.546875,686316.0625,201176.078125,0.117431640625,0.9853515625,-0.20947265625,-1.8920897245407104,-0.4577636420726776,0.6408690810203552,100.0,124152.0,1.0
15:35:36.721295,198583.640625,179708.75,231865.65625,208414.296875,199634.890625,174438.46875,686310.875,201195.921875,0.11572265625,0.9833984375,-0.211181640625,-1.9226073026657104,-0.4272460639476776,0.7629393935203552,100.0,124153.0,1.0
15:35:36.727425,198585.78125,179710.71875,231868.96875,208411.078125,199638.015625,174448.484375,686369.4375,201194.953125,0.11572265625,0.982666015625,-0.21044921875,-1.9836424589157104,-0.3051757514476776,0.7934569716453552,100.0,124154.0,1.0
15:35:36.727431,198589.265625,179718.40625,231881.84375,208413.9375,199650.171875,174481.84375,686351.1875,201195.578125,0.11669921875,0.983154296875,-0.210693359375,-2.014159917831421,-0.1831054538488388,0.7934569716453552,100.0,124155.0,1.0
15:35:36.742482,198583.546875,179709.640625,231873.703125,208399.8125,199637.03125,174464.84375,686319.1875,201185.203125,0.114990234375,0.9853515625,-0.209716796875,-2.044677495956421,-0.2441406100988388,0.7934569716453552,100.0,124156.0,1.0
15:35:36.742492,198577.828125,179697.125,231864.765625,208404.1875,199627.28125,174428.90625,686336.125,201193.15625,0.113525390625,0.98486328125,-0.20751953125,-2.014159917831421,-0.2441406100988388,0.7019042372703552,100.0,124157.0,1.0
15:35:36.745146,198579.875,179699.1875,231865.921875,208408.03125,199627.109375,174430.78125,686372.125,201191.09375,0.115478515625,0.9833984375,-0.208740234375,-1.9531248807907104,-0.2441406100988388,0.6408690810203552,100.0,124158.0,1.0
15:35:36.745279,198584.796875,179709.015625,231879.0625,208413.84375,199640.609375,174466.90625,686348.875,201192.359375,0.11328125,0.983642578125,-0.2109375,-1.9836424589157104,-0.1831054538488388,0.5798339247703552,100.0,124159.0,1.0
15:35:36.748229,198577.46875,179704.09375,231869.671875,208397.21875,199626.5625,174458.140625,686325.25,201177.15625,0.114013671875,0.98388671875,-0.20849609375,-1.9836424589157104,-0.2441406100988388,0.6103515028953552,100.0,124160.0,1.0
15:35:36.757473,198562.890625,179683.71875,231850.453125,208391.9375,199607.609375,174413.53125,686307.5,201176.078125,0.1142578125,0.984619140625,-0.209716796875,-1.9531248807907104,-0.2136230319738388,0.5187987685203552,100.0,124161.0,1.0
15:35:36.757484,198561.109375,179681.125,231848.484375,208393.109375,199603.40625,174404.5,686347.8125,201174.921875,0.113037109375,0.984375,-0.206298828125,-1.9531248807907104,-0.1525878757238388,0.3967284858226776,100.0,124162.0,1.0
15:35:36.765275,198565.84375,179693.109375,231862.96875,208401.328125,199618.609375,174444.015625,686355.3125,201175.015625,0.115966796875,0.9833984375,-0.208251953125,-1.9226073026657104,-0.1525878757238388,0.3356933295726776,100.0,124163.0,1.0
15:35:36.765321,198566.5625,179700.25,231864.40625,208391.046875,199617.265625,174457.25,686328.0625,201163.390625,0.115234375,0.984375,-0.209228515625,-1.8920897245407104,-0.2136230319738388,0.2441406100988388,100.0,124164.0,1.0
15:35:36.767071,198558.328125,179691.3125,231850.8125,208387.828125,199606.09375,174428.1875,686320.4375,201164.546875,0.1171875,0.982666015625,-0.2109375,-1.8920897245407104,-0.1525878757238388,0.2136230319738388,100.0,124165.0,1.0
15:35:36.818166,198558.6875,179693.453125,231848.9375,208393.640625,199604.03125,174420.140625,686346.4375,201166.6875,0.116455078125,0.9833984375,-0.210693359375,-1.8615721464157104,-0.1220703050494194,0.0915527269244194,100.0,124166.0,1.0
15:35:36.821955,198565.21875,179708.03125,231863.234375,208399.71875,199620.671875,174459.484375,686359.4375,201167.859375,0.1171875,0.983642578125,-0.20849609375,-1.8005369901657104,-0.0915527269244194,0.0915527269244194,100.0,124167.0,1.0
15:35:36.821979,198567.453125,179715.453125,231869.9375,208392.5625,199625.5,174480.9375,686323.5625,201157.9375,0.1162109375,0.984619140625,-0.208984375,-1.7700194120407104,-0.1220703050494194,0.0610351525247097,100.0,124168.0,1.0
15:35:36.821983,198564.40625,179708.125,231865.46875,208392.203125,199619.953125,174457.15625,686318.75,201163.296875,0.115234375,0.983154296875,-0.208740234375,-1.6479490995407104,-0.1220703050494194,0.0915527269244194,100.0,124169.0,1.0
15:35:36.825536,198560.03125,179699.890625,231856.890625,208400.609375,199613.6875,174433.375,686349.75,201166.15625,0.115966796875,0.983642578125,-0.208984375,-1.5869139432907104,-0.0610351525247097,0.03051757626235485,100.0,124170.0,1.0
15:35:36.825555,198559.765625,179704.28125,231857.34375,208403.828125,199618.078125,174457.25,686391.0,201159.1875,0.115478515625,0.984619140625,-0.208740234375,-1.6479490995407104,0.0,-0.03051757626235485,100.0,124171.0,1.0
15:35:36.825559,198559.140625,179706.328125,231859.578125,208403.46875,199621.734375,174474.5,686349.625,201153.640625,0.11279296875,0.98486328125,-0.20751953125,-1.6174315214157104,0.0,-0.0610351525247097,100.0,124172.0,1.0
15:35:36.828184,198561.109375,179702.484375,231853.859375,208410.453125,199617.265625,174450.09375,686330.3125,201158.828125,0.113525390625,0.9853515625,-0.208740234375,-1.5563963651657104,0.0,-0.1525878757238388,100.0,124173.0,1.0
15:35:36.830674,198560.125,179696.046875,231849.109375,208420.28125,199614.671875,174423.015625,686332.0,201170.265625,0.112548828125,0.9853515625,-0.210205078125,-1.5869139432907104,0.0,0.0,100.0,124174.0,1.0
15:35:36.833194,198557.4375,179695.78125,231849.65625,208418.765625,199617.53125,174434.90625,686376.75,201165.890625,0.114013671875,0.986328125,-0.20751953125,-1.6174315214157104,0.03051757626235485,0.03051757626235485,100.0,124175.0,1.0
15:35:36.835661,198560.03125,179702.484375,231857.421875,208420.1875,199627.90625,174464.671875,686347.0,201163.296875,0.11279296875,0.984130859375,-0.208740234375,-1.5869139432907104,-0.0610351525247097,0.1220703050494194,100.0,124176.0,1.0
15:35:36.838195,198563.875,179706.25,231855.375,208419.921875,199625.046875,174456.359375,686329.375,201166.875,0.11083984375,0.985595703125,-0.207275390625,-1.4953612089157104,0.0,0.03051757626235485,100.0,124177.0,1.0
15:35:36.844348,198557.53125,179695.421875,231846.609375,208420.90625,199617.53125,174425.421875,686316.6875,201175.359375,0.112060546875,0.985107421875,-0.2060546875,-1.4953612089157104,-0.03051757626235485,0.0610351525247097,100.0,124178.0,1.0
15:35:36.846993,198558.421875,179696.046875,231845.890625,208414.65625,199619.234375,174431.5,686368.125,201172.0625,0.112060546875,0.984619140625,-0.2080078125,-1.4648436307907104,-0.1220703050494194,0.0,100.0,124179.0,1.0
15:35:36.849499,198560.21875,179699.625,231852.328125,208410.0,199626.921875,174458.765625,686339.6875,201169.375,0.112548828125,0.98583984375,-0.20556640625,-1.4953612089157104,-0.1831054538488388,-0.0610351525247097,100.0,124180.0,1.0
15:35:36.851908,198560.03125,179700.53125,231848.125,208399.265625,199621.03125,174453.9375,686322.75,201162.578125,0.11279296875,0.984619140625,-0.20458984375,-1.5258787870407104,-0.3662109076976776,-0.0610351525247097,100.0,124181.0,1.0
15:35:36.854804,198555.390625,179692.296875,231839.8125,208401.78125,199615.75,174425.78125,686328.9375,201171.875,0.111328125,0.984130859375,-0.204345703125,-1.4343260526657104,-0.3051757514476776,0.0915527269244194,100.0,124182.0,1.0
15:35:36.860696,198556.90625,179693.546875,231838.46875,208400.515625,199617.1875,174425.328125,686378.75,201169.109375,0.111328125,0.98388671875,-0.205810546875,-1.4343260526657104,-0.2746581733226776,0.1831054538488388,100.0,124183.0,1.0
15:35:36.863706,198564.953125,179705.984375,231852.953125,208407.3125,199634.703125,174464.40625,686361.9375,201173.40625,0.10986328125,0.98486328125,-0.20556640625,-1.4038084745407104,-0.2746581733226776,0.3051757514476776,100.0,124184.0,1.0
15:35:36.863716,198566.296875,179709.828125,231851.890625,208399.546875,199631.84375,174468.703125,686335.1875,201166.0625,0.11083984375,0.98388671875,-0.20703125,-1.3427733182907104,-0.3051757514476776,0.1831054538488388,100.0,124185.0,1.0
15:35:36.865698,198559.3125,179697.84375,231842.046875,208404.359375,199623.265625,174434.71875,686318.1875,201172.765625,0.10888671875,0.9833984375,-0.206298828125,-1.4038084745407104,-0.4272460639476776,0.2136230319738388,100.0,124186.0,1.0
15:35:36.868158,198559.765625,179697.9375,231843.125,208409.734375,199622.359375,174429.890625,686346.9375,201174.296875,0.110107421875,0.984130859375,-0.205810546875,-1.2817381620407104,-0.5187987685203552,0.2441406100988388,100.0,124187.0,1.0
15:35:36.871251,198566.203125,179709.734375,231857.421875,208415.546875,199639.171875,174469.046875,686376.25,201176.96875,0.10986328125,0.986083984375,-0.205810546875,-1.3732908964157104,-0.5187987685203552,0.3051757514476776,100.0,124188.0,1.0
15:35:36.871273,198561.828125,179705.265625,231852.15625,208405.078125,199633.8125,174469.765625,686339.75,201162.9375,0.109375,0.986083984375,-0.206787109375,-1.3732908964157104,-0.5493163466453552,0.3967284858226776,100.0,124189.0,1.0
15:35:36.873171,198555.296875,179693.109375,231839.8125,208400.4375,199621.921875,174435.609375,686322.25,201164.453125,0.111572265625,0.98681640625,-0.207763671875,-1.3732908964157104,-0.5798339247703552,0.3967284858226776,100.0,124190.0,1.0
15:35:36.875720,198550.5625,179686.21875,231832.9375,208397.296875,199614.40625,174416.75,686340.75,201163.828125,0.109619140625,0.983642578125,-0.209228515625,-1.3122557401657104,-0.5798339247703552,0.5187987685203552,100.0,124191.0,1.0
15:35:36.878128,198552.4375,179691.9375,231840.34375,208395.421875,199623.4375,174444.828125,686376.625,201161.78125,0.108642578125,0.98388671875,-0.206298828125,-1.2207030057907104,-0.5798339247703552,0.4577636420726776,100.0,124192.0,1.0
15:35:36.887435,198555.734375,179699.265625,231848.046875,208392.921875,199628.890625,174465.484375,686347.25,201158.375,0.111083984375,0.983642578125,-0.20703125,-1.3427733182907104,-0.5187987685203552,0.4577636420726776,100.0,124193.0,1.0
15:35:36.887445,198555.734375,179695.875,231842.859375,208397.21875,199623.703125,174442.953125,686324.5,201165.4375,0.111328125,0.98583984375,-0.206298828125,-1.2817381620407104,-0.5493163466453552,0.4272460639476776,100.0,124194.0,1.0
15:35:36.894985,198553.6875,179690.234375,231836.59375,208404.015625,199617.09375,174419.4375,686331.6875,201170.265625,0.111083984375,0.9853515625,-0.2109375,-1.2817381620407104,-0.5187987685203552,0.5493163466453552,100.0,124195.0,1.0
15:35:36.895004,198558.421875,179697.84375,231843.65625,208407.578125,199625.3125,174443.65625,686383.8125,201169.109375,0.11328125,0.98486328125,-0.2109375,-1.1901854276657104,-0.6713866591453552,0.5187987685203552,100.0,124196.0,1.0
15:35:36.897423,198567.984375,179710.984375,231857.34375,208415.359375,199639.078125,174475.125,686344.4375,201172.140625,0.1123046875,0.986083984375,-0.21142578125,-1.3427733182907104,-0.6103515028953552,0.5798339247703552,100.0,124197.0,1.0
15:35:36.897427,198572.109375,179712.765625,231855.546875,208422.96875,199636.765625,174462.34375,686325.375,201177.6875,0.11328125,0.984619140625,-0.20849609375,-1.2817381620407104,-0.6103515028953552,0.6713866591453552,100.0,124198.0,1.0
15:35:36.906991,198568.265625,179702.046875,231849.109375,208429.140625,199629.15625,174431.140625,686333.875,201185.640625,0.11279296875,0.9833984375,-0.208251953125,-1.2817381620407104,-0.4882812201976776,0.6103515028953552,100.0,124199.0,1.0
15:35:36.910031,198567.8125,179703.46875,231851.796875,208423.765625,199631.03125,174442.328125,686386.875,201182.34375,0.114501953125,0.982177734375,-0.208984375,-1.2512205839157104,-0.4577636420726776,0.7934569716453552,100.0,124200.0,1.0
15:35:36.910037,198573.171875,179712.5,231864.484375,208425.46875,199644.359375,174473.96875,686355.3125,201183.953125,0.114501953125,0.982666015625,-0.20849609375,-1.2512205839157104,-0.4577636420726776,0.7324218153953552,100.0,124201.0,1.0
15:35:36.911970,198577.46875,179715.359375,231862.53125,208421.09375,199641.40625,174465.03125,686332.9375,201182.875,0.11376953125,0.982666015625,-0.2119140625,-1.2512205839157104,-0.3967284858226776,0.7934569716453552,100.0,124202.0,1.0
15:35:36.927438,198575.59375,179707.671875,231856.71875,208426.984375,199636.21875,174435.078125,686315.4375,201194.59375,0.114990234375,0.983642578125,-0.21044921875,-1.1901854276657104,-0.2746581733226776,0.7934569716453552,100.0,124203.0,1.0
15:35:36.927448,198581.125,179713.125,231860.828125,208429.578125,199642.03125,174446.609375,686369.625,201195.921875,0.1162109375,0.985107421875,-0.208740234375,-1.2207030057907104,-0.3051757514476776,0.6408690810203552,100.0,124204.0,1.0
15:35:36.929385,198584.53125,179722.609375,231872.1875,208433.25,199655.984375,174485.421875,686356.1875,201196.828125,0.116943359375,0.9853515625,-0.209716796875,-1.2207030057907104,-0.2136230319738388,0.6713866591453552,100.0,124205.0,1.0
15:35:36.931947,198578.71875,179717.328125,231864.046875,208418.21875,199642.296875,174476.5625,686320.6875,201181.984375,0.116455078125,0.984130859375,-0.2119140625,-1.2207030057907104,-0.1525878757238388,0.7629393935203552,100.0,124206.0,1.0
15:35:36.935600,198572.015625,179704.375,231855.546875,208417.15625,199630.859375,174440.078125,686317.875,201186.453125,0.115234375,0.983642578125,-0.21044921875,-1.2207030057907104,-0.1525878757238388,0.8544921278953552,100.0,124207.0,1.0
15:35:36.952566,198579.703125,179713.9375,231859.21875,208421.09375,199636.046875,174448.40625,686376.0,201188.6875,0.1171875,0.9833984375,-0.21240234375,-1.2817381620407104,-0.0915527269244194,0.7629393935203552,100.0,124208.0,1.0
15:35:36.952624,198583.375,179722.515625,231868.421875,208423.859375,199651.6875,174484.515625,686364.375,201188.859375,0.1162109375,0.98291015625,-0.2109375,-1.3122557401657104,0.0,0.7324218153953552,100.0,124209.0,1.0
15:35:36.955145,198573.71875,179714.828125,231859.21875,208405.0,199638.28125,174478.0,686334.1875,201168.390625,0.11572265625,0.984619140625,-0.21142578125,-1.2817381620407104,0.0915527269244194,0.7934569716453552,100.0,124210.0,1.0
15:35:36.955156,198569.59375,179706.421875,231853.578125,208408.921875,199631.3125,174447.140625,686318.1875,201177.25,0.117431640625,0.98486328125,-0.21142578125,-1.3122557401657104,0.1525878757238388,0.7629393935203552,100.0,124211.0,1.0
15:35:36.956929,198573.71875,179708.296875,231852.6875,208412.6875,199633.09375,174440.796875,686360.5,201181.625,0.11572265625,0.9873046875,-0.21142578125,-1.3427733182907104,0.1831054538488388,0.6408690810203552,100.0,124212.0,1.0
15:35:36.960807,198578.1875,179717.875,231862.796875,208414.296875,199646.0625,174475.21875,686373.0,201180.375,0.116943359375,0.9873046875,-0.213134765625,-1.3732908964157104,0.1831054538488388,0.6103515028953552,100.0,124213.0,1.0
15:35:36.976897,198579.078125,179723.328125,231866.640625,208410.71875,199645.25,174489.265625,686336.75,201172.234375,0.117431640625,0.985595703125,-0.21142578125,-1.3732908964157104,0.2136230319738388,0.5798339247703552,100.0,124214.0,1.0
15:35:36.976924,198579.078125,179716.171875,231864.40625,208420.90625,199640.25,174460.109375,686326.8125,201183.765625,0.115478515625,0.985107421875,-0.210205078125,-1.5258787870407104,0.1525878757238388,0.5798339247703552,100.0,124215.0,1.0
15:35:36.976932,198575.765625,179707.9375,231859.03125,208424.3125,199633.90625,174437.84375,686345.125,201187.078125,0.114013671875,0.98583984375,-0.208984375,-1.4953612089157104,0.3356933295726776,0.5493163466453552,100.0,124216.0,1.0
15:35:36.976937,198577.828125,179715.8125,231868.328125,208426.09375,199643.203125,174466.734375,686380.8125,201188.15625,0.112548828125,0.9853515625,-0.21142578125,-1.4648436307907104,0.3967284858226776,0.5493163466453552,100.0,124217.0,1.0
15:35:36.992433,198575.671875,179720.8125,231871.015625,208422.515625,199643.203125,174486.578125,686340.9375,201179.390625,0.113037109375,0.984375,-0.214599609375,-1.4343260526657104,0.3967284858226776,0.4882812201976776,100.0,124218.0,1.0
15:35:36.992448,198570.765625,179710.71875,231859.390625,208418.671875,199632.203125,174460.296875,686330.8125,201180.1875,0.1142578125,0.985107421875,-0.21142578125,-1.4953612089157104,0.3967284858226776,0.5187987685203552,100.0,124219.0,1.0
15:35:36.995036,198567.359375,179700.4375,231852.953125,208424.3125,199625.765625,174433.296875,686351.0,201186.09375,0.115234375,0.983642578125,-0.212158203125,-1.4648436307907104,0.3051757514476776,0.5187987685203552,100.0,124220.0,1.0
15:35:36.995047,198573.0,179708.125,231861.890625,208429.765625,199635.515625,174455.640625,686382.4375,201185.46875,0.1142578125,0.983642578125,-0.210205078125,-1.4648436307907104,0.3967284858226776,0.5187987685203552,100.0,124221.0,1.0
15:35:36.996956,198580.15625,179717.25,231873.875,208431.8125,199646.5,174483.890625,686344.125,201185.203125,0.114013671875,0.984375,-0.20849609375,-1.5563963651657104,0.3356933295726776,0.5493163466453552,100.0,124222.0,1.0
