Timestamp,Fz,FC3,FCz,FC4,Cz,C3,C4
15:36:18.506028,198520.328125,180280.234375,231523.40625,208865.078125,199802.25,175205.40625,686472.4375,201045.546875,0.09765625,0.976806640625,-0.20751953125,-3.570556402206421,-1.7700194120407104,0.1525878757238388,100.0,134605.0,1.0
15:36:18.506038,198524.984375,180285.421875,231525.28125,208860.875,199800.546875,175205.859375,686397.875,201040.625,0.098388671875,0.975830078125,-0.2119140625,-3.417968511581421,-1.8005369901657104,0.0915527269244194,100.0,134606.0,1.0
15:36:18.506039,198521.140625,180279.078125,231519.109375,208865.890625,199797.15625,175180.28125,686385.4375,201050.28125,0.101806640625,0.97509765625,-0.21484375,-3.265380620956421,-1.8920897245407104,0.0915527269244194,100.0,134607.0,1.0
15:36:18.508471,198523.375,180279.171875,231522.421875,208868.03125,199797.421875,175174.03125,686482.0,201052.34375,0.10205078125,0.974365234375,-0.213134765625,-2.990722417831421,-1.9226073026657104,0.2136230319738388,100.0,134608.0,1.0
15:36:18.511020,198530.96875,180289.265625,231540.65625,208872.6875,199810.5625,175205.3125,686471.75,201055.203125,0.104736328125,0.973876953125,-0.21142578125,-2.838134527206421,-1.9531248807907104,0.2441406100988388,100.0,134609.0,1.0
15:36:18.514717,198532.140625,180291.5,231540.296875,208862.9375,199806.984375,175211.21875,686393.5,201044.828125,0.105712890625,0.972900390625,-0.214111328125,-2.624511480331421,-1.9836424589157104,0.2746581733226776,100.0,134610.0,1.0
15:36:18.540926,198531.25,180288.015625,231532.609375,208867.140625,199803.421875,175189.5,686358.875,201052.875,0.1083984375,0.97412109375,-0.213134765625,-2.502441167831421,-1.8615721464157104,0.4577636420726776,100.0,134611.0,1.0
15:36:18.540940,198533.390625,180286.765625,231532.96875,208875.0,199804.671875,175178.046875,686482.125,201060.75,0.109375,0.9736328125,-0.212646484375,-2.288818120956421,-1.7700194120407104,0.4577636420726776,100.0,134612.0,1.0
15:36:18.540942,198536.703125,180293.203125,231540.921875,208874.640625,199814.234375,175203.984375,686499.8125,201060.296875,0.1103515625,0.97705078125,-0.216064453125,-2.075195074081421,-1.7089842557907104,0.6103515028953552,100.0,134613.0,1.0
15:36:18.545959,198539.015625,180302.328125,231546.921875,208868.484375,199818.609375,175223.921875,686416.9375,201053.953125,0.110595703125,0.9765625,-0.213623046875,-1.9226073026657104,-1.7089842557907104,0.6713866591453552,100.0,134614.0,1.0
15:36:18.551219,198536.96875,180294.453125,231540.65625,208866.0625,199810.65625,175199.515625,686364.375,201056.28125,0.10986328125,0.97900390625,-0.2109375,-1.8920897245407104,-1.5258787870407104,0.7629393935203552,100.0,134615.0,1.0
15:36:18.551859,198534.8125,180288.109375,231537.078125,208870.71875,199806.28125,175178.9375,686460.8125,201060.484375,0.11083984375,0.98095703125,-0.213623046875,-1.8615721464157104,-1.3732908964157104,0.9155272841453552,100.0,134616.0,1.0
15:36:18.551934,198537.5,180294.90625,231541.46875,208869.546875,199812.625,175199.15625,686512.375,201057.265625,0.113037109375,0.98095703125,-0.215087890625,-1.8005369901657104,-1.2817381620407104,0.9460448622703552,100.0,134617.0,1.0
15:36:18.553672,198537.6875,180300.796875,231544.234375,208863.109375,199814.6875,175218.28125,686428.25,201048.765625,0.112548828125,0.9775390625,-0.2158203125,-1.6174315214157104,-1.0986326932907104,1.0070799589157104,100.0,134618.0,1.0
15:36:18.556073,198541.703125,180302.6875,231541.203125,208864.8125,199810.921875,175203.796875,686350.0625,201049.75,0.114013671875,0.9794921875,-0.213134765625,-1.5869139432907104,-0.9765624403953552,1.0070799589157104,100.0,134619.0,1.0
15:36:18.558679,198543.046875,180300.265625,231541.28125,208875.09375,199812.09375,175186.1875,686420.6875,201062.265625,0.11328125,0.98046875,-0.214111328125,-1.4953612089157104,-0.7324218153953552,0.8239745497703552,100.0,134620.0,1.0
15:36:18.560981,198538.3125,180296.515625,231538.609375,208868.296875,199811.375,175195.125,686507.375,201054.671875,0.1142578125,0.98095703125,-0.2177734375,-1.4343260526657104,-0.5187987685203552,0.7324218153953552,100.0,134621.0,1.0
15:36:18.568166,198540.984375,180303.390625,231546.296875,208867.765625,199820.5,175222.03125,686441.0,201054.671875,0.115234375,0.97998046875,-0.2177734375,-1.3122557401657104,-0.3662109076976776,0.6408690810203552,100.0,134622.0,1.0
15:36:18.568235,198544.921875,180303.125,231543.875,208869.1875,199817.09375,175211.125,686366.5625,201056.90625,0.1123046875,0.98046875,-0.21630859375,-1.1596678495407104,-0.2441406100988388,0.7019042372703552,100.0,134623.0,1.0
15:36:18.573511,198546.359375,180298.65625,231543.96875,208882.515625,199819.59375,175189.3125,686403.125,201074.6875,0.1123046875,0.982177734375,-0.214111328125,-1.0986326932907104,-0.0610351525247097,0.5798339247703552,100.0,134624.0,1.0
15:36:18.580412,198550.015625,180303.84375,231551.203125,208883.5,199824.421875,175197.8125,686513.8125,201075.765625,0.112060546875,0.98193359375,-0.21533203125,-1.1291502714157104,0.0610351525247097,0.4882812201976776,100.0,134625.0,1.0
15:36:18.580493,198550.90625,180311.625,231564.078125,208885.734375,199837.5625,175231.515625,686457.25,201076.578125,0.111572265625,0.984375,-0.216064453125,-1.0681151151657104,0.2136230319738388,0.4882812201976776,100.0,134626.0,1.0
15:36:18.590958,198555.296875,180316.8125,231564.796875,208882.421875,199835.328125,175229.1875,686381.0,201073.078125,0.10888671875,0.9833984375,-0.217529296875,-0.9765624403953552,0.4882812201976776,0.3356933295726776,100.0,134627.0,1.0
15:36:18.591136,198555.828125,180308.046875,231561.21875,208897.0,199831.671875,175197.984375,686408.9375,201085.328125,0.109130859375,0.985107421875,-0.2158203125,-0.9155272841453552,0.5493163466453552,0.2746581733226776,100.0,134628.0,1.0
15:36:18.593008,198557.171875,180309.828125,231561.84375,208897.359375,199831.484375,175198.96875,686512.9375,201082.921875,0.10888671875,0.98193359375,-0.2158203125,-1.0375975370407104,0.7019042372703552,0.2136230319738388,100.0,134629.0,1.0
15:36:18.593093,198554.84375,180314.484375,231567.75,208895.484375,199841.40625,175229.90625,686489.625,201080.234375,0.106201171875,0.97998046875,-0.218994140625,-0.9460448622703552,0.8544921278953552,0.2441406100988388,100.0,134630.0,1.0
15:36:18.604000,198553.953125,180322.171875,231567.921875,208887.34375,199842.84375,175241.96875,686389.5625,201074.421875,0.1064453125,0.974609375,-0.216064453125,-0.9155272841453552,0.9765624403953552,0.1220703050494194,100.0,134631.0,1.0
15:36:18.606890,198552.515625,180310.640625,231559.96875,208895.65625,199835.25,175209.15625,686386.6875,201083.359375,0.10546875,0.970947265625,-0.214111328125,-0.8850097060203552,1.0375975370407104,0.03051757626235485,100.0,134632.0,1.0
15:36:18.606978,198553.234375,180309.46875,231559.34375,208899.0625,199835.25,175200.9375,686487.4375,201084.703125,0.102294921875,0.96728515625,-0.21044921875,-0.7934569716453552,1.2207030057907104,0.0,100.0,134633.0,1.0
15:36:18.613597,198553.234375,180311.703125,231563.71875,208895.921875,199840.78125,175222.125,686481.9375,201079.96875,0.099609375,0.960693359375,-0.212890625,-0.5798339247703552,1.3122557401657104,0.03051757626235485,100.0,134634.0,1.0
15:36:18.618320,198551.984375,180314.21875,231561.046875,208884.484375,199837.921875,175230.71875,686398.6875,201069.78125,0.099609375,0.95703125,-0.214599609375,-0.3051757514476776,1.4038084745407104,0.0915527269244194,100.0,134635.0,1.0
15:36:18.618590,198557.796875,180314.390625,231563.015625,208899.59375,199839.53125,175212.734375,686369.6875,201084.625,0.095947265625,0.951904296875,-0.22265625,0.0,1.4038084745407104,0.2441406100988388,100.0,134636.0,1.0
15:36:18.632531,198557.703125,180310.09375,231561.578125,208908.53125,199835.15625,175195.75,686486.375,201087.296875,0.0927734375,0.947265625,-0.219482421875,0.5493163466453552,1.4953612089157104,0.7324218153953552,100.0,134637.0,1.0
15:36:18.635732,198560.390625,180317.4375,231567.484375,208902.0,199839.984375,175219.453125,686487.3125,201080.5,0.08837890625,0.94140625,-0.217529296875,1.1596678495407104,1.5869139432907104,1.2207030057907104,100.0,134638.0,1.0
15:36:18.635801,198564.765625,180325.296875,231572.484375,208898.078125,199844.546875,175241.796875,686432.5,201076.296875,0.0869140625,0.937255859375,-0.220458984375,1.8005369901657104,1.4953612089157104,2.014159917831421,100.0,134639.0,1.0
15:36:18.637879,198570.046875,180327.984375,231572.046875,208910.5,199845.4375,175230.71875,686385.0625,201088.1875,0.079833984375,0.933349609375,-0.2255859375,2.502441167831421,1.2512205839157104,3.265380620956421,100.0,134640.0,1.0
15:36:18.637918,198564.40625,180322.078125,231564.703125,208916.125,199839.171875,175213.90625,686474.0625,201089.453125,0.070556640625,0.939208984375,-0.227294921875,3.082275152206421,0.7629393935203552,4.669188976287842,100.0,134641.0,1.0
15:36:18.651042,198562.171875,180323.15625,231562.828125,208904.0625,199835.6875,175224.625,686529.8125,201078.890625,0.061767578125,0.949462890625,-0.2314453125,3.570556402206421,-0.03051757626235485,6.195067882537842,100.0,134642.0,1.0
15:36:18.659695,198564.328125,180324.5,231568.203125,208898.875,199840.15625,175240.71875,686442.9375,201074.421875,0.04931640625,0.962890625,-0.23095703125,3.845214605331421,-0.9155272841453552,7.904052257537842,100.0,134643.0,1.0
15:36:18.659738,198568.53125,180325.484375,231567.578125,208901.734375,199840.78125,175229.90625,686387.3125,201081.3125,0.0419921875,0.9775390625,-0.229736328125,4.241942882537842,-2.258300542831421,9.338377952575684,100.0,134644.0,1.0
15:36:18.659750,198589.0,180345.0625,231590.015625,208936.421875,199864.75,175235.546875,686448.8125,201121.8125,0.0361328125,0.996826171875,-0.229736328125,4.272460460662842,-3.601073980331421,10.742186546325684,100.0,134645.0,1.0
15:36:18.663038,198586.234375,180348.28125,231586.875,208927.390625,199861.171875,175244.484375,686537.0625,201106.609375,0.032958984375,1.013671875,-0.223876953125,4.150390148162842,-4.974364757537842,11.810301780700684,100.0,134646.0,1.0
15:36:18.663080,198590.875,180354.453125,231596.625,208928.296875,199871.09375,175270.140625,686475.1875,201102.046875,0.031494140625,1.0263671875,-0.214599609375,3.814697027206421,-6.347655773162842,12.634276390075684,100.0,134647.0,1.0
15:36:18.665203,198599.640625,180363.5625,231599.671875,208929.28125,199873.875,175269.953125,686405.375,201104.46875,0.035888671875,1.03662109375,-0.208740234375,3.265380620956421,-7.598876476287842,13.061522483825684,100.0,134648.0,1.0
15:36:18.694077,198595.34375,180356.5,231592.6875,208935.171875,199867.96875,175244.125,686434.875,201113.046875,0.041748046875,1.045166015625,-0.20166015625,2.593993902206421,-8.758543968200684,13.305663108825684,100.0,134649.0,1.0
15:36:18.694100,198597.3125,180363.203125,231595.734375,208937.6875,199869.390625,175253.0625,686527.0,201111.078125,0.050537109375,1.0498046875,-0.1982421875,1.5563963651657104,-9.643553733825684,13.488768577575684,100.0,134650.0,1.0
15:36:18.735290,198604.46875,180371.703125,231610.03125,208941.53125,199881.734375,175285.609375,686478.6875,201113.671875,0.06103515625,1.052978515625,-0.198974609375,0.5187987685203552,-10.467528343200684,13.549803733825684,100.0,134651.0,1.0
15:36:18.735315,198607.953125,180375.453125,231610.3125,208935.890625,199879.953125,175282.203125,686413.8125,201110.71875,0.073486328125,1.052734375,-0.199951171875,-0.5798339247703552,-11.108397483825684,13.519286155700684,100.0,134652.0,1.0
15:36:18.735342,198594.71875,180358.828125,231596.8125,208936.15625,199869.390625,175247.875,686429.6875,201112.953125,0.087646484375,1.048828125,-0.20458984375,-1.6479490995407104,-11.596678733825684,13.488768577575684,100.0,134653.0,1.0
15:36:18.735347,198596.421875,180359.1875,231596.625,208935.265625,199868.953125,175245.828125,686526.375,201111.703125,0.102294921875,1.042236328125,-0.213623046875,-2.716064214706421,-11.932372093200684,13.488768577575684,100.0,134654.0,1.0
15:36:18.741577,198605.359375,180375.90625,231612.28125,208937.765625,199885.140625,175283.375,686486.5625,201116.359375,0.116455078125,1.036865234375,-0.221923828125,-3.692626714706421,-12.176512718200684,13.427733421325684,100.0,134655.0,1.0
15:36:18.741603,198611.703125,180386.09375,231615.578125,208935.0,199887.71875,175294.09375,686430.9375,201115.734375,0.127685546875,1.0283203125,-0.228515625,-4.577636241912842,-12.176512718200684,13.153075218200684,100.0,134656.0,1.0
15:36:18.744051,198609.203125,180378.765625,231611.296875,208941.53125,199885.765625,175269.515625,686414.4375,201127.984375,0.142578125,1.022216796875,-0.2333984375,-5.249022960662842,-11.993407249450684,12.817381858825684,100.0,134657.0,1.0
15:36:18.744063,198611.796875,180384.046875,231614.953125,208948.9375,199888.171875,175266.921875,686517.3125,201134.859375,0.15234375,1.013916015625,-0.239013671875,-5.676269054412842,-11.657713890075684,12.207030296325684,100.0,134658.0,1.0
15:36:18.746024,198615.015625,180388.0625,231622.734375,208951.53125,199898.546875,175290.703125,686517.75,201134.953125,0.159423828125,1.0068359375,-0.240966796875,-6.103515148162842,-11.077879905700684,11.535643577575684,100.0,134659.0,1.0
15:36:18.748480,198613.859375,180387.703125,231621.578125,208942.328125,199896.84375,175295.625,686446.75,201123.515625,0.16455078125,1.001953125,-0.243896484375,-6.347655773162842,-10.437010765075684,10.894774436950684,100.0,134660.0,1.0
15:36:18.753520,198610.546875,180381.625,231615.84375,208944.296875,199890.234375,175273.265625,686395.625,201130.03125,0.169189453125,0.99560546875,-0.240478515625,-6.347655773162842,-9.704588890075684,9.948729515075684,100.0,134661.0,1.0
15:36:18.756007,198615.015625,180383.765625,231620.671875,208956.28125,199893.8125,175266.203125,686481.1875,201141.21875,0.170654296875,0.991943359375,-0.235595703125,-6.469726085662842,-9.033202171325684,9.002684593200684,100.0,134662.0,1.0
15:36:18.758497,198622.703125,180395.390625,231634.09375,208959.3125,199908.46875,175295.703125,686535.0,201144.78125,0.169189453125,0.98876953125,-0.23095703125,-6.469726085662842,-8.270262718200684,8.026122093200684,100.0,134663.0,1.0
15:36:18.761070,198623.6875,180402.546875,231639.359375,208952.515625,199913.828125,175315.109375,686454.625,201138.078125,0.16845703125,0.9794921875,-0.23193359375,-6.469726085662842,-7.446288585662842,7.110595226287842,100.0,134664.0,1.0
15:36:18.763902,198619.3125,180397.265625,231629.34375,208948.140625,199906.5,175293.296875,686398.125,201138.796875,0.168212890625,0.97412109375,-0.228759765625,-6.286620616912842,-6.805419445037842,6.072997570037842,100.0,134665.0,1.0
15:36:18.765964,198617.078125,180392.171875,231626.578125,208955.109375,199906.234375,175274.78125,686481.8125,201149.703125,0.163818359375,0.96728515625,-0.224853515625,-6.225585460662842,-6.072997570037842,5.096435070037842,100.0,134666.0,1.0
15:36:18.768470,198619.84375,180397.8125,231633.734375,208956.8125,199913.125,175295.265625,686544.5,201148.984375,0.159912109375,0.962890625,-0.223388671875,-5.950927257537842,-5.432128429412842,3.997802495956421,100.0,134667.0,1.0
15:36:18.770983,198629.234375,180413.8125,231647.234375,208959.765625,199925.90625,175328.875,686478.0625,201150.328125,0.1591796875,0.954833984375,-0.22265625,-5.645751476287842,-4.760741710662842,2.868652105331421,100.0,134668.0,1.0
15:36:18.774094,198631.296875,180414.078125,231644.453125,208956.546875,199922.859375,175316.625,686410.5,201152.65625,0.154541015625,0.950927734375,-0.219970703125,-5.371093273162842,-4.180907726287842,1.9836424589157104,100.0,134669.0,1.0
15:36:18.774106,198629.140625,180405.5,231641.78125,208968.34375,199920.984375,175290.34375,686465.5625,201166.15625,0.1552734375,0.94873046875,-0.218994140625,-5.004882335662842,-3.601073980331421,1.0070799589157104,100.0,134670.0,1.0
15:36:18.784789,198628.875,180405.765625,231641.0625,208970.046875,199920.359375,175297.859375,686537.6875,201160.875,0.154541015625,0.945068359375,-0.21630859375,-4.577636241912842,-3.051757574081421,-0.03051757626235485,100.0,134671.0,1.0
15:36:18.787843,198628.609375,180410.140625,231645.984375,208966.203125,199927.25,175322.984375,686475.5625,201153.109375,0.15185546875,0.943603515625,-0.21484375,-4.211425304412842,-2.563476324081421,-1.0375975370407104,100.0,134672.0,1.0
15:36:18.787858,198633.609375,180418.640625,231646.25,208961.1875,199925.71875,175322.53125,686417.375,201152.203125,0.15087890625,0.942626953125,-0.2138671875,-3.662109136581421,-2.044677495956421,-1.8920897245407104,100.0,134673.0,1.0
15:36:18.789717,198632.90625,180410.953125,231644.109375,208971.46875,199924.109375,175298.84375,686451.0625,201168.296875,0.1513671875,0.94091796875,-0.21337890625,-3.204345464706421,-1.4953612089157104,-2.777099370956421,100.0,134674.0,1.0
15:36:18.792949,198633.078125,180409.25,231641.78125,208972.8125,199921.4375,175296.78125,686550.9375,201164.015625,0.151123046875,0.93994140625,-0.213623046875,-2.532958745956421,-0.9155272841453552,-3.540038824081421,100.0,134675.0,1.0
15:36:18.792969,198631.640625,180412.03125,231646.25,208975.765625,199927.875,175321.453125,686515.1875,201159.265625,0.150634765625,0.943359375,-0.214111328125,-2.075195074081421,-0.5798339247703552,-4.150390148162842,100.0,134676.0,1.0
15:36:18.794742,198634.234375,180416.046875,231644.453125,208970.84375,199923.484375,175319.3125,686441.9375,201151.765625,0.1474609375,0.944580078125,-0.216064453125,-1.6174315214157104,0.0610351525247097,-4.547118663787842,100.0,134677.0,1.0
15:36:18.797255,198632.453125,180408.0,231638.921875,208980.78125,199919.015625,175293.46875,686444.375,201166.15625,0.146728515625,0.949951171875,-0.21728515625,-1.2207030057907104,0.5493163466453552,-4.974364757537842,100.0,134678.0,1.0
15:36:18.800353,198633.25,180406.84375,231639.453125,208986.046875,199918.484375,175288.828125,686530.1875,201169.546875,0.14599609375,0.95654296875,-0.216552734375,-0.7629393935203552,0.9460448622703552,-5.371093273162842,100.0,134679.0,1.0
15:36:18.800362,198634.859375,180413.546875,231647.046875,208983.359375,199928.140625,175317.34375,686521.875,201165.0,0.14501953125,0.964111328125,-0.216064453125,-0.4272460639476776,1.4343260526657104,-5.615233898162842,100.0,134680.0,1.0
15:36:18.802303,198637.90625,180421.046875,231648.484375,208977.015625,199927.78125,175327.1875,686441.25,201157.75,0.142822265625,0.96875,-0.213623046875,-0.1525878757238388,1.8310545682907104,-5.920409679412842,100.0,134681.0,1.0
15:36:18.814115,198636.5625,180417.296875,231644.453125,208982.46875,199924.734375,175306.625,686416.9375,201168.65625,0.139404296875,0.97314453125,-0.214599609375,-0.0610351525247097,2.227782964706421,-6.072997570037842,100.0,134682.0,1.0
15:36:18.814134,198634.953125,180414.078125,231643.390625,208985.328125,199922.5,175294.640625,686514.5625,201171.703125,0.135009765625,0.97802734375,-0.215087890625,0.1525878757238388,2.410888433456421,-6.103515148162842,100.0,134683.0,1.0
15:36:18.816544,198643.359375,180425.4375,231657.875,208991.859375,199936.90625,175326.375,686546.5,201174.65625,0.131591796875,0.981689453125,-0.212646484375,0.3051757514476776,2.807616949081421,-6.286620616912842,100.0,134684.0,1.0
15:36:18.816560,198648.359375,180432.3125,231664.125,208992.046875,199941.109375,175340.765625,686471.8125,201172.59375,0.126220703125,0.9853515625,-0.214111328125,0.3662109076976776,2.990722417831421,-6.286620616912842,100.0,134685.0,1.0
15:36:18.818457,198651.859375,180434.46875,231662.96875,208998.65625,199940.390625,175324.59375,686427.125,201183.59375,0.122802734375,0.98876953125,-0.21630859375,0.3051757514476776,3.265380620956421,-6.439208507537842,100.0,134686.0,1.0
15:36:18.831698,198651.140625,180432.046875,231662.25,209004.46875,199940.03125,175310.640625,686505.1875,201190.828125,0.120849609375,0.990234375,-0.21630859375,0.1831054538488388,3.387450933456421,-6.469726085662842,100.0,134687.0,1.0
15:36:18.831738,198653.109375,180435.265625,231668.78125,209007.0625,199949.421875,175333.625,686533.25,201190.46875,0.114501953125,0.9921875,-0.216064453125,0.0610351525247097,3.540038824081421,-6.469726085662842,100.0,134688.0,1.0
15:36:18.834221,198663.296875,180447.34375,231681.125,209013.671875,199959.703125,175358.828125,686475.8125,201191.8125,0.111083984375,0.9921875,-0.216796875,0.0,3.509521245956421,-6.164550304412842,100.0,134689.0,1.0
15:36:18.834277,198663.921875,180442.953125,231677.90625,209013.5,199954.953125,175340.140625,686417.875,201194.234375,0.11083984375,0.992431640625,-0.214111328125,-0.1220703050494194,3.631591558456421,-5.981444835662842,100.0,134690.0,1.0
15:36:18.843489,198661.0625,180433.75,231674.40625,209024.671875,199952.375,175317.171875,686479.3125,201204.953125,0.1064453125,0.9931640625,-0.21484375,-0.3356933295726776,3.601073980331421,-5.828856945037842,100.0,134691.0,1.0
15:36:18.847828,198664.375,180440.28125,231680.40625,209030.484375,199959.609375,175332.71875,686546.3125,201204.6875,0.103271484375,0.99267578125,-0.21630859375,-0.3662109076976776,3.601073980331421,-5.706786632537842,100.0,134692.0,1.0
15:36:18.847865,198671.875,180452.34375,231693.546875,209034.0625,199971.953125,175362.234375,686480.6875,201206.484375,0.101806640625,0.99267578125,-0.216552734375,-0.6103515028953552,3.479003667831421,-5.523681163787842,100.0,134693.0,1.0
15:36:18.857241,198680.015625,180458.875,231698.109375,209036.296875,199972.125,175356.78125,686417.8125,201213.28125,0.1005859375,0.9912109375,-0.218505859375,-0.6713866591453552,3.417968511581421,-5.340575695037842,100.0,134694.0,1.0
15:36:18.871271,198677.953125,180453.328125,231693.984375,209047.03125,199972.03125,175335.140625,686457.75,201227.9375,0.09521484375,0.989990234375,-0.218994140625,-0.7934569716453552,3.295898199081421,-5.065917491912842,100.0,134695.0,1.0
15:36:18.871361,198681.359375,180460.9375,231697.84375,209047.828125,199977.40625,175343.90625,686563.625,201226.0625,0.09423828125,0.989501953125,-0.2177734375,-1.0070799589157104,3.204345464706421,-4.882812023162842,100.0,134696.0,1.0
15:36:18.871371,198682.703125,180468.984375,231705.25,209047.203125,199986.609375,175370.984375,686507.9375,201221.859375,0.092041015625,0.98974609375,-0.21875,-1.2512205839157104,2.960204839706421,-4.455565929412842,100.0,134697.0,1.0
15:36:18.877262,198684.390625,180470.140625,231703.109375,209040.234375,199981.609375,175366.25,686430.3125,201216.3125,0.094482421875,0.987548828125,-0.219482421875,-1.3732908964157104,2.838134527206421,-4.119872570037842,100.0,134698.0,1.0
15:36:18.886153,198677.15625,180458.0625,231696.3125,209042.375,199973.375,175337.734375,686449.0,201222.03125,0.091552734375,0.990966796875,-0.21875,-1.5258787870407104,2.593993902206421,-3.753661870956421,100.0,134699.0,1.0
15:36:18.886176,198680.828125,180458.25,231699.796875,209044.796875,199973.734375,175336.21875,686551.625,201219.71875,0.092041015625,0.9912109375,-0.221923828125,-1.7395018339157104,2.410888433456421,-3.387450933456421,100.0,134700.0,1.0
15:36:18.886184,198688.328125,180469.25,231713.75,209048.640625,199989.375,175371.703125,686520.8125,201222.75,0.091064453125,0.99267578125,-0.221435546875,-1.8310545682907104,2.166747808456421,-3.021239995956421,100.0,134701.0,1.0
15:36:18.886189,198688.953125,180473.0,231711.6875,209040.234375,199986.15625,175374.828125,686445.6875,201214.078125,0.091064453125,0.9931640625,-0.21826171875,-2.044677495956421,1.8920897245407104,-2.624511480331421,100.0,134702.0,1.0
15:36:18.886195,198679.75,180460.484375,231698.90625,209042.015625,199976.78125,175345.234375,686438.4375,201219.4375,0.0908203125,0.995849609375,-0.21875,-2.197265386581421,1.6784666776657104,-2.166747808456421,100.0,134703.0,1.0
15:36:18.901022,198683.765625,180461.5625,231701.953125,209049.265625,199979.453125,175340.6875,686531.4375,201226.421875,0.09423828125,0.9951171875,-0.219970703125,-2.502441167831421,1.4953612089157104,-1.5869139432907104,100.0,134704.0,1.0
15:36:18.905983,198692.53125,180472.375,231715.8125,209054.09375,199993.40625,175372.59375,686530.5625,201230.625,0.09716796875,0.99267578125,-0.220947265625,-2.716064214706421,1.2512205839157104,-1.2207030057907104,100.0,134705.0,1.0
15:36:18.905992,198692.359375,180475.859375,231715.453125,209043.890625,199989.65625,175376.359375,686461.5625,201220.34375,0.09814453125,0.98876953125,-0.220458984375,-2.929687261581421,1.0986326932907104,-0.9765624403953552,100.0,134706.0,1.0
15:36:18.905993,198701.46875,180483.546875,231719.921875,209059.09375,199996.984375,175363.21875,686434.5625,201239.734375,0.100830078125,0.988037109375,-0.2216796875,-2.990722417831421,1.0375975370407104,-0.6408690810203552,100.0,134707.0,1.0
15:36:18.909099,198703.984375,180483.015625,231720.359375,209065.984375,199996.796875,175353.640625,686522.625,201243.578125,0.10546875,0.98876953125,-0.223388671875,-3.021239995956421,0.9460448622703552,-0.1831054538488388,100.0,134708.0,1.0
15:36:18.909109,198707.734375,180492.046875,231730.921875,209067.3125,200008.25,175383.5,686542.875,201243.3125,0.10791015625,0.988525390625,-0.22021484375,-3.051757574081421,0.8239745497703552,0.2441406100988388,100.0,134709.0,1.0
15:36:18.918506,198709.4375,180498.21875,231737.890625,209066.78125,200012.453125,175398.703125,686466.75,201238.75,0.10595703125,0.985595703125,-0.219482421875,-3.143310308456421,0.8544921278953552,0.5493163466453552,100.0,134710.0,1.0
15:36:18.921549,198706.84375,180493.390625,231730.5625,209067.765625,200007.796875,175377.15625,686411.625,201244.03125,0.1064453125,0.98828125,-0.2177734375,-3.112792730331421,0.7019042372703552,0.9155272841453552,100.0,134711.0,1.0
15:36:18.921559,198706.484375,180491.328125,231728.40625,209076.0,200007.703125,175360.984375,686506.875,201253.5,0.1064453125,0.986572265625,-0.218994140625,-3.204345464706421,0.8239745497703552,1.2207030057907104,100.0,134712.0,1.0
15:36:18.927336,198714.34375,180501.875,231738.25,209079.21875,200018.34375,175385.109375,686566.4375,201255.203125,0.107177734375,0.986083984375,-0.217529296875,-3.173827886581421,0.7629393935203552,1.4953612089157104,100.0,134713.0,1.0
15:36:18.942826,198723.203125,180513.40625,231750.59375,209081.171875,200030.59375,175412.390625,686487.75,201255.203125,0.1064453125,0.9873046875,-0.21630859375,-3.204345464706421,0.6713866591453552,1.6174315214157104,100.0,134714.0,1.0
15:36:18.942841,198727.484375,180515.921875,231750.046875,209080.734375,200031.5,175402.640625,686413.625,201259.40625,0.10498046875,0.98779296875,-0.216552734375,-3.234863042831421,0.7019042372703552,1.8310545682907104,100.0,134715.0,1.0
15:36:18.945325,198726.328125,180511.09375,231747.015625,209088.953125,200028.359375,175383.328125,686471.375,201268.34375,0.106689453125,0.986572265625,-0.21826171875,-3.173827886581421,0.5798339247703552,1.9226073026657104,100.0,134716.0,1.0
15:36:18.945337,198735.453125,180522.171875,231755.328125,209095.125,200037.390625,175404.15625,686558.375,201270.40625,0.103759765625,0.986328125,-0.21630859375,-3.112792730331421,0.4577636420726776,1.8920897245407104,100.0,134717.0,1.0
15:36:18.950047,198744.921875,180536.921875,231770.078125,209102.1875,200052.0625,175435.1875,686494.375,201273.09375,0.10498046875,0.984619140625,-0.21435546875,-3.234863042831421,0.3662109076976776,2.014159917831421,100.0,134718.0,1.0
15:36:18.952302,198743.9375,180535.9375,231763.734375,209093.609375,200045.890625,175423.65625,686423.6875,201269.0625,0.1025390625,0.9833984375,-0.2119140625,-3.234863042831421,0.3051757514476776,2.105712652206421,100.0,134719.0,1.0
15:36:18.956019,198737.78125,180522.0,231755.0625,209098.515625,200040.875,175394.421875,686477.6875,201278.90625,0.101318359375,0.983154296875,-0.210205078125,-3.112792730331421,0.1831054538488388,2.075195074081421,100.0,134720.0,1.0
15:36:18.963739,198732.671875,180519.671875,231749.515625,209091.109375,200034.265625,175396.5625,686571.5,201268.890625,0.103515625,0.984375,-0.20947265625,-3.082275152206421,0.0,2.014159917831421,100.0,134721.0,1.0
15:36:18.966648,198736.609375,180528.25,231761.40625,209092.71875,200044.8125,175427.140625,686508.5,201267.546875,0.104248046875,0.9833984375,-0.2099609375,-2.868652105331421,-0.1831054538488388,2.105712652206421,100.0,134722.0,1.0
15:36:18.966725,198740.453125,180531.109375,231761.9375,209090.03125,200044.1875,175423.03125,686432.375,201266.46875,0.1064453125,0.9814453125,-0.212158203125,-2.868652105331421,-0.2746581733226776,2.044677495956421,100.0,134723.0,1.0
15:36:18.975314,198735.453125,180521.546875,231753.71875,209093.25,200037.9375,175396.03125,686458.5,201274.78125,0.10595703125,0.981201171875,-0.209716796875,-2.838134527206421,-0.3356933295726776,1.9531248807907104,100.0,134724.0,1.0
15:36:18.975389,198742.421875,180530.046875,231763.46875,209098.609375,200043.734375,175404.078125,686562.125,201281.765625,0.109375,0.98193359375,-0.210693359375,-2.777099370956421,-0.3662109076976776,2.044677495956421,100.0,134725.0,1.0
15:36:18.981137,198746.53125,180536.03125,231775.359375,209100.9375,200054.296875,175432.953125,686529.1875,201282.46875,0.109130859375,0.981201171875,-0.21240234375,-2.716064214706421,-0.3967284858226776,1.9836424589157104,100.0,134726.0,1.0
15:36:18.985421,198747.25,180536.84375,231769.8125,209093.15625,200047.140625,175430.625,686446.75,201272.46875,0.11083984375,0.98046875,-0.21142578125,-2.655029058456421,-0.4272460639476776,1.8615721464157104,100.0,134727.0,1.0
15:36:18.985505,198748.6875,180534.953125,231765.96875,209102.453125,200047.3125,175409.34375,686433.125,201284.890625,0.111572265625,0.977294921875,-0.21337890625,-2.532958745956421,-0.4577636420726776,1.7700194120407104,100.0,134728.0,1.0
15:36:19.003576,198751.90625,180537.375,231768.46875,209108.265625,200050.171875,175406.75,686541.0,201289.453125,0.113525390625,0.97607421875,-0.21044921875,-2.349853277206421,-0.4577636420726776,1.6784666776657104,100.0,134729.0,1.0
15:36:19.003655,198764.5,180557.84375,231784.65625,209116.578125,200068.78125,175448.953125,686538.75,201295.265625,0.11474609375,0.97607421875,-0.208740234375,-2.288818120956421,-0.5187987685203552,1.5258787870407104,100.0,134730.0,1.0
15:36:19.003770,198765.21875,180558.390625,231785.015625,209112.375,200068.15625,175454.765625,686463.0625,201289.1875,0.1142578125,0.9755859375,-0.209228515625,-2.105712652206421,-0.5187987685203552,1.4343260526657104,100.0,134731.0,1.0
15:36:19.006779,198766.390625,180555.171875,231784.03125,209119.53125,200067.875,175435.28125,686423.375,201301.703125,0.1162109375,0.973876953125,-0.2109375,-1.9836424589157104,-0.4577636420726776,1.2512205839157104,100.0,134732.0,1.0
15:36:19.006859,198770.59375,180558.390625,231789.03125,209131.25,200072.265625,175427.9375,686523.5625,201313.140625,0.11572265625,0.972900390625,-0.21142578125,-1.8310545682907104,-0.5187987685203552,1.2512205839157104,100.0,134733.0,1.0
15:36:19.008712,198771.921875,180565.265625,231795.46875,209131.15625,200078.875,175451.453125,686557.9375,201310.375,0.11767578125,0.973876953125,-0.21337890625,-1.4953612089157104,-0.3967284858226776,1.0986326932907104,100.0,134734.0,1.0
15:36:19.018789,198780.328125,180576.890625,231804.859375,209131.15625,200085.765625,175472.921875,686489.5,201308.21875,0.119384765625,0.971923828125,-0.216552734375,-1.2817381620407104,-0.3662109076976776,0.9155272841453552,100.0,134735.0,1.0
15:36:19.021712,198782.75,180575.640625,231802.4375,209137.0625,200081.734375,175455.5625,686432.8125,201314.390625,0.119873046875,0.969482421875,-0.215576171875,-1.0986326932907104,-0.3967284858226776,0.7934569716453552,100.0,134736.0,1.0
15:36:19.021902,198773.984375,180565.53125,231793.0625,209140.09375,200074.859375,175433.21875,686515.875,201316.1875,0.119384765625,0.97021484375,-0.216552734375,-0.8239745497703552,-0.3051757514476776,0.6103515028953552,100.0,134737.0,1.0
15:36:19.025203,198780.875,180572.953125,231801.015625,209145.46875,200084.6875,175455.21875,686565.625,201316.1875,0.1162109375,0.971435546875,-0.21826171875,-0.5493163466453552,-0.2136230319738388,0.4577636420726776,100.0,134738.0,1.0
15:36:19.040712,198776.75,180572.953125,231802.171875,209135.984375,200083.609375,175469.421875,686494.4375,201305.0,0.115966796875,0.97119140625,-0.215576171875,-0.4272460639476776,-0.1220703050494194,0.4882812201976776,100.0,134739.0,1.0
15:36:19.040796,198777.921875,180574.03125,231797.796875,209131.515625,200078.34375,175453.421875,686427.625,201305.0,0.114501953125,0.97119140625,-0.21875,-0.1525878757238388,-0.1525878757238388,0.4272460639476776,100.0,134740.0,1.0
15:36:19.077137,198780.59375,180576.171875,231800.203125,209147.875,200081.734375,175436.34375,686494.8125,201321.375,0.1142578125,0.971923828125,-0.218017578125,0.0,-0.0610351525247097,0.3356933295726776,100.0,134741.0,1.0
15:36:19.090074,198782.390625,180582.25,231805.296875,209146.890625,200087.28125,175452.984375,686582.5,201319.125,0.11474609375,0.970703125,-0.21728515625,0.2136230319738388,-0.03051757626235485,0.1831054538488388,100.0,134742.0,1.0
15:36:19.092548,198785.96875,180590.125,231814.15625,209148.40625,200098.015625,175481.046875,686506.9375,201317.796875,0.114990234375,0.9736328125,-0.217041015625,0.3662109076976776,0.0,0.0,100.0,134743.0,1.0
15:36:19.095297,198791.5,180594.328125,231814.15625,209147.25,200096.84375,175475.421875,686434.25,201317.703125,0.11474609375,0.976318359375,-0.2197265625,0.4577636420726776,0.0915527269244194,-0.03051757626235485,100.0,134744.0,1.0
15:36:19.097341,198791.328125,180588.609375,231810.484375,209158.15625,200095.421875,175452.0,686479.5625,201330.046875,0.115234375,0.97802734375,-0.218505859375,0.6103515028953552,0.1220703050494194,-0.03051757626235485,100.0,134745.0,1.0
15:36:19.099735,198796.515625,180596.65625,231816.484375,209163.25,200102.390625,175463.171875,686562.1875,201334.328125,0.11572265625,0.978271484375,-0.218505859375,0.6103515028953552,0.1220703050494194,-0.2136230319738388,100.0,134746.0,1.0
15:36:19.102336,198794.90625,180601.125,231821.671875,209158.34375,200109.1875,175490.53125,686497.8125,201329.234375,0.114501953125,0.979248046875,-0.21826171875,0.6713866591453552,0.0915527269244194,-0.1525878757238388,100.0,134747.0,1.0
15:36:19.105470,198797.671875,180602.375,231820.234375,209151.8125,200105.875,175487.9375,686436.6875,201323.6875,0.11279296875,0.98095703125,-0.21923828125,0.6103515028953552,0.0915527269244194,-0.1831054538488388,100.0,134748.0,1.0
15:36:19.107484,198795.703125,180594.140625,231818.359375,209161.28125,200103.640625,175462.546875,686460.75,201336.75,0.11181640625,0.98291015625,-0.219970703125,0.7019042372703552,0.1220703050494194,-0.1220703050494194,100.0,134749.0,1.0
15:36:19.109941,198797.59375,180593.96875,231819.078125,209166.109375,200104.359375,175460.390625,686561.875,201338.53125,0.111328125,0.983642578125,-0.21875,0.5798339247703552,0.0915527269244194,-0.03051757626235485,100.0,134750.0,1.0
15:36:19.112355,198805.28125,180608.1875,231833.28125,209170.234375,200122.15625,175497.234375,686528.5625,201343.1875,0.10986328125,0.983154296875,-0.22021484375,0.6103515028953552,0.1220703050494194,-0.2441406100988388,100.0,134751.0,1.0
15:36:19.114764,198808.3125,180614.984375,231834.1875,209162.53125,200122.234375,175501.796875,686464.75,201339.0625,0.10888671875,0.9853515625,-0.21923828125,0.5187987685203552,0.1220703050494194,-0.2441406100988388,100.0,134752.0,1.0
15:36:19.117254,198803.671875,180603.796875,231826.9375,209168.4375,200115.890625,175474.4375,686450.25,201347.921875,0.111083984375,0.987548828125,-0.221435546875,0.4272460639476776,-0.0915527269244194,-0.2746581733226776,100.0,134753.0,1.0
15:36:19.119837,198802.328125,180600.671875,231824.171875,209173.796875,200112.859375,175465.9375,686553.0625,201350.15625,0.109130859375,0.98876953125,-0.222412109375,0.3051757514476776,-0.0610351525247097,-0.2441406100988388,100.0,134754.0,1.0
15:36:19.122267,198807.328125,180609.96875,231834.890625,209177.375,200124.5625,175497.40625,686547.375,201351.765625,0.10986328125,0.99072265625,-0.220458984375,0.1220703050494194,-0.0610351525247097,-0.3662109076976776,100.0,134755.0,1.0
15:36:19.125311,198813.046875,180615.78125,231838.46875,209174.96875,200124.65625,175508.671875,686476.375,201346.046875,0.108642578125,0.99169921875,-0.220703125,0.0,-0.2441406100988388,-0.2441406100988388,100.0,134756.0,1.0
15:36:19.125330,198819.484375,180617.21875,231839.09375,209187.578125,200124.5625,175490.34375,686439.0,201359.1875,0.108642578125,0.993896484375,-0.22265625,-0.1525878757238388,-0.2136230319738388,-0.2136230319738388,100.0,134757.0,1.0
15:36:19.127795,198820.203125,180613.734375,231840.265625,209198.921875,200125.734375,175478.015625,686546.5,201368.75,0.110107421875,0.99072265625,-0.22314453125,-0.3051757514476776,-0.3051757514476776,-0.2136230319738388,100.0,134758.0,1.0
15:36:19.127807,198822.171875,180619.984375,231848.21875,209198.21875,200134.125,175502.6875,686573.3125,201366.96875,0.11181640625,0.990478515625,-0.220703125,-0.5187987685203552,-0.3051757514476776,-0.1220703050494194,100.0,134759.0,1.0
15:36:19.129715,198826.734375,180631.78125,231855.90625,209192.765625,200139.234375,175522.625,686492.4375,201360.078125,0.11083984375,0.99169921875,-0.217529296875,-0.6408690810203552,-0.3662109076976776,-0.0915527269244194,100.0,134760.0,1.0
15:36:19.132783,198828.703125,180629.546875,231851.171875,209192.484375,200133.140625,175503.3125,686432.3125,201364.109375,0.1083984375,0.989501953125,-0.2197265625,-0.8850097060203552,-0.3356933295726776,-0.2441406100988388,100.0,134761.0,1.0
15:36:19.132806,198830.3125,180624.28125,231852.6875,209202.59375,200133.59375,175484.0,686507.5625,201376.53125,0.10595703125,0.987548828125,-0.218505859375,-1.1291502714157104,-0.5187987685203552,-0.1525878757238388,100.0,134762.0,1.0
15:36:19.134700,198832.8125,180628.921875,231856.890625,209202.59375,200139.046875,175503.484375,686582.0625,201373.21875,0.10595703125,0.986328125,-0.218994140625,-1.1901854276657104,-0.4882812201976776,-0.1220703050494194,100.0,134763.0,1.0
15:36:19.137805,198836.5625,180637.421875,231863.421875,209201.515625,200146.015625,175530.5,686512.5,201369.015625,0.107666015625,0.9873046875,-0.219482421875,-1.4648436307907104,-0.5798339247703552,-0.0915527269244194,100.0,134764.0,1.0
15:36:19.137828,198841.3125,180639.5625,231861.0,209201.515625,200142.796875,175514.9375,686447.5,201372.0625,0.1103515625,0.986328125,-0.222412109375,-1.6174315214157104,-0.5187987685203552,-0.1525878757238388,100.0,134765.0,1.0
15:36:19.139715,198842.828125,180635.546875,231862.171875,209212.875,200146.296875,175495.09375,686504.0,201386.8125,0.109130859375,0.98583984375,-0.221923828125,-1.7395018339157104,-0.6713866591453552,-0.0610351525247097,100.0,134766.0,1.0
15:36:19.156711,198848.640625,180645.5625,231868.421875,209216.1875,200153.265625,175511.625,686583.125,201387.34375,0.1083984375,0.9873046875,-0.22412109375,-1.8920897245407104,-0.7324218153953552,-0.0610351525247097,100.0,134767.0,1.0
15:36:19.156729,198854.71875,180658.515625,231880.9375,209220.03125,200166.3125,175543.546875,686526.8125,201389.046875,0.107666015625,0.9853515625,-0.222412109375,-1.8920897245407104,-0.8239745497703552,-0.0915527269244194,100.0,134768.0,1.0
15:36:19.159127,198865.453125,180670.140625,231887.734375,209223.421875,200170.96875,175543.8125,686458.0625,201394.765625,0.109130859375,0.98681640625,-0.22119140625,-2.014159917831421,-0.8850097060203552,0.03051757626235485,100.0,134769.0,1.0
15:36:19.159172,198857.75,180656.375,231880.234375,209226.828125,200162.921875,175512.609375,686484.5,201401.828125,0.109619140625,0.987060546875,-0.221923828125,-2.014159917831421,-0.9155272841453552,0.0,100.0,134770.0,1.0
15:36:19.161133,198860.34375,180659.859375,231883.4375,209224.765625,200163.8125,175516.640625,686587.875,201398.796875,0.109619140625,0.987548828125,-0.220458984375,-2.075195074081421,-0.8850097060203552,0.0,100.0,134771.0,1.0
15:36:19.163571,198868.9375,180673.359375,231897.84375,209230.046875,200178.484375,175552.125,686546.75,201402.1875,0.108642578125,0.9873046875,-0.218505859375,-2.197265386581421,-1.0375975370407104,-0.0610351525247097,100.0,134772.0,1.0
15:36:19.179290,198869.015625,180672.734375,231893.90625,209221.546875,200170.703125,175547.75,686464.8125,201393.078125,0.1103515625,0.989013671875,-0.218505859375,-2.410888433456421,-1.0375975370407104,0.03051757626235485,100.0,134773.0,1.0
15:36:19.179316,198862.859375,180660.3125,231886.21875,209227.359375,200165.515625,175516.71875,686473.0,201403.4375,0.110107421875,0.989990234375,-0.218505859375,-2.441406011581421,-1.1596678495407104,0.0,100.0,134774.0,1.0
15:36:19.179323,198866.703125,180665.046875,231890.59375,209232.359375,200168.015625,175517.625,686570.0,201404.78125,0.110595703125,0.988525390625,-0.215576171875,-2.563476324081421,-1.0986326932907104,0.0610351525247097,100.0,134775.0,1.0
15:36:19.184140,198865.625,180668.625,231894.4375,209226.015625,200172.671875,175544.265625,686528.125,201397.0,0.109619140625,0.98828125,-0.2138671875,-2.563476324081421,-1.0681151151657104,-0.03051757626235485,100.0,134776.0,1.0
15:36:19.184168,198866.875,180671.484375,231892.03125,209216.625,200168.015625,175549.09375,686468.25,201388.15625,0.111572265625,0.987548828125,-0.212646484375,-2.563476324081421,-1.0986326932907104,0.0610351525247097,100.0,134777.0,1.0
15:36:19.193306,198871.796875,180673.71875,231893.375,209229.953125,200172.671875,175533.4375,686453.5625,201407.828125,0.111328125,0.98583984375,-0.21337890625,-2.624511480331421,-1.0681151151657104,0.0,100.0,134778.0,1.0
15:36:19.194086,198873.5,180674.078125,231892.46875,209234.25,200174.0,175526.375,686569.8125,201412.921875,0.109375,0.984619140625,-0.218017578125,-2.593993902206421,-1.0375975370407104,-0.0610351525247097,100.0,134779.0,1.0
15:36:19.194105,198876.0,180681.859375,231900.4375,209232.453125,200184.375,175554.8125,686564.625,201410.59375,0.11279296875,0.983642578125,-0.218994140625,-2.563476324081421,-1.1291502714157104,-0.0610351525247097,100.0,134780.0,1.0
15:36:19.205467,198883.953125,180692.765625,231909.375,209232.453125,200191.4375,175573.59375,686509.75,201409.4375,0.11279296875,0.98291015625,-0.216064453125,-2.624511480331421,-0.9765624403953552,-0.1525878757238388,100.0,134781.0,1.0
15:36:19.209119,198886.640625,180691.15625,231907.765625,209237.8125,200190.546875,175555.53125,686463.9375,201419.171875,0.11376953125,0.98095703125,-0.212890625,-2.593993902206421,-1.0070799589157104,-0.1525878757238388,100.0,134782.0,1.0
15:36:19.209133,198884.671875,180683.28125,231904.640625,209244.171875,200187.59375,175537.375,686544.125,201426.328125,0.11279296875,0.980224609375,-0.215576171875,-2.471923589706421,-1.0375975370407104,-0.1220703050494194,100.0,134783.0,1.0
15:36:19.215334,198877.0625,180679.796875,231900.171875,209234.0625,200183.65625,175548.1875,686587.75,201413.71875,0.111328125,0.98193359375,-0.216552734375,-2.410888433456421,-0.9765624403953552,-0.1831054538488388,100.0,134784.0,1.0
15:36:19.215348,198870.0,180676.84375,231896.046875,209220.390625,200177.21875,175559.453125,686497.5625,201398.078125,0.110595703125,0.981201171875,-0.21484375,-2.319335699081421,-0.8544921278953552,-0.1220703050494194,100.0,134785.0,1.0
15:36:19.221235,198857.578125,180662.359375,231879.515625,209209.65625,200161.046875,175542.65625,686416.3125,201391.015625,0.11083984375,0.979736328125,-0.215087890625,-2.227782964706421,-0.8544921278953552,-0.2136230319738388,100.0,134786.0,1.0
15:36:19.231618,198854.359375,180656.1875,231875.484375,209216.0,200158.1875,175523.34375,686517.5625,201399.234375,0.110595703125,0.980224609375,-0.2119140625,-2.136230230331421,-0.8239745497703552,-0.2746581733226776,100.0,134787.0,1.0
15:36:19.231634,198851.671875,180653.15625,231875.75,209211.359375,200158.71875,175529.6875,686584.125,201392.09375,0.109619140625,0.982177734375,-0.2138671875,-2.136230230331421,-0.7019042372703552,-0.2441406100988388,100.0,134788.0,1.0
15:36:19.234573,198852.03125,180658.078125,231882.28125,209206.890625,200163.015625,175548.109375,686511.5,201385.109375,0.111083984375,0.98095703125,-0.21435546875,-1.9836424589157104,-0.7629393935203552,-0.2136230319738388,100.0,134789.0,1.0
15:36:19.234586,198857.3125,180661.375,231881.5625,209208.21875,200161.671875,175537.90625,686439.375,201386.015625,0.110595703125,0.979736328125,-0.2177734375,-2.044677495956421,-0.7324218153953552,-0.3662109076976776,100.0,134790.0,1.0
15:36:19.236228,198856.953125,180657.796875,231880.671875,209227.53125,200162.46875,175516.09375,686505.875,201401.828125,0.111328125,0.98095703125,-0.212646484375,-1.8920897245407104,-0.6408690810203552,-0.3662109076976776,100.0,134791.0,1.0
15:36:19.247763,198854.71875,180656.828125,231878.796875,209225.921875,200161.84375,175521.28125,686582.25,201396.109375,0.111572265625,0.97998046875,-0.212646484375,-1.8005369901657104,-0.5798339247703552,-0.2746581733226776,100.0,134792.0,1.0
15:36:19.250320,198863.5625,180669.34375,231893.453125,209231.921875,200176.953125,175553.65625,686515.375,201399.59375,0.110107421875,0.979736328125,-0.217041015625,-1.7089842557907104,-0.5187987685203552,-0.1525878757238388,100.0,134793.0,1.0
15:36:19.250346,198866.4375,180672.640625,231893.375,209228.609375,200174.453125,175548.28125,686455.375,201397.0,0.109130859375,0.980224609375,-0.21484375,-1.7089842557907104,-0.5493163466453552,-0.2136230319738388,100.0,134794.0,1.0
15:36:19.256111,198859.71875,180660.671875,231884.78125,209235.5,200168.90625,175518.953125,686476.3125,201405.40625,0.108154296875,0.979248046875,-0.216552734375,-1.4648436307907104,-0.4272460639476776,-0.2136230319738388,100.0,134795.0,1.0
15:36:19.258548,198860.890625,180664.875,231884.96875,209235.671875,200168.015625,175522.171875,686585.375,201402.546875,0.109375,0.982177734375,-0.21533203125,-1.4343260526657104,-0.3356933295726776,-0.1220703050494194,100.0,134796.0,1.0
15:36:19.266193,198858.65625,180664.515625,231888.1875,209232.359375,200172.9375,175545.78125,686548.0,201396.375,0.10693359375,0.981201171875,-0.21435546875,-1.4648436307907104,-0.3662109076976776,-0.0915527269244194,100.0,134797.0,1.0
15:36:19.277017,198855.4375,180661.5625,231881.75,209220.5625,200164.4375,175540.78125,686462.4375,201386.1875,0.107666015625,0.98095703125,-0.2109375,-1.3122557401657104,-0.3662109076976776,-0.0915527269244194,100.0,134798.0,1.0
15:36:19.277119,198856.6875,180657.796875,231881.75,209231.109375,200165.15625,175520.03125,686462.1875,201401.5625,0.108154296875,0.98095703125,-0.214599609375,-1.2817381620407104,-0.3356933295726776,-0.03051757626235485,100.0,134799.0,1.0
15:36:19.279233,198862.046875,180664.15625,231888.71875,209238.0,200172.3125,175522.796875,686570.8125,201408.265625,0.1103515625,0.98046875,-0.215087890625,-1.1291502714157104,-0.3356933295726776,0.03051757626235485,100.0,134800.0,1.0
15:36:19.279283,198864.546875,180669.421875,231897.390625,209238.53125,200181.703125,175550.875,686552.9375,201406.84375,0.110595703125,0.97900390625,-0.217041015625,-1.1901854276657104,-0.2136230319738388,0.1831054538488388,100.0,134801.0,1.0
15:36:19.281158,198866.703125,180676.125,231897.578125,209230.21875,200178.65625,175558.125,686481.0,201396.109375,0.111572265625,0.97998046875,-0.215087890625,-1.0070799589157104,-0.1831054538488388,0.2441406100988388,100.0,134802.0,1.0
15:36:19.292450,198861.15625,180666.125,231891.046875,209229.953125,200173.46875,175530.3125,686462.0625,201403.265625,0.11328125,0.981689453125,-0.218505859375,-0.9765624403953552,-0.2136230319738388,0.3967284858226776,100.0,134803.0,1.0
15:36:19.298496,198858.296875,180662.28125,231889.703125,209233.609375,200170.4375,175520.03125,686561.5,201405.40625,0.1103515625,0.979248046875,-0.216552734375,-0.9460448622703552,-0.1220703050494194,0.4272460639476776,100.0,134804.0,1.0
15:36:19.298599,198858.46875,180668.796875,231893.90625,209231.828125,200177.578125,175546.5,686568.8125,201401.65625,0.1103515625,0.978515625,-0.214599609375,-0.8544921278953552,0.03051757626235485,0.5187987685203552,100.0,134805.0,1.0
15:36:19.299758,198859.453125,180672.640625,231894.703125,209226.828125,200177.578125,175558.203125,686493.4375,201395.03125,0.10986328125,0.97802734375,-0.218017578125,-0.8544921278953552,0.0610351525247097,0.5798339247703552,100.0,134806.0,1.0
15:36:19.333717,198857.9375,180665.9375,231889.609375,209225.5625,200173.375,175535.40625,686445.875,201402.015625,0.109375,0.978759765625,-0.21728515625,-0.8239745497703552,0.0915527269244194,0.5798339247703552,100.0,134807.0,1.0
15:36:19.339099,198856.421875,180662.625,231887.734375,209229.6875,200170.703125,175519.765625,686540.6875,201409.25,0.109130859375,0.98095703125,-0.21728515625,-0.7629393935203552,0.1220703050494194,0.6713866591453552,100.0,134808.0,1.0
15:36:19.339117,198859.8125,180669.703125,231893.90625,209231.203125,200178.484375,175542.03125,686590.875,201407.203125,0.1083984375,0.981201171875,-0.21728515625,-0.6408690810203552,0.0915527269244194,0.5798339247703552,100.0,134809.0,1.0
15:36:19.340969,198860.171875,180671.65625,231897.84375,209227.0,200183.84375,175558.203125,686526.4375,201402.1875,0.107177734375,0.9814453125,-0.219970703125,-0.6713866591453552,0.1831054538488388,0.5798339247703552,100.0,134810.0,1.0
15:36:19.343518,198856.953125,180667.015625,231890.0625,209222.890625,200176.6875,175538.453125,686454.1875,201401.296875,0.10693359375,0.980224609375,-0.21923828125,-0.7019042372703552,0.1525878757238388,0.6408690810203552,100.0,134811.0,1.0
15:36:19.346008,198856.0625,180660.75,231889.25,209232.8125,200175.609375,175517.4375,686522.625,201413.015625,0.109130859375,0.981689453125,-0.22119140625,-0.5798339247703552,0.1831054538488388,0.7629393935203552,100.0,134812.0,1.0
15:36:19.348497,198859.359375,180666.296875,231893.453125,209231.296875,200180.71875,175535.046875,686591.0,201410.5,0.109130859375,0.982177734375,-0.22314453125,-0.5187987685203552,0.2136230319738388,0.7324218153953552,100.0,134813.0,1.0
15:36:19.350960,198865.265625,180677.921875,231903.828125,209231.46875,200191.890625,175566.796875,686523.875,201409.515625,0.10986328125,0.98388671875,-0.219970703125,-0.5187987685203552,0.2136230319738388,0.7019042372703552,100.0,134814.0,1.0
15:36:19.353500,198864.90625,180677.296875,231898.828125,209225.390625,200183.9375,175554.984375,686452.125,201404.515625,0.10693359375,0.98486328125,-0.222900390625,-0.4882812201976776,0.1525878757238388,0.5493163466453552,100.0,134815.0,1.0
15:36:19.355963,198857.484375,180665.671875,231890.78125,209230.75,200178.03125,175526.5625,686496.5,201412.390625,0.10498046875,0.986572265625,-0.22216796875,-0.4577636420726776,0.1525878757238388,0.3051757514476776,100.0,134816.0,1.0
15:36:19.358508,198854.0,180662.71875,231888.359375,209226.828125,200176.25,175528.796875,686590.0,201407.203125,0.101318359375,0.990234375,-0.21923828125,-0.6103515028953552,0.1525878757238388,0.1831054538488388,100.0,134817.0,1.0
15:36:19.360963,198854.71875,180667.90625,231895.609375,209227.8125,200183.03125,175553.65625,686531.1875,201402.90625,0.09814453125,0.989501953125,-0.218017578125,-0.6713866591453552,0.0610351525247097,0.03051757626235485,100.0,134818.0,1.0
15:36:19.363506,198851.328125,180665.9375,231886.75,209216.71875,200174.453125,175545.421875,686457.0,201392.359375,0.096435546875,0.990234375,-0.21875,-0.7324218153953552,0.03051757626235485,-0.2746581733226776,100.0,134819.0,1.0
15:36:19.366534,198847.65625,180657.453125,231881.390625,209224.3125,200168.90625,175520.203125,686467.625,201403.171875,0.09521484375,0.990234375,-0.21875,-0.8239745497703552,-0.1220703050494194,-0.4882812201976776,100.0,134820.0,1.0
15:36:19.366554,198847.75,180658.4375,231881.296875,209223.609375,200166.859375,175519.671875,686578.1875,201399.953125,0.096923828125,0.991455078125,-0.220458984375,-0.9460448622703552,-0.1525878757238388,-0.5798339247703552,100.0,134821.0,1.0
15:36:19.368560,198854.625,180672.203125,231894.890625,209231.828125,200180.984375,175555.265625,686560.9375,201402.734375,0.098876953125,0.989501953125,-0.218994140625,-1.0681151151657104,-0.2441406100988388,-0.5493163466453552,100.0,134822.0,1.0
15:36:19.371631,198854.1875,180674.4375,231891.40625,209223.25,200175.078125,175554.984375,686474.25,201392.625,0.1025390625,0.98828125,-0.21923828125,-1.1596678495407104,-0.3662109076976776,-0.4577636420726776,100.0,134823.0,1.0
15:36:19.371643,198850.34375,180663.265625,231885.046875,209229.59375,200169.359375,175525.390625,686460.0,201401.75,0.104248046875,0.98583984375,-0.217529296875,-1.3122557401657104,-0.5187987685203552,-0.4272460639476776,100.0,134824.0,1.0
15:36:19.378458,198851.328125,180662.546875,231886.21875,209232.546875,200169.53125,175520.203125,686564.1875,201403.625,0.105712890625,0.98388671875,-0.219482421875,-1.3732908964157104,-0.6103515028953552,-0.4272460639476776,100.0,134825.0,1.0
15:36:19.385415,198849.171875,180664.234375,231891.84375,209230.578125,200175.4375,175543.375,686560.5,201398.4375,0.108154296875,0.98388671875,-0.218017578125,-1.3732908964157104,-0.6713866591453552,-0.4272460639476776,100.0,134826.0,1.0
15:36:19.385433,198847.390625,180664.328125,231890.234375,209224.234375,200170.875,175546.5,686476.5625,201388.875,0.10888671875,0.982421875,-0.222412109375,-1.3427733182907104,-0.6103515028953552,-0.2136230319738388,100.0,134827.0,1.0
15:36:19.392960,198845.0625,180657.453125,231883.71875,209228.25,200166.859375,175523.515625,686448.1875,201397.1875,0.1103515625,0.98291015625,-0.220703125,-1.3427733182907104,-0.6103515028953552,-0.0610351525247097,100.0,134828.0,1.0
15:36:19.392980,198845.0625,180657.71875,231883.171875,209232.09375,200166.40625,175513.59375,686560.625,201401.65625,0.111083984375,0.98193359375,-0.2177734375,-1.3732908964157104,-0.5187987685203552,0.0915527269244194,100.0,134829.0,1.0
15:36:19.399428,198850.6875,180667.90625,231895.6875,209232.8125,200178.125,175542.296875,686584.625,201402.1875,0.111083984375,0.982421875,-0.217041015625,-1.3427733182907104,-0.3967284858226776,0.1220703050494194,100.0,134830.0,1.0
15:36:19.399467,198854.265625,180673.09375,231901.859375,209230.21875,200182.046875,175558.921875,686511.9375,201397.8125,0.109130859375,0.98046875,-0.215576171875,-1.4038084745407104,-0.4272460639476776,0.2746581733226776,100.0,134831.0,1.0
15:36:19.408616,198854.0,180670.859375,231897.21875,209235.21875,200176.59375,175539.875,686454.5625,201403.4375,0.10888671875,0.982177734375,-0.217041015625,-1.3732908964157104,-0.2441406100988388,0.4577636420726776,100.0,134832.0,1.0
15:36:19.434134,198850.875,180661.015625,231892.65625,209243.984375,200171.859375,175517.96875,686536.875,201408.8125,0.108154296875,0.983642578125,-0.21435546875,-1.4648436307907104,-0.2441406100988388,0.5798339247703552,100.0,134833.0,1.0
15:36:19.434155,198851.234375,180664.515625,231895.609375,209242.5625,200176.0625,175535.328125,686586.875,201403.625,0.108642578125,0.981201171875,-0.214111328125,-1.4953612089157104,-0.2441406100988388,0.7629393935203552,100.0,134834.0,1.0
15:36:19.455341,198852.390625,180672.375,231899.71875,209238.09375,200180.359375,175557.671875,686513.8125,201396.734375,0.103759765625,0.983154296875,-0.216796875,-1.4953612089157104,-0.3356933295726776,0.8850097060203552,100.0,134835.0,1.0
15:36:19.455360,198853.5625,180671.84375,231896.234375,209236.828125,200176.6875,175541.3125,686447.9375,201399.421875,0.10400390625,0.984375,-0.2158203125,-1.5563963651657104,-0.2746581733226776,1.0070799589157104,100.0,134836.0,1.0
15:36:19.462167,198851.765625,180664.59375,231892.921875,209244.875,200175.96875,175520.125,686522.125,201410.5,0.1044921875,0.981689453125,-0.21435546875,-1.5869139432907104,-0.2746581733226776,1.0681151151657104,100.0,134837.0,1.0
15:36:19.462184,198861.421875,180676.40625,231905.703125,209252.125,200189.03125,175542.296875,686601.75,201414.171875,0.10205078125,0.98193359375,-0.21728515625,-1.5869139432907104,-0.4577636420726776,1.0986326932907104,100.0,134838.0,1.0
15:36:19.462188,198863.125,180684.265625,231915.8125,209250.875,200197.078125,175568.84375,686537.625,201409.796875,0.1025390625,0.983642578125,-0.2158203125,-1.6174315214157104,-0.4577636420726776,1.0070799589157104,100.0,134839.0,1.0
15:36:19.466513,198859.015625,180681.5,231908.21875,209241.75,200186.609375,175555.890625,686466.875,201402.546875,0.101318359375,0.983642578125,-0.218017578125,-1.5258787870407104,-0.4577636420726776,1.0986326932907104,100.0,134840.0,1.0
15:36:19.466535,198852.296875,180669.0625,231899.453125,209246.578125,200179.734375,175526.828125,686505.3125,201411.3125,0.102294921875,0.982666015625,-0.220458984375,-1.5869139432907104,-0.4272460639476776,1.0375975370407104,100.0,134841.0,1.0
15:36:19.466541,198852.75,180671.125,231900.609375,209243.546875,200182.765625,175535.140625,686598.9375,201409.25,0.100830078125,0.984130859375,-0.218994140625,-1.4953612089157104,-0.4882812201976776,0.9460448622703552,100.0,134842.0,1.0
15:36:19.466546,198852.578125,180675.421875,231908.484375,209241.84375,200192.25,175563.390625,686537.1875,201407.640625,0.101806640625,0.9833984375,-0.21728515625,-1.5563963651657104,-0.5493163466453552,0.8544921278953552,100.0,134843.0,1.0
15:36:19.468502,198857.046875,180681.140625,231909.546875,209235.9375,200189.203125,175561.25,686473.3125,201403.625,0.102294921875,0.98291015625,-0.21533203125,-1.5563963651657104,-0.6408690810203552,0.7629393935203552,100.0,134844.0,1.0
15:36:19.471078,198853.28125,180674.4375,231904.640625,209240.953125,200185.09375,175534.421875,686489.4375,201413.28125,0.10400390625,0.98291015625,-0.2138671875,-1.5258787870407104,-0.5187987685203552,0.6103515028953552,100.0,134845.0,1.0
15:36:19.476065,198857.125,180678.375,231907.140625,209244.4375,200186.796875,175535.765625,686599.6875,201412.828125,0.104736328125,0.983154296875,-0.21630859375,-1.5563963651657104,-0.5493163466453552,0.6713866591453552,100.0,134846.0,1.0
15:36:19.478813,198861.875,180689.546875,231918.84375,209246.578125,200200.734375,175570.09375,686575.375,201412.828125,0.10546875,0.98486328125,-0.216796875,-1.6479490995407104,-0.6408690810203552,0.6103515028953552,100.0,134847.0,1.0
15:36:19.485019,198859.71875,180691.328125,231915.71875,209234.953125,200196.359375,175573.671875,686483.875,201402.015625,0.106201171875,0.985595703125,-0.216064453125,-1.6174315214157104,-0.5187987685203552,0.6103515028953552,100.0,134848.0,1.0
15:36:19.489694,198854.890625,180682.84375,231907.3125,209238.53125,200190.8125,175549.171875,686460.9375,201411.21875,0.105224609375,0.984130859375,-0.218994140625,-1.5563963651657104,-0.5493163466453552,0.6103515028953552,100.0,134849.0,1.0
15:36:19.492206,198858.5625,180683.90625,231910.625,209244.53125,200191.984375,175540.859375,686574.25,201416.046875,0.107666015625,0.985595703125,-0.21728515625,-1.6479490995407104,-0.6103515028953552,0.6103515028953552,100.0,134850.0,1.0
15:36:19.494705,198861.78125,180689.546875,231920.734375,209245.515625,200201.71875,175566.34375,686584.75,201416.40625,0.110107421875,0.98681640625,-0.217529296875,-1.6479490995407104,-0.6408690810203552,0.7019042372703552,100.0,134851.0,1.0
15:36:19.497781,198860.265625,180691.875,231917.78125,209234.328125,200195.90625,175571.0,686499.25,201404.25,0.111572265625,0.98681640625,-0.2158203125,-1.7089842557907104,-0.5187987685203552,0.6713866591453552,100.0,134852.0,1.0
15:36:19.497798,198861.15625,180689.09375,231913.03125,209240.765625,200192.328125,175547.75,686453.0625,201412.390625,0.11181640625,0.987060546875,-0.218017578125,-1.7089842557907104,-0.4577636420726776,0.7629393935203552,100.0,134853.0,1.0
15:36:19.506645,198857.578125,180680.953125,231908.03125,209243.359375,200187.234375,175530.578125,686551.5,201414.703125,0.11474609375,0.987060546875,-0.21728515625,-1.6784666776657104,-0.3967284858226776,0.8239745497703552,100.0,134854.0,1.0
15:36:19.506749,198860.265625,180687.390625,231915.09375,209241.9375,200196.0,175558.03125,686593.25,201413.8125,0.113037109375,0.9833984375,-0.21826171875,-1.7089842557907104,-0.3051757514476776,0.9155272841453552,100.0,134855.0,1.0
15:36:19.508520,198868.75,180696.78125,231926.0,209242.734375,200203.328125,175578.234375,686508.625,201410.328125,0.113037109375,0.984130859375,-0.218994140625,-1.6479490995407104,-0.2136230319738388,1.0070799589157104,100.0,134856.0,1.0
15:36:19.510972,198862.3125,180686.140625,231913.75,209235.859375,200191.796875,175548.734375,686441.0625,201408.1875,0.113037109375,0.982666015625,-0.2197265625,-1.6174315214157104,-0.1220703050494194,0.9155272841453552,100.0,134857.0,1.0
15:36:19.514100,198861.421875,180681.59375,231910.890625,209241.484375,200190.1875,175530.140625,686535.75,201416.234375,0.1103515625,0.985107421875,-0.22021484375,-1.6784666776657104,0.0,0.7629393935203552,100.0,134858.0,1.0
15:36:19.514112,198861.515625,180685.78125,231914.640625,209237.46875,200193.9375,175549.625,686592.9375,201411.40625,0.110595703125,0.983642578125,-0.218994140625,-1.7395018339157104,0.1525878757238388,0.7934569716453552,100.0,134859.0,1.0
15:36:19.516065,198864.1875,180690.890625,231920.90625,209236.296875,200200.65625,175570.8125,686513.125,201407.828125,0.110107421875,0.983154296875,-0.216552734375,-1.7395018339157104,0.2136230319738388,0.6713866591453552,100.0,134860.0,1.0
15:36:19.522230,198866.703125,180690.703125,231918.21875,209234.953125,200196.984375,175557.140625,686441.0,201409.4375,0.10791015625,0.984619140625,-0.2158203125,-1.7700194120407104,0.2441406100988388,0.8239745497703552,100.0,134861.0,1.0
15:36:19.526581,198862.5,180681.765625,231911.421875,209238.359375,200191.265625,175532.546875,686503.0,201416.859375,0.107177734375,0.98486328125,-0.218017578125,-1.6784666776657104,0.2746581733226776,0.8239745497703552,100.0,134862.0,1.0
15:36:19.526598,198861.328125,180682.5625,231911.875,209232.984375,200190.546875,175541.3125,686591.1875,201410.328125,0.107666015625,0.983642578125,-0.21923828125,-1.6174315214157104,0.2136230319738388,0.7934569716453552,100.0,134863.0,1.0
15:36:19.534745,198868.125,180694.546875,231923.765625,209235.140625,200203.515625,175572.15625,686526.1875,201411.40625,0.107421875,0.982666015625,-0.218994140625,-1.6174315214157104,0.2441406100988388,0.7019042372703552,100.0,134864.0,1.0
15:36:19.541608,198869.734375,180696.34375,231919.921875,209230.125,200199.578125,175562.953125,686449.3125,201408.359375,0.107666015625,0.98291015625,-0.219482421875,-1.5563963651657104,0.2746581733226776,0.6103515028953552,100.0,134865.0,1.0
15:36:19.541616,198864.1875,180687.125,231912.6875,209235.859375,200194.390625,175537.28125,686490.75,201417.390625,0.109375,0.98193359375,-0.21728515625,-1.5563963651657104,0.1831054538488388,0.5187987685203552,100.0,134866.0,1.0
15:36:19.544061,198863.125,180687.671875,231910.625,209232.71875,200192.875,175540.6875,686596.1875,201413.453125,0.109375,0.98291015625,-0.218994140625,-1.6174315214157104,0.2136230319738388,0.4577636420726776,100.0,134867.0,1.0
15:36:19.544063,198859.71875,180688.46875,231913.484375,209227.8125,200196.53125,175563.9375,686554.9375,201405.328125,0.10693359375,0.982666015625,-0.2197265625,-1.6784666776657104,0.3051757514476776,0.3356933295726776,100.0,134868.0,1.0
15:36:19.553519,198860.890625,180688.921875,231910.09375,209220.65625,200189.921875,175556.515625,686465.5625,201398.796875,0.10400390625,0.982177734375,-0.21826171875,-1.7089842557907104,0.2441406100988388,0.2441406100988388,100.0,134869.0,1.0
15:36:19.556636,198865.359375,180686.421875,231912.859375,209237.1875,200194.484375,175535.046875,686475.5625,201419.171875,0.105224609375,0.979248046875,-0.21875,-1.5258787870407104,0.3662109076976776,0.1525878757238388,100.0,134870.0,1.0
15:36:19.556647,198868.21875,180688.375,231914.46875,209240.59375,200194.390625,175533.796875,686569.6875,201419.0,0.104248046875,0.978759765625,-0.216064453125,-1.5258787870407104,0.3662109076976776,-0.03051757626235485,100.0,134871.0,1.0
15:36:19.563538,198870.90625,180697.59375,231926.0,209242.109375,200204.9375,175566.078125,686550.875,201416.40625,0.10498046875,0.97998046875,-0.217529296875,-1.4648436307907104,0.2746581733226776,0.0,100.0,134872.0,1.0
15:36:19.567277,198870.625,180698.9375,231923.40625,209233.078125,200201.640625,175568.671875,686479.6875,201408.09375,0.105224609375,0.97998046875,-0.216064453125,-1.4648436307907104,0.3356933295726776,-0.03051757626235485,100.0,134873.0,1.0
15:36:19.574788,198869.5625,180693.5625,231918.140625,209239.515625,200199.578125,175547.125,686470.1875,201420.25,0.106201171875,0.981689453125,-0.217041015625,-1.4343260526657104,0.2746581733226776,0.0,100.0,134874.0,1.0
15:36:19.574873,198870.71875,180692.21875,231917.0625,209244.875,200199.046875,175536.9375,686572.875,201424.0,0.110107421875,0.9794921875,-0.218505859375,-1.4953612089157104,0.2746581733226776,0.0,100.0,134875.0,1.0
15:36:19.579810,198882.609375,180705.1875,231933.609375,209256.59375,200217.1875,175570.09375,686571.25,201431.421875,0.109619140625,0.98095703125,-0.221435546875,-1.4038084745407104,0.2441406100988388,0.1220703050494194,100.0,134876.0,1.0
15:36:19.590472,198883.5,180711.0,231937.625,209249.4375,200215.578125,175581.28125,686501.125,201422.578125,0.10986328125,0.981689453125,-0.2216796875,-1.3122557401657104,0.1220703050494194,0.1525878757238388,100.0,134877.0,1.0
15:36:19.590499,198879.484375,180703.671875,231929.84375,209250.15625,200207.796875,175555.890625,686449.8125,201427.9375,0.109619140625,0.981201171875,-0.221435546875,-1.3732908964157104,0.1831054538488388,0.2441406100988388,100.0,134878.0,1.0
15:36:19.592863,198873.578125,180698.578125,231923.328125,209249.265625,200203.59375,175540.59375,686547.125,201428.828125,0.109130859375,0.981689453125,-0.218505859375,-1.3427733182907104,0.2136230319738388,0.3051757514476776,100.0,134879.0,1.0
15:36:19.592905,198873.046875,180700.09375,231927.078125,209244.25,200208.703125,175562.40625,686571.875,201421.5,0.10888671875,0.983154296875,-0.221923828125,-1.3427733182907104,0.2746581733226776,0.4882812201976776,100.0,134880.0,1.0
15:36:19.602389,198877.421875,180708.59375,231933.0625,209239.078125,200213.25,175582.34375,686511.0,201415.609375,0.1064453125,0.984130859375,-0.22021484375,-1.2512205839157104,0.2746581733226776,0.5493163466453552,100.0,134881.0,1.0
15:36:19.608144,198875.90625,180702.953125,231925.828125,209238.4375,200206.640625,175560.625,686447.5,201419.265625,0.10400390625,0.981689453125,-0.222412109375,-1.2512205839157104,0.2441406100988388,0.5187987685203552,100.0,134882.0,1.0
15:36:19.608240,198866.96875,180691.59375,231915.0,209238.53125,200198.421875,175534.34375,686516.9375,201421.0625,0.10205078125,0.980712890625,-0.2197265625,-1.3122557401657104,0.3051757514476776,0.4272460639476776,100.0,134883.0,1.0
15:36:19.610928,198872.234375,180699.828125,231921.71875,209240.953125,200206.90625,175555.171875,686582.6875,201422.3125,0.1005859375,0.983642578125,-0.2216796875,-1.3122557401657104,0.2441406100988388,0.3356933295726776,100.0,134884.0,1.0
15:36:19.617424,198877.15625,180708.59375,231932.703125,209242.828125,200217.015625,175583.953125,686510.0,201421.765625,0.0986328125,0.983154296875,-0.22412109375,-1.3427733182907104,0.1525878757238388,0.3051757514476776,100.0,134885.0,1.0
15:36:19.626025,198873.21875,180702.5,231924.578125,209235.140625,200207.53125,175566.96875,686442.125,201417.5625,0.097412109375,0.98486328125,-0.22021484375,-1.4038084745407104,0.1220703050494194,0.2441406100988388,100.0,134886.0,1.0
15:36:19.626066,198865.453125,180689.8125,231916.796875,209241.03125,200199.484375,175538.890625,686512.5,201424.0,0.0966796875,0.986083984375,-0.2197265625,-1.4038084745407104,0.0610351525247097,0.2136230319738388,100.0,134887.0,1.0
15:36:19.627868,198863.75,180690.96875,231916.34375,209239.078125,200198.859375,175545.953125,686591.0625,201418.546875,0.095947265625,0.984375,-0.219482421875,-1.4953612089157104,-0.0915527269244194,0.3051757514476776,100.0,134888.0,1.0
15:36:19.627896,198871.609375,180704.65625,231937.8125,209243.0,200212.546875,175579.484375,686524.625,201419.53125,0.0986328125,0.98583984375,-0.216796875,-1.4648436307907104,-0.2746581733226776,0.3356933295726776,100.0,134889.0,1.0
15:36:19.634837,198872.6875,180705.28125,231933.609375,209237.46875,200208.15625,175570.8125,686458.0625,201414.53125,0.09814453125,0.986572265625,-0.219482421875,-1.4038084745407104,-0.3662109076976776,0.4272460639476776,100.0,134890.0,1.0
15:36:19.645345,198866.4375,180696.703125,231923.953125,209243.09375,200203.953125,175544.4375,686486.9375,201424.71875,0.102294921875,0.988037109375,-0.218505859375,-1.4648436307907104,-0.4882812201976776,0.3662109076976776,100.0,134891.0,1.0
15:36:19.645360,198869.375,180698.125,231925.015625,209243.453125,200205.390625,175548.734375,686589.8125,201424.09375,0.103759765625,0.98388671875,-0.217041015625,-1.4648436307907104,-0.5187987685203552,0.5187987685203552,100.0,134892.0,1.0
15:36:19.647856,198873.9375,180706.625,231934.140625,209246.84375,200217.90625,175580.109375,686554.3125,201425.96875,0.10400390625,0.9853515625,-0.219482421875,-1.5869139432907104,-0.5187987685203552,0.4272460639476776,100.0,134893.0,1.0
15:36:19.647938,198879.84375,180713.5,231933.875,209244.4375,200216.75,175582.703125,686463.125,201423.109375,0.106689453125,0.98388671875,-0.217041015625,-1.6174315214157104,-0.6408690810203552,0.5798339247703552,100.0,134894.0,1.0
15:36:19.656010,198872.328125,180703.484375,231925.109375,209248.28125,200211.734375,175556.515625,686459.1875,201432.953125,0.1064453125,0.983154296875,-0.217041015625,-1.7089842557907104,-0.5493163466453552,0.5798339247703552,100.0,134895.0,1.0
15:36:19.666572,198869.375,180701.34375,231923.140625,209245.234375,200207.171875,175549.796875,686568.8125,201428.390625,0.10498046875,0.984375,-0.21826171875,-1.6784666776657104,-0.4882812201976776,0.4272460639476776,100.0,134896.0,1.0
15:36:19.666622,198872.953125,180708.5,231932.625,209246.578125,200218.4375,175578.59375,686553.625,201427.765625,0.103759765625,0.982421875,-0.21923828125,-1.6784666776657104,-0.3967284858226776,0.5798339247703552,100.0,134897.0,1.0
15:36:19.669098,198876.53125,180714.671875,231934.5,209246.21875,200219.25,175586.46875,686476.375,201424.359375,0.102294921875,0.982421875,-0.22216796875,-1.6479490995407104,-0.4577636420726776,0.4272460639476776,100.0,134898.0,1.0
15:36:19.669118,198869.734375,180702.0625,231924.390625,209246.21875,200211.5625,175556.953125,686452.75,201430.71875,0.1044921875,0.982666015625,-0.2197265625,-1.7395018339157104,-0.5493163466453552,0.4577636420726776,100.0,134899.0,1.0
15:36:19.678780,198865.0,180698.03125,231918.671875,209244.171875,200206.734375,175544.703125,686554.1875,201428.828125,0.103515625,0.984375,-0.217041015625,-1.7395018339157104,-0.6103515028953552,0.6408690810203552,100.0,134900.0,1.0
15:36:19.682870,198864.90625,180702.15625,231923.5,209241.65625,200214.859375,175569.65625,686561.25,201424.28125,0.102783203125,0.987060546875,-0.216064453125,-1.8310545682907104,-0.6408690810203552,0.6713866591453552,100.0,134901.0,1.0
15:36:19.682895,198869.296875,180710.546875,231933.25,209238.890625,200217.015625,175584.9375,686492.9375,201418.640625,0.103271484375,0.988525390625,-0.21826171875,-1.8920897245407104,-0.6408690810203552,0.7019042372703552,100.0,134902.0,1.0
15:36:19.692243,198871.53125,180707.515625,231938.15625,209251.59375,200214.234375,175565.265625,686443.5,201426.234375,0.102294921875,0.986083984375,-0.2177734375,-2.044677495956421,-0.6103515028953552,0.7324218153953552,100.0,134903.0,1.0
15:36:19.695295,198872.328125,180706.703125,231936.203125,209270.546875,200214.953125,175551.859375,686529.0625,201433.3125,0.10498046875,0.988525390625,-0.218505859375,-2.197265386581421,-0.5798339247703552,0.7934569716453552,100.0,134904.0,1.0
15:36:19.695318,198874.125,180714.046875,231939.5,209269.375,200221.03125,175576.0,686604.125,201430.265625,0.104736328125,0.98681640625,-0.21728515625,-2.136230230331421,-0.5798339247703552,0.9155272841453552,100.0,134905.0,1.0
15:36:19.708431,198878.859375,180723.96875,231947.453125,209265.890625,200227.65625,175597.8125,686526.375,201427.140625,0.106201171875,0.988037109375,-0.219482421875,-2.258300542831421,-0.6713866591453552,1.0375975370407104,100.0,134906.0,1.0
15:36:19.708493,198875.015625,180716.015625,231939.140625,209262.859375,200219.515625,175574.84375,686451.25,201427.765625,0.105712890625,0.988037109375,-0.21826171875,-2.288818120956421,-0.5187987685203552,1.0681151151657104,100.0,134907.0,1.0
15:36:19.710369,198870.359375,180704.75,231934.140625,209269.828125,200213.703125,175547.84375,686528.875,201435.359375,0.1064453125,0.98828125,-0.218017578125,-2.319335699081421,-0.4882812201976776,1.1596678495407104,100.0,134908.0,1.0
15:36:19.711466,198871.53125,180706.53125,231936.828125,209273.765625,200217.453125,175561.15625,686591.375,201431.0625,0.106689453125,0.98779296875,-0.218505859375,-2.380370855331421,-0.5187987685203552,1.2512205839157104,100.0,134909.0,1.0
15:36:19.714800,198873.84375,180713.5,231942.453125,209283.234375,200224.171875,175585.484375,686517.4375,201427.765625,0.109619140625,0.987060546875,-0.21728515625,-2.471923589706421,-0.5187987685203552,1.3122557401657104,100.0,134910.0,1.0
15:36:19.717246,198875.90625,180714.3125,231938.078125,209283.140625,200218.265625,175572.25,686448.1875,201425.34375,0.109130859375,0.987548828125,-0.21826171875,-2.563476324081421,-0.4272460639476776,1.3732908964157104,100.0,134911.0,1.0
15:36:19.728596,198872.953125,180706.984375,231932.984375,209291.90625,200216.296875,175550.25,686498.5625,201437.15625,0.111328125,0.985107421875,-0.216552734375,-2.563476324081421,-0.3967284858226776,1.5258787870407104,100.0,134912.0,1.0
15:36:19.731651,198874.921875,180714.578125,231935.65625,209288.421875,200219.609375,175562.5,686577.3125,201434.5625,0.112548828125,0.984619140625,-0.21484375,-2.624511480331421,-0.2746581733226776,1.5869139432907104,100.0,134913.0,1.0
15:36:19.731716,198882.078125,180723.609375,231948.171875,209289.046875,200233.90625,175592.546875,686516.9375,201436.4375,0.110595703125,0.985595703125,-0.21484375,-2.563476324081421,-0.1831054538488388,1.5258787870407104,100.0,134914.0,1.0
15:36:19.734948,198877.609375,180719.578125,231939.328125,209273.21875,200223.984375,175580.921875,686449.375,201425.078125,0.109375,0.98486328125,-0.21630859375,-2.624511480331421,-0.0610351525247097,1.4343260526657104,100.0,134915.0,1.0
15:36:19.749591,198874.203125,180713.421875,231936.46875,209280.640625,200220.3125,175555.703125,686479.6875,201437.0625,0.10888671875,0.983642578125,-0.214111328125,-2.593993902206421,-0.0610351525247097,1.4038084745407104,100.0,134916.0,1.0
15:36:19.749623,198875.640625,180716.640625,231938.78125,209280.203125,200222.46875,175560.359375,686598.4375,201436.515625,0.108642578125,0.984619140625,-0.21484375,-2.532958745956421,0.0,1.4648436307907104,100.0,134917.0,1.0
15:36:19.751071,198878.59375,180726.203125,231946.203125,209275.734375,200232.390625,175591.46875,686568.125,201432.859375,0.109375,0.9833984375,-0.21533203125,-2.532958745956421,0.03051757626235485,1.5258787870407104,100.0,134918.0,1.0
15:36:19.756594,198881.1875,180729.15625,231943.703125,209268.3125,200229.078125,175591.109375,686481.1875,201430.171875,0.108154296875,0.98388671875,-0.216796875,-2.624511480331421,0.1220703050494194,1.4343260526657104,100.0,134919.0,1.0
15:36:19.756620,198883.421875,180726.109375,231944.59375,209278.234375,200231.046875,175569.75,686481.0,201447.25,0.108154296875,0.98291015625,-0.214599609375,-2.593993902206421,0.1831054538488388,1.3427733182907104,100.0,134920.0,1.0
15:36:19.761019,198876.984375,180717.890625,231937.265625,209271.796875,200223.0,175556.421875,686570.1875,201440.015625,0.10791015625,0.982421875,-0.2119140625,-2.502441167831421,0.1525878757238388,1.2817381620407104,100.0,134921.0,1.0
15:36:19.763599,198880.5625,180723.421875,231945.40625,209272.421875,200232.21875,175583.875,686569.25,201438.484375,0.111083984375,0.98388671875,-0.21240234375,-2.441406011581421,0.1831054538488388,1.2817381620407104,100.0,134922.0,1.0
15:36:19.767345,198887.34375,180731.65625,231948.71875,209271.171875,200234.359375,175593.4375,686490.125,201435.359375,0.108154296875,0.982177734375,-0.215087890625,-2.410888433456421,0.1831054538488388,1.2512205839157104,100.0,134923.0,1.0
15:36:19.836776,198878.140625,180722.71875,231936.109375,209268.03125,200223.625,175565.625,686451.1875,201439.5625,0.107421875,0.980224609375,-0.216064453125,-2.380370855331421,0.1525878757238388,1.0375975370407104,100.0,134924.0,1.0
15:36:19.836807,198874.65625,180717.078125,231931.28125,209267.859375,200221.125,175553.109375,686553.0,201440.71875,0.10693359375,0.9814453125,-0.2177734375,-2.410888433456421,0.1220703050494194,0.9155272841453552,100.0,134925.0,1.0
15:36:19.838512,198872.6875,180716.8125,231936.015625,209266.96875,200229.0,175576.53125,686583.9375,201437.6875,0.106201171875,0.982421875,-0.21728515625,-2.349853277206421,0.0610351525247097,0.9765624403953552,100.0,134926.0,1.0
15:36:19.846028,198868.671875,180717.53125,231932.703125,209257.578125,200224.515625,175585.390625,686498.5625,201428.296875,0.1064453125,0.98193359375,-0.213623046875,-2.258300542831421,0.1525878757238388,0.8850097060203552,100.0,134927.0,1.0
15:36:19.849228,198867.859375,180713.6875,231928.328125,209258.65625,200219.34375,175564.375,686446.625,201433.75,0.107666015625,0.981689453125,-0.210693359375,-2.227782964706421,0.1220703050494194,0.8850097060203552,100.0,134928.0,1.0
15:36:19.849256,198861.875,180703.578125,231922.25,209262.046875,200212.453125,175543.546875,686544.6875,201437.234375,0.10888671875,0.983642578125,-0.211669921875,-2.258300542831421,0.1220703050494194,0.7934569716453552,100.0,134929.0,1.0
15:36:19.854731,198858.46875,180706.625,231921.796875,209252.921875,200211.734375,175561.515625,686607.6875,201426.0625,0.107421875,0.984619140625,-0.21337890625,-2.197265386581421,0.2136230319738388,0.7934569716453552,100.0,134930.0,1.0
15:36:19.857265,198861.0625,180715.46875,231928.78125,209247.125,200217.109375,175583.6875,686536.0,201420.34375,0.107177734375,0.986083984375,-0.21435546875,-2.197265386581421,0.0915527269244194,0.7324218153953552,100.0,134931.0,1.0
15:36:19.859776,198857.3125,180710.640625,231921.078125,209241.484375,200209.0625,175564.734375,686463.125,201419.265625,0.108154296875,0.984375,-0.213623046875,-2.227782964706421,0.1220703050494194,0.7019042372703552,100.0,134932.0,1.0
15:36:19.862351,198846.9375,180693.296875,231910.984375,209240.59375,200198.953125,175535.234375,686528.6875,201421.765625,0.10888671875,0.984619140625,-0.21484375,-2.136230230331421,0.1525878757238388,0.6408690810203552,100.0,134933.0,1.0
15:36:19.864771,198851.5,180701.96875,231916.078125,209238.71875,200205.84375,175555.265625,686604.9375,201419.171875,0.108154296875,0.9853515625,-0.2119140625,-2.166747808456421,0.1525878757238388,0.7324218153953552,100.0,134934.0,1.0
15:36:19.867182,198857.578125,180715.921875,231925.375,209240.140625,200214.953125,175584.765625,686537.625,201416.046875,0.10791015625,0.982421875,-0.21142578125,-2.166747808456421,0.1525878757238388,0.7019042372703552,100.0,134935.0,1.0
15:36:19.869726,198862.859375,180718.59375,231923.859375,209243.0,200211.296875,175575.28125,686461.8125,201417.21875,0.109619140625,0.98388671875,-0.210693359375,-1.9836424589157104,0.0610351525247097,0.6713866591453552,100.0,134936.0,1.0
15:36:19.872219,198857.40625,180707.25,231915.359375,209249.265625,200205.84375,175546.9375,686495.3125,201426.15625,0.10693359375,0.9833984375,-0.20947265625,-2.075195074081421,0.0915527269244194,0.7019042372703552,100.0,134937.0,1.0
15:36:19.874762,198859.359375,180709.65625,231918.9375,209246.578125,200206.8125,175554.453125,686592.25,201421.953125,0.108154296875,0.981689453125,-0.2119140625,-1.9836424589157104,0.1831054538488388,0.7629393935203552,100.0,134938.0,1.0
15:36:19.877423,198862.140625,180716.015625,231928.953125,209250.421875,200217.1875,175580.921875,686523.5,201423.015625,0.107666015625,0.982666015625,-0.209716796875,-1.9226073026657104,0.0915527269244194,0.7324218153953552,100.0,134939.0,1.0
15:36:19.880552,198858.203125,180711.265625,231920.015625,209239.515625,200207.359375,175568.578125,686460.1875,201412.296875,0.10791015625,0.9833984375,-0.2119140625,-1.8615721464157104,0.03051757626235485,0.7324218153953552,100.0,134940.0,1.0
15:36:19.882681,198856.328125,180702.421875,231916.078125,209250.15625,200205.296875,175543.8125,686475.3125,201426.421875,0.106689453125,0.983154296875,-0.212646484375,-1.7395018339157104,0.03051757626235485,0.8544921278953552,100.0,134941.0,1.0
15:36:19.888610,198851.953125,180698.9375,231910.265625,209246.3125,200200.65625,175541.3125,686581.625,201420.515625,0.105224609375,0.981201171875,-0.211669921875,-1.8005369901657104,-0.03051757626235485,0.7324218153953552,100.0,134942.0,1.0
15:36:19.890950,198856.328125,180706.359375,231920.453125,209249.625,200211.296875,175569.75,686555.0625,201419.09375,0.1064453125,0.9814453125,-0.209716796875,-1.8005369901657104,-0.0610351525247097,0.7324218153953552,100.0,134943.0,1.0
15:36:19.893468,198863.03125,180714.84375,231922.6875,209249.265625,200211.828125,175574.84375,686472.875,201416.3125,0.10498046875,0.980712890625,-0.210205078125,-1.7089842557907104,-0.1220703050494194,0.7629393935203552,100.0,134944.0,1.0
15:36:19.896118,198859.453125,180701.875,231917.328125,209257.40625,200207.09375,175546.046875,686467.375,201427.5,0.1044921875,0.97998046875,-0.211669921875,-1.5869139432907104,-0.1525878757238388,0.7324218153953552,100.0,134945.0,1.0
15:36:19.899552,198861.15625,180702.421875,231918.046875,209259.984375,200205.03125,175537.109375,686574.4375,201427.84375,0.105712890625,0.9814453125,-0.20947265625,-1.6174315214157104,-0.1831054538488388,0.7324218153953552,100.0,134946.0,1.0
15:36:19.899618,198863.75,180708.3125,231924.75,209256.234375,200214.421875,175567.0625,686562.125,201424.8125,0.106689453125,0.9794921875,-0.212646484375,-1.5869139432907104,-0.1525878757238388,0.8239745497703552,100.0,134947.0,1.0
15:36:19.901917,198863.921875,180712.15625,231924.75,209246.40625,200211.828125,175573.5,686481.8125,201415.875,0.102294921875,0.97900390625,-0.210205078125,-1.4953612089157104,-0.2746581733226776,0.7019042372703552,100.0,134948.0,1.0
15:36:19.901958,198865.359375,180712.25,231923.671875,209253.28125,200211.46875,175554.71875,686439.6875,201428.65625,0.103515625,0.978759765625,-0.213623046875,-1.4648436307907104,-0.3662109076976776,0.6713866591453552,100.0,134949.0,1.0
15:36:19.906036,198862.859375,180712.703125,231921.359375,209255.796875,200210.84375,175545.78125,686530.75,201434.015625,0.105712890625,0.98095703125,-0.21435546875,-1.4648436307907104,-0.4272460639476776,0.7629393935203552,100.0,134950.0,1.0
15:36:19.906048,198857.671875,180709.21875,231921.359375,209249.703125,200212.28125,175562.328125,686560.875,201424.0,0.10595703125,0.981201171875,-0.213623046875,-1.4038084745407104,-0.4882812201976776,0.7629393935203552,100.0,134951.0,1.0
15:36:19.906052,198858.03125,180707.515625,231925.640625,209243.90625,200211.640625,175571.703125,686486.3125,201416.140625,0.10498046875,0.980712890625,-0.213623046875,-1.3732908964157104,-0.4577636420726776,0.7324218153953552,100.0,134952.0,1.0
15:36:19.911647,198864.375,180713.421875,231929.671875,209247.5625,200211.015625,175558.296875,686427.8125,201424.453125,0.106201171875,0.98291015625,-0.213623046875,-1.4038084745407104,-0.4882812201976776,0.7629393935203552,100.0,134953.0,1.0
15:36:19.911664,198861.15625,180706.0,231927.4375,209253.640625,200208.875,175539.875,686519.625,201431.34375,0.106201171875,0.98291015625,-0.213623046875,-1.3122557401657104,-0.5187987685203552,0.7934569716453552,100.0,134954.0,1.0
15:36:19.916721,198859.71875,180704.65625,231927.609375,209249.171875,200211.109375,175554.453125,686569.1875,201425.171875,0.107177734375,0.984130859375,-0.212646484375,-1.2817381620407104,-0.5187987685203552,0.7019042372703552,100.0,134955.0,1.0
15:36:19.921522,198864.546875,180716.015625,231935.390625,209248.28125,200218.359375,175578.140625,686500.625,201422.21875,0.109375,0.984619140625,-0.212646484375,-1.2817381620407104,-0.4882812201976776,0.6408690810203552,100.0,134956.0,1.0
15:36:19.921533,198868.046875,180716.90625,231932.34375,209249.4375,200215.9375,175565.625,686433.5625,201426.0625,0.110107421875,0.984130859375,-0.212890625,-1.2512205839157104,-0.4577636420726776,0.7324218153953552,100.0,134957.0,1.0
15:36:19.926021,198866.078125,180712.4375,231929.3125,209258.203125,200215.9375,175546.859375,686518.5,201437.59375,0.109619140625,0.984619140625,-0.21044921875,-1.1901854276657104,-0.4577636420726776,0.7629393935203552,100.0,134958.0,1.0
15:36:19.931018,198865.359375,180711.265625,231929.125,209256.421875,200215.40625,175554.28125,686594.3125,201431.96875,0.10791015625,0.98486328125,-0.2138671875,-1.3122557401657104,-0.4882812201976776,0.7324218153953552,100.0,134959.0,1.0
15:36:19.934179,198870.8125,180719.765625,231939.140625,209258.46875,200224.171875,175581.546875,686520.0,201429.546875,0.109619140625,0.9853515625,-0.21435546875,-1.3427733182907104,-0.4577636420726776,0.8850097060203552,100.0,134960.0,1.0
15:36:19.934207,198876.09375,180723.609375,231940.125,209256.953125,200223.09375,175575.90625,686445.875,201429.8125,0.110595703125,0.984375,-0.211669921875,-1.3122557401657104,-0.4882812201976776,0.7629393935203552,100.0,134961.0,1.0
15:36:19.938467,198872.515625,180717.4375,231940.3125,209269.375,200220.59375,175552.671875,686491.375,201442.515625,0.108642578125,0.9853515625,-0.2138671875,-1.2207030057907104,-0.4882812201976776,0.7934569716453552,100.0,134962.0,1.0
15:36:19.940987,198874.203125,180719.5,231943.53125,209272.859375,200220.859375,175557.765625,686586.25,201439.390625,0.109375,0.986083984375,-0.215576171875,-1.2512205839157104,-0.4272460639476776,0.6713866591453552,100.0,134963.0,1.0
15:36:19.943457,198885.203125,180736.578125,231956.84375,209283.953125,200236.234375,175590.03125,686523.875,201443.9375,0.109375,0.984375,-0.21630859375,-1.2817381620407104,-0.4272460639476776,0.7019042372703552,100.0,134964.0,1.0
15:36:19.974138,198881.71875,180731.921875,231947.640625,209275.1875,200228.8125,175581.71875,686451.0,201434.734375,0.111328125,0.98486328125,-0.21484375,-1.4038084745407104,-0.3967284858226776,0.8239745497703552,100.0,134965.0,1.0
15:36:19.974149,198875.734375,180723.515625,231937.171875,209280.109375,200222.28125,175555.34375,686478.1875,201440.375,0.111083984375,0.985595703125,-0.21142578125,-1.3427733182907104,-0.3662109076976776,0.7934569716453552,100.0,134966.0,1.0
15:36:19.975984,198873.5,180720.03125,231932.703125,209274.921875,200217.453125,175550.96875,686586.0,201433.75,0.10888671875,0.985107421875,-0.210693359375,-1.3427733182907104,-0.3051757514476776,0.6713866591453552,100.0,134967.0,1.0
15:36:19.978531,198875.453125,180727.8125,231940.390625,209274.390625,200226.671875,175580.203125,686556.5,201432.046875,0.108642578125,0.98388671875,-0.21240234375,-1.4343260526657104,-0.3356933295726776,0.7019042372703552,100.0,134968.0,1.0
15:36:19.981155,198879.484375,180735.140625,231940.75,209268.75,200225.0625,175584.046875,686469.75,201424.90625,0.1083984375,0.983642578125,-0.21337890625,-1.4343260526657104,-0.2746581733226776,0.8239745497703552,100.0,134969.0,1.0
15:36:19.991619,198874.921875,180723.15625,231932.703125,209273.21875,200217.8125,175553.65625,686451.25,201433.21875,0.1083984375,0.9853515625,-0.215576171875,-1.4343260526657104,-0.1831054538488388,0.8239745497703552,100.0,134970.0,1.0
15:36:19.991633,198875.90625,180722.09375,231932.890625,209279.390625,200217.1875,175545.421875,686554.25,201435.625,0.109619140625,0.985107421875,-0.214111328125,-1.3732908964157104,-0.2441406100988388,0.8239745497703552,100.0,134971.0,1.0
15:36:19.991636,198880.203125,180727.984375,231945.671875,209282.171875,200229.703125,175575.734375,686569.5625,201438.671875,0.1103515625,0.9853515625,-0.21484375,-1.4343260526657104,-0.2136230319738388,0.7934569716453552,100.0,134972.0,1.0
15:36:19.991638,198876.09375,180728.53125,231942.8125,209270.546875,200226.40625,175583.0625,686488.625,201427.3125,0.11083984375,0.982421875,-0.2158203125,-1.4343260526657104,-0.1525878757238388,0.7324218153953552,100.0,134973.0,1.0
15:36:19.991641,198872.953125,180719.9375,231934.140625,209270.453125,200219.15625,175557.671875,686451.0625,201432.59375,0.111083984375,0.9814453125,-0.21484375,-1.4038084745407104,-0.0915527269244194,0.7934569716453552,100.0,134974.0,1.0
15:36:19.991643,198867.859375,180716.1875,231927.4375,209269.828125,200213.890625,175540.15625,686548.25,201433.125,0.10986328125,0.982177734375,-0.217041015625,-1.4038084745407104,-0.03051757626235485,0.7934569716453552,100.0,134975.0,1.0
15:36:19.991646,198869.5625,180725.84375,231933.421875,209266.96875,200222.375,175567.0625,686575.625,201430.0,0.1123046875,0.984130859375,-0.218017578125,-1.4038084745407104,-0.03051757626235485,0.8239745497703552,100.0,134976.0,1.0
15:36:19.994200,198871.890625,180724.59375,231937.8125,209262.9375,200225.859375,175580.828125,686506.0625,201426.15625,0.111572265625,0.98291015625,-0.218505859375,-1.4648436307907104,0.03051757626235485,0.7324218153953552,100.0,134977.0,1.0
15:36:19.994218,198870.1875,180721.1875,231930.921875,209261.25,200219.25,175560.53125,686446.3125,201428.65625,0.109619140625,0.982666015625,-0.2158203125,-1.5563963651657104,0.0610351525247097,0.7019042372703552,100.0,134978.0,1.0
15:36:19.996020,198870.09375,180716.546875,231931.8125,209269.203125,200220.5,175544.171875,686529.6875,201440.28125,0.10888671875,0.9814453125,-0.21728515625,-1.5258787870407104,0.0,0.7019042372703552,100.0,134979.0,1.0
15:36:19.999292,198875.375,180727.0,231942.09375,209270.546875,200229.890625,175568.046875,686578.5,201439.734375,0.110595703125,0.98046875,-0.217041015625,-1.4648436307907104,0.0610351525247097,0.7629393935203552,100.0,134980.0,1.0
15:36:19.999306,198875.1875,180730.5,231946.921875,209267.765625,200233.375,175588.96875,686501.25,201432.5,0.111328125,0.981201171875,-0.21484375,-1.5869139432907104,0.0610351525247097,0.7019042372703552,100.0,134981.0,1.0
15:36:20.006439,198869.46875,180722.984375,231937.625,209260.890625,200221.921875,175568.21875,686433.8125,201426.6875,0.109130859375,0.982666015625,-0.2177734375,-1.4953612089157104,0.0915527269244194,0.6713866591453552,100.0,134982.0,1.0
15:36:20.016613,198866.96875,180713.765625,231936.015625,209269.296875,200219.6875,175545.875,686493.4375,201438.765625,0.10888671875,0.982177734375,-0.218017578125,-1.4648436307907104,0.1525878757238388,0.7019042372703552,100.0,134983.0,1.0
15:36:20.016655,198868.75,180719.765625,231937.53125,209267.234375,200222.90625,175559.734375,686580.625,201435.625,0.10888671875,0.982421875,-0.21435546875,-1.4038084745407104,0.2746581733226776,0.6103515028953552,100.0,134984.0,1.0
15:36:20.019222,198876.53125,180730.5,231948.265625,209270.359375,200235.703125,175590.484375,686529.9375,201436.078125,0.109619140625,0.983154296875,-0.215576171875,-1.4648436307907104,0.2136230319738388,0.6103515028953552,100.0,134985.0,1.0
15:36:20.019355,198879.3125,180732.640625,231946.65625,209269.828125,200231.5,175583.328125,686459.5,201433.578125,0.109375,0.98388671875,-0.21630859375,-1.4343260526657104,0.2746581733226776,0.5493163466453552,100.0,134986.0,1.0
15:36:20.029052,198874.5625,180723.25,231942.546875,209279.484375,200228.546875,175555.96875,686491.0625,201446.0,0.10986328125,0.98486328125,-0.216064453125,-1.5258787870407104,0.1525878757238388,0.5798339247703552,100.0,134987.0,1.0
15:36:20.034192,198872.6875,180724.234375,231939.859375,209274.5625,200228.09375,175558.5625,686592.8125,201441.0,0.109375,0.985595703125,-0.215087890625,-1.5869139432907104,0.2136230319738388,0.5493163466453552,100.0,134988.0,1.0
15:36:20.034273,198869.109375,180724.234375,231941.296875,209269.375,200232.21875,175583.0625,686547.75,201433.03125,0.107177734375,0.9853515625,-0.214111328125,-1.6174315214157104,0.1831054538488388,0.4272460639476776,100.0,134989.0,1.0
15:36:20.036696,198866.703125,180720.921875,231933.25,209260.96875,200222.203125,175575.015625,686461.8125,201421.59375,0.10791015625,0.985107421875,-0.21533203125,-1.6784666776657104,0.1220703050494194,0.3356933295726776,100.0,134990.0,1.0
15:36:20.036777,198866.15625,180717.96875,231930.03125,209272.515625,200220.3125,175552.046875,686473.25,201434.375,0.107666015625,0.98388671875,-0.21484375,-1.6479490995407104,0.0915527269244194,0.4272460639476776,100.0,134991.0,1.0
15:36:20.041204,198859.90625,180710.640625,231925.109375,209268.484375,200215.21875,175543.71875,686576.125,201430.265625,0.108154296875,0.98486328125,-0.21435546875,-1.6479490995407104,0.03051757626235485,0.3967284858226776,100.0,134992.0,1.0
15:36:20.051270,198866.96875,180720.484375,231937.453125,209273.21875,200227.921875,175575.828125,686552.0,201430.359375,0.108154296875,0.985107421875,-0.2138671875,-1.6174315214157104,0.0610351525247097,0.3356933295726776,100.0,134993.0,1.0
15:36:20.055573,198873.84375,180725.3125,231940.84375,209273.3125,200228.09375,175581.8125,686482.4375,201427.9375,0.10791015625,0.98486328125,-0.21435546875,-1.5563963651657104,0.0,0.2746581733226776,100.0,134994.0,1.0
15:36:20.055670,198870.28125,180720.203125,231933.609375,209275.546875,200223.265625,175557.140625,686457.25,201437.15625,0.108154296875,0.986572265625,-0.214599609375,-1.6174315214157104,-0.03051757626235485,0.3662109076976776,100.0,134995.0,1.0
15:36:20.065586,198867.59375,180717.796875,231930.46875,209273.21875,200218.625,175547.390625,686555.5625,201435.359375,0.107177734375,0.985595703125,-0.216796875,-1.6174315214157104,-0.1220703050494194,0.3967284858226776,100.0,134996.0,1.0
15:36:20.068848,198868.125,180718.953125,231934.40625,209270.71875,200223.265625,175569.65625,686562.0,201429.640625,0.106689453125,0.9853515625,-0.214111328125,-1.6174315214157104,-0.1831054538488388,0.3662109076976776,100.0,134997.0,1.0
15:36:20.069013,198871.890625,180727.09375,231937.890625,209263.65625,200222.734375,175582.4375,686483.6875,201420.609375,0.1064453125,0.98486328125,-0.21630859375,-1.6174315214157104,-0.2136230319738388,0.3967284858226776,100.0,134998.0,1.0
15:36:20.073810,198867.859375,180720.484375,231927.796875,209262.578125,200214.78125,175559.453125,686433.5625,201423.5625,0.1044921875,0.984619140625,-0.217041015625,-1.6174315214157104,-0.0915527269244194,0.4577636420726776,100.0,134999.0,1.0
15:36:20.080462,198868.75,180716.90625,231926.984375,209277.78125,200214.6875,175543.1875,686531.8125,201430.71875,0.105224609375,0.982177734375,-0.218505859375,-1.5563963651657104,-0.0610351525247097,0.4882812201976776,100.0,135000.0,1.0
15:36:20.080545,198871.796875,180722.71875,231934.5,209280.90625,200221.84375,175564.640625,686578.0,201429.375,0.105224609375,0.984619140625,-0.2177734375,-1.4648436307907104,-0.2441406100988388,0.4272460639476776,100.0,135001.0,1.0
15:36:20.088880,198873.046875,180727.1875,231940.75,209270.8125,200224.171875,175582.703125,686499.1875,201423.015625,0.10498046875,0.98388671875,-0.217529296875,-1.6174315214157104,-0.2746581733226776,0.3356933295726776,100.0,135002.0,1.0
15:36:20.088981,198870.1875,180721.734375,231932.625,209265.453125,200216.46875,175562.5,686433.4375,201423.921875,0.104248046875,0.983642578125,-0.2158203125,-1.6479490995407104,-0.3662109076976776,0.4272460639476776,100.0,135003.0,1.0
15:36:20.097873,198862.671875,180708.859375,231923.40625,209266.078125,200210.125,175538.1875,686525.625,201428.03125,0.10546875,0.984375,-0.212646484375,-1.6479490995407104,-0.3051757514476776,0.4272460639476776,100.0,135004.0,1.0
15:36:20.097959,198865.359375,180716.640625,231928.15625,209266.34375,200215.40625,175556.78125,686577.25,201425.53125,0.1064453125,0.985595703125,-0.215087890625,-1.6174315214157104,-0.2441406100988388,0.4272460639476776,100.0,135005.0,1.0
15:36:20.099979,198869.109375,180726.828125,231936.546875,209265.359375,200222.5625,175583.78125,686505.0625,201421.6875,0.106201171875,0.9853515625,-0.216796875,-1.6174315214157104,-0.2441406100988388,0.5493163466453552,100.0,135006.0,1.0
15:36:20.103606,198870.90625,180723.515625,231932.890625,209264.90625,200217.734375,175569.46875,686442.9375,201422.390625,0.105712890625,0.986083984375,-0.216552734375,-1.6479490995407104,-0.3356933295726776,0.5493163466453552,100.0,135007.0,1.0
15:36:20.114124,198864.640625,180709.65625,231926.09375,209272.59375,200213.4375,175540.5,686506.9375,201433.75,0.105712890625,0.986572265625,-0.2158203125,-1.5869139432907104,-0.2746581733226776,0.5798339247703552,100.0,135008.0,1.0
15:36:20.114203,198862.5,180709.578125,231924.65625,209267.234375,200212.28125,175545.25,686598.3125,201425.4375,0.107421875,0.983642578125,-0.213623046875,-1.6784666776657104,-0.3051757514476776,0.6713866591453552,100.0,135009.0,1.0
15:36:20.116612,198870.09375,180723.609375,231938.875,209270.71875,200227.828125,175579.75,686535.5625,201429.109375,0.107177734375,0.984130859375,-0.21435546875,-1.6784666776657104,-0.2136230319738388,0.6713866591453552,100.0,135010.0,1.0
15:36:20.116629,198870.71875,180721.734375,231932.703125,209265.359375,200221.03125,175570.546875,686464.375,201423.46875,0.10791015625,0.98486328125,-0.216796875,-1.8005369901657104,-0.2746581733226776,0.7324218153953552,100.0,135011.0,1.0
15:36:20.126049,198865.625,180713.5,231927.796875,209272.328125,200216.03125,175544.078125,686494.8125,201431.96875,0.108154296875,0.985595703125,-0.21484375,-1.7395018339157104,-0.3662109076976776,0.6408690810203552,100.0,135012.0,1.0
15:36:20.129231,198862.3125,180711.890625,231924.390625,209265.796875,200211.5625,175543.453125,686585.8125,201423.109375,0.109375,0.983642578125,-0.2177734375,-1.6784666776657104,-0.3662109076976776,0.7019042372703552,100.0,135013.0,1.0
15:36:20.129263,198864.28125,180716.09375,231932.265625,209270.09375,200221.21875,175571.4375,686536.625,201422.75,0.107666015625,0.985595703125,-0.213134765625,-1.7089842557907104,-0.3051757514476776,0.7629393935203552,100.0,135014.0,1.0
15:36:20.132242,198872.515625,180727.984375,231934.59375,209270.09375,200222.28125,175576.890625,686457.3125,201421.6875,0.108154296875,0.985595703125,-0.214599609375,-1.7395018339157104,-0.3967284858226776,0.7934569716453552,100.0,135015.0,1.0
15:36:20.162301,198873.84375,180727.984375,231933.953125,209279.03125,200222.109375,175556.78125,686457.0625,201435.71875,0.10791015625,0.987060546875,-0.21533203125,-1.7089842557907104,-0.3051757514476776,0.9155272841453552,100.0,135016.0,1.0
15:36:20.162342,198867.40625,180717.96875,231928.953125,209272.59375,200213.796875,175543.09375,686551.3125,201428.828125,0.10888671875,0.986572265625,-0.21435546875,-1.7089842557907104,-0.3051757514476776,0.9765624403953552,100.0,135017.0,1.0
15:36:20.186025,198868.21875,180720.84375,231935.65625,209272.515625,200222.109375,175568.9375,686547.4375,201426.59375,0.108154296875,0.9853515625,-0.21728515625,-1.8310545682907104,-0.3356933295726776,1.0375975370407104,100.0,135018.0,1.0
15:36:20.193996,198873.21875,180728.4375,231938.15625,209271.796875,200224.34375,175579.671875,686475.375,201423.109375,0.108642578125,0.9853515625,-0.215576171875,-1.8920897245407104,-0.3051757514476776,1.0681151151657104,100.0,135019.0,1.0
15:36:20.194056,198873.5,180726.296875,231936.828125,209278.59375,200223.625,175560.53125,686449.3125,201434.921875,0.110595703125,0.9833984375,-0.2138671875,-1.9226073026657104,-0.2136230319738388,0.8850097060203552,100.0,135020.0,1.0
15:36:20.194075,198883.0625,180737.734375,231946.65625,209290.484375,200231.859375,175562.953125,686555.5625,201446.265625,0.1103515625,0.98193359375,-0.213134765625,-2.044677495956421,-0.1831054538488388,0.9460448622703552,100.0,135021.0,1.0
15:36:20.196037,198878.671875,180736.65625,231948.09375,209283.59375,200236.0625,175586.734375,686579.8125,201439.5625,0.109130859375,0.982666015625,-0.2158203125,-2.014159917831421,-0.2441406100988388,0.8544921278953552,100.0,135022.0,1.0
15:36:20.198642,198878.59375,180740.0625,231948.71875,209276.0,200237.390625,175600.59375,686509.8125,201430.890625,0.109130859375,0.982666015625,-0.216796875,-1.9836424589157104,-0.1220703050494194,0.7019042372703552,100.0,135023.0,1.0
15:36:20.201061,198887.703125,180748.28125,231951.84375,209286.453125,200242.046875,175589.40625,686473.3125,201445.203125,0.10791015625,0.9833984375,-0.21484375,-1.9836424589157104,-0.0915527269244194,0.6408690810203552,100.0,135024.0,1.0
15:36:20.203497,198886.640625,180741.9375,231951.125,209293.515625,200242.21875,175573.046875,686561.9375,201453.515625,0.108642578125,0.98388671875,-0.2158203125,-1.9836424589157104,-0.0610351525247097,0.7934569716453552,100.0,135025.0,1.0
15:36:20.206126,198887.890625,180748.28125,231956.3125,209291.46875,200247.671875,175594.0625,686620.3125,201448.859375,0.109375,0.984375,-0.2158203125,-1.9836424589157104,-0.0915527269244194,0.7019042372703552,100.0,135026.0,1.0
15:36:20.208575,198884.40625,180747.21875,231955.59375,209286.28125,200245.625,175606.84375,686532.3125,201438.671875,0.109619140625,0.983642578125,-0.214599609375,-1.9531248807907104,-0.03051757626235485,0.6103515028953552,100.0,135027.0,1.0
15:36:20.211093,198872.234375,180729.78125,231939.5,209276.796875,200227.03125,175573.234375,686444.625,201431.875,0.10791015625,0.986328125,-0.214599609375,-2.044677495956421,-0.1525878757238388,0.6103515028953552,100.0,135028.0,1.0
15:36:20.213540,198861.875,180717.53125,231928.0625,209276.53125,200217.015625,175543.90625,686514.8125,201435.0,0.107666015625,0.98681640625,-0.214111328125,-2.166747808456421,-0.1831054538488388,0.7019042372703552,100.0,135029.0,1.0
15:36:20.216605,198858.65625,180717.078125,231925.640625,209271.53125,200217.015625,175555.96875,686578.1875,201426.421875,0.109130859375,0.986572265625,-0.214111328125,-2.197265386581421,-0.1220703050494194,0.6103515028953552,100.0,135030.0,1.0
15:36:20.219212,198862.40625,180722.890625,231932.34375,209272.515625,200224.171875,175581.0,686511.0625,201423.296875,0.10693359375,0.985107421875,-0.215576171875,-2.105712652206421,-0.1831054538488388,0.6103515028953552,100.0,135031.0,1.0
15:36:20.219259,198864.375,180729.78125,231931.375,209268.484375,200218.984375,175574.21875,686437.5,201421.0625,0.1083984375,0.98681640625,-0.21533203125,-2.075195074081421,-0.1525878757238388,0.6103515028953552,100.0,135032.0,1.0
15:36:20.222434,198859.546875,180720.75,231925.5625,209275.28125,200214.78125,175548.28125,686499.375,201429.734375,0.110107421875,0.986572265625,-0.212158203125,-2.014159917831421,-0.1220703050494194,0.6103515028953552,100.0,135033.0,1.0
15:36:20.222463,198856.15625,180714.3125,231919.390625,209270.359375,200210.75,175548.109375,686589.9375,201421.140625,0.10986328125,0.986328125,-0.2138671875,-2.227782964706421,-0.03051757626235485,0.6408690810203552,100.0,135034.0,1.0
15:36:20.223461,198855.703125,180723.078125,231926.0,209267.234375,200217.90625,175576.0,686524.375,201414.796875,0.109375,0.987060546875,-0.216064453125,-2.288818120956421,-0.0610351525247097,0.6713866591453552,100.0,135035.0,1.0
15:36:20.226521,198858.65625,180724.765625,231923.765625,209262.046875,200213.796875,175571.703125,686457.25,201411.9375,0.107177734375,0.987060546875,-0.21630859375,-2.136230230331421,-0.0610351525247097,0.8239745497703552,100.0,135036.0,1.0
15:36:20.226527,198854.359375,180714.578125,231917.953125,209269.46875,200208.96875,175545.515625,686483.625,201423.734375,0.10791015625,0.984130859375,-0.214111328125,-2.227782964706421,-0.1220703050494194,0.8544921278953552,100.0,135037.0,1.0
15:36:20.228459,198852.21875,180711.53125,231915.8125,209265.984375,200206.1875,175543.09375,686576.9375,201420.25,0.106201171875,0.985107421875,-0.2138671875,-2.227782964706421,-0.0610351525247097,0.8544921278953552,100.0,135038.0,1.0
15:36:20.232862,198854.546875,180718.875,231924.484375,209267.40625,200216.03125,175573.140625,686535.9375,201419.265625,0.10498046875,0.986328125,-0.21435546875,-2.197265386581421,-0.1220703050494194,0.7934569716453552,100.0,135039.0,1.0
15:36:20.232886,198851.40625,180716.90625,231917.0625,209255.96875,200207.09375,175569.03125,686463.125,201407.5625,0.106201171875,0.984619140625,-0.21337890625,-2.227782964706421,-0.1525878757238388,0.7019042372703552,100.0,135040.0,1.0
15:36:20.242301,198847.828125,180710.828125,231913.125,209260.625,200203.875,175544.703125,686452.5625,201417.390625,0.10693359375,0.986083984375,-0.21337890625,-2.166747808456421,-0.1831054538488388,0.7934569716453552,100.0,135041.0,1.0
15:36:20.249186,198852.03125,180714.9375,231916.25,209263.5625,200205.484375,175545.0625,686563.8125,201419.625,0.10693359375,0.985595703125,-0.212646484375,-2.166747808456421,-0.2136230319738388,0.7934569716453552,100.0,135042.0,1.0
15:36:20.249216,198856.6875,180719.3125,231925.375,209267.40625,200216.828125,175573.140625,686567.6875,201419.984375,0.107666015625,0.984375,-0.2119140625,-2.227782964706421,-0.2136230319738388,0.7629393935203552,100.0,135043.0,1.0
15:36:20.251023,198862.859375,180727.546875,231930.734375,209265.453125,200220.5,175582.34375,686484.5,201416.5,0.10791015625,0.986572265625,-0.213134765625,-2.258300542831421,-0.3662109076976776,0.6408690810203552,100.0,135044.0,1.0
15:36:20.254930,198860.703125,180718.328125,231926.546875,209271.703125,200217.375,175558.03125,686452.4375,201426.234375,0.108154296875,0.982421875,-0.212646484375,-2.136230230331421,-0.3967284858226776,0.8239745497703552,100.0,135045.0,1.0
15:36:20.265385,198857.9375,180715.203125,231921.625,209274.921875,200211.921875,175544.625,686549.3125,201428.03125,0.109130859375,0.981201171875,-0.212646484375,-2.044677495956421,-0.4577636420726776,0.9155272841453552,100.0,135046.0,1.0
15:36:20.265419,198859.8125,180721.546875,231930.390625,209275.734375,200221.921875,175570.90625,686568.4375,201426.15625,0.1103515625,0.980224609375,-0.208984375,-1.9531248807907104,-0.3662109076976776,0.7934569716453552,100.0,135047.0,1.0
15:36:20.268519,198865.09375,180730.765625,231937.984375,209275.734375,200229.796875,175590.65625,686501.875,201423.828125,0.109619140625,0.981201171875,-0.210205078125,-2.044677495956421,-0.3967284858226776,0.7934569716453552,100.0,135048.0,1.0
15:36:20.268531,198859.71875,180724.59375,231927.875,209270.8125,200220.5,175567.234375,686440.6875,201424.359375,0.109619140625,0.980712890625,-0.2109375,-1.9836424589157104,-0.3662109076976776,0.7934569716453552,100.0,135049.0,1.0
15:36:20.276363,198859.546875,180720.484375,231925.640625,209276.796875,200219.875,175551.0625,686530.625,201433.03125,0.10986328125,0.978271484375,-0.20751953125,-1.9836424589157104,-0.3356933295726776,0.7629393935203552,100.0,135050.0,1.0
15:36:20.284090,198863.75,180724.59375,231933.25,209278.140625,200227.734375,175570.640625,686572.75,201432.234375,0.110107421875,0.976806640625,-0.212646484375,-1.9836424589157104,-0.3051757514476776,0.6713866591453552,100.0,135051.0,1.0
15:36:20.284116,198870.546875,180739.171875,231943.609375,209275.1875,200234.359375,175597.546875,686507.3125,201427.3125,0.111572265625,0.975830078125,-0.21240234375,-1.8920897245407104,-0.3051757514476776,0.7629393935203552,100.0,135052.0,1.0
15:36:20.293909,198864.90625,180728.078125,231933.6875,209266.96875,200223.09375,175575.734375,686441.4375,201423.375,0.111572265625,0.976318359375,-0.21240234375,-1.6784666776657104,-0.3967284858226776,0.8544921278953552,100.0,135053.0,1.0
15:36:20.293936,198866.515625,180728.4375,231931.640625,209278.5,200223.1875,175559.375,686524.8125,201436.703125,0.11181640625,0.97607421875,-0.214111328125,-1.6174315214157104,-0.4272460639476776,0.8850097060203552,100.0,135054.0,1.0
15:36:20.297930,198872.234375,180733.359375,231938.78125,209281.453125,200230.78125,175575.734375,686588.875,201437.421875,0.112548828125,0.977294921875,-0.212158203125,-1.5258787870407104,-0.3051757514476776,0.8239745497703552,100.0,135055.0,1.0
15:36:20.297951,198876.171875,180737.828125,231947.1875,209281.359375,200239.28125,175599.421875,686520.125,201434.828125,0.11279296875,0.98046875,-0.215087890625,-1.4038084745407104,-0.3967284858226776,0.8239745497703552,100.0,135056.0,1.0
15:36:20.316495,198879.65625,180742.828125,231944.234375,209277.78125,200234.796875,175590.9375,686450.25,201431.96875,0.113037109375,0.98046875,-0.212158203125,-1.2207030057907104,-0.3967284858226776,0.8850097060203552,100.0,135057.0,1.0
15:36:20.316565,198872.953125,180734.78125,231936.375,209282.796875,200227.921875,175563.75,686491.1875,201439.921875,0.112548828125,0.983642578125,-0.214111328125,-1.2207030057907104,-0.4272460639476776,0.6713866591453552,100.0,135058.0,1.0
15:36:20.316576,198869.109375,180728.890625,231929.484375,209278.234375,200223.625,175564.109375,686596.0625,201431.515625,0.110107421875,0.98486328125,-0.2119140625,-1.2207030057907104,-0.3662109076976776,0.5493163466453552,100.0,135059.0,1.0
15:36:20.316581,198865.0,180726.203125,231931.546875,209273.21875,200227.46875,175586.28125,686543.625,201423.296875,0.107421875,0.985595703125,-0.210693359375,-1.1596678495407104,-0.3662109076976776,0.3356933295726776,100.0,135060.0,1.0
15:36:20.325570,198865.0,180727.71875,231927.171875,209265.359375,200219.421875,175579.046875,686460.1875,201416.578125,0.10791015625,0.9853515625,-0.21142578125,-1.2207030057907104,-0.3051757514476776,0.2136230319738388,100.0,135061.0,1.0
15:36:20.326080,198862.40625,180721.109375,231923.140625,209276.171875,200216.921875,175554.09375,686472.875,201430.171875,0.105712890625,0.985595703125,-0.212158203125,-1.2512205839157104,-0.4272460639476776,-0.0915527269244194,100.0,135062.0,1.0
15:36:20.327826,198866.34375,180722.890625,231925.640625,209278.046875,200220.5,175556.515625,686576.4375,201432.140625,0.103759765625,0.986328125,-0.211669921875,-1.2817381620407104,-0.5187987685203552,-0.3356933295726776,100.0,135063.0,1.0
15:36:20.327840,198873.578125,180736.84375,231938.25,209282.171875,200236.5,175591.109375,686558.25,201435.546875,0.101806640625,0.98779296875,-0.212646484375,-1.3122557401657104,-0.6103515028953552,-0.4882812201976776,100.0,135064.0,1.0
15:36:20.345245,198881.625,180747.5625,231943.34375,209279.84375,200239.8125,175600.765625,686477.8125,201434.5625,0.10205078125,0.989013671875,-0.210693359375,-1.4038084745407104,-0.6713866591453552,-0.5798339247703552,100.0,135065.0,1.0
15:36:20.355651,198877.34375,180737.203125,231937.625,209286.28125,200235.703125,175574.84375,686457.0,201443.40625,0.10107421875,0.988037109375,-0.210693359375,-1.3427733182907104,-0.7324218153953552,-0.8544921278953552,100.0,135066.0,1.0
15:36:20.355685,198876.71875,180736.296875,231936.90625,209285.734375,200233.015625,175566.875,686558.8125,201442.25,0.10400390625,0.989013671875,-0.2109375,-1.4343260526657104,-0.8544921278953552,-0.9765624403953552,100.0,135067.0,1.0
15:36:20.355694,198880.828125,180744.34375,231946.828125,209286.8125,200243.203125,175596.75,686569.1875,201441.0,0.1025390625,0.989501953125,-0.210693359375,-1.4953612089157104,-0.9765624403953552,-1.0681151151657104,100.0,135068.0,1.0
15:36:20.355700,198878.59375,180744.171875,231944.328125,209276.796875,200238.5625,175602.109375,686490.0625,201430.0,0.10498046875,0.98828125,-0.213134765625,-1.5258787870407104,-1.1901854276657104,-1.2207030057907104,100.0,135069.0,1.0
15:36:20.356021,198869.921875,180730.3125,231930.921875,209272.953125,200227.296875,175572.609375,686450.875,201432.40625,0.10546875,0.98779296875,-0.2109375,-1.5563963651657104,-1.2207030057907104,-1.1901854276657104,100.0,135070.0,1.0
15:36:20.362900,198866.515625,180724.6875,231927.171875,209274.296875,200223.71875,175557.3125,686567.125,201434.734375,0.1083984375,0.98681640625,-0.209228515625,-1.7700194120407104,-1.2207030057907104,-1.2512205839157104,100.0,135071.0,1.0
15:36:20.362917,198868.671875,180732.09375,231937.265625,209274.75,200233.109375,175583.78125,686577.5625,201435.0,0.1083984375,0.987548828125,-0.20947265625,-1.7089842557907104,-1.2512205839157104,-1.2512205839157104,100.0,135072.0,1.0
15:36:20.369104,198871.703125,180739.796875,231943.53125,209269.5625,200236.234375,175600.953125,686501.9375,201428.03125,0.107421875,0.988525390625,-0.210693359375,-1.7700194120407104,-1.3122557401657104,-1.1901854276657104,100.0,135073.0,1.0
15:36:20.369134,198868.390625,180732.453125,231936.375,209271.890625,200228.1875,175578.5,686447.25,201426.0625,0.109130859375,0.986572265625,-0.21044921875,-1.7089842557907104,-1.2207030057907104,-1.1596678495407104,100.0,135074.0,1.0
15:36:20.382367,198868.3125,180729.515625,231935.484375,209281.71875,200226.75,175561.78125,686536.125,201435.359375,0.107421875,0.98388671875,-0.210693359375,-1.7395018339157104,-1.2207030057907104,-1.1291502714157104,100.0,135075.0,1.0
15:36:20.386589,198870.984375,180736.84375,231940.125,209278.40625,200232.03125,175579.9375,686584.0,201432.328125,0.1064453125,0.982421875,-0.210205078125,-1.7089842557907104,-1.2512205839157104,-0.9765624403953552,100.0,135076.0,1.0
15:36:20.386616,198868.390625,180731.828125,231942.453125,209270.71875,200233.015625,175593.609375,686509.625,201423.734375,0.106201171875,0.982177734375,-0.21142578125,-1.7395018339157104,-1.2207030057907104,-0.7324218153953552,100.0,135077.0,1.0
15:36:20.397858,198867.6875,180730.140625,231936.109375,209265.625,200225.859375,175576.984375,686437.125,201422.390625,0.106201171875,0.981689453125,-0.212158203125,-1.8615721464157104,-1.1596678495407104,-0.6713866591453552,100.0,135078.0,1.0
15:36:20.397916,198859.28125,180715.375,231927.078125,209267.140625,200218.171875,175548.46875,686505.0625,201426.6875,0.1064453125,0.983154296875,-0.212158203125,-1.8615721464157104,-1.2512205839157104,-0.5493163466453552,100.0,135079.0,1.0
15:36:20.404716,198864.828125,180723.96875,231932.34375,209267.6875,200224.078125,175564.28125,686583.75,201424.453125,0.10595703125,0.98388671875,-0.21484375,-1.8615721464157104,-1.2817381620407104,-0.3662109076976776,100.0,135080.0,1.0
15:36:20.404743,198868.671875,180732.640625,231944.0625,209268.75,200234.265625,175593.703125,686509.375,201421.0625,0.10400390625,0.984619140625,-0.215087890625,-1.8920897245407104,-1.3122557401657104,-0.2136230319738388,100.0,135081.0,1.0
15:36:20.404747,198866.25,180728.25,231937.625,209259.1875,200226.40625,175578.953125,686442.0625,201414.34375,0.103759765625,0.983154296875,-0.212646484375,-1.9226073026657104,-1.3122557401657104,-0.03051757626235485,100.0,135082.0,1.0
15:36:20.408079,198863.84375,180722.71875,231933.15625,209267.328125,200224.796875,175555.4375,686490.5625,201427.671875,0.10205078125,0.983154296875,-0.212646484375,-1.8920897245407104,-1.3732908964157104,0.1525878757238388,100.0,135083.0,1.0
15:36:20.408120,198866.078125,180724.859375,231934.046875,209269.375,200225.953125,175560.984375,686579.5625,201427.40625,0.1015625,0.98486328125,-0.2119140625,-1.9836424589157104,-1.3732908964157104,0.1220703050494194,100.0,135084.0,1.0
15:36:20.417222,198870.546875,180732.546875,231942.625,209270.90625,200237.125,175590.03125,686518.3125,201425.703125,0.099853515625,0.985595703125,-0.2080078125,-2.075195074081421,-1.3732908964157104,0.2441406100988388,100.0,135085.0,1.0
15:36:20.421568,198874.921875,180736.75,231942.1875,209265.796875,200234.171875,175588.25,686454.1875,201421.765625,0.0986328125,0.987060546875,-0.211181640625,-2.044677495956421,-1.5563963651657104,0.2441406100988388,100.0,135086.0,1.0
15:36:20.421667,198873.3125,180729.0625,231937.625,209276.984375,200231.3125,175562.59375,686464.6875,201436.171875,0.09814453125,0.987060546875,-0.213134765625,-2.075195074081421,-1.5563963651657104,0.1831054538488388,100.0,135087.0,1.0
15:36:20.423449,198872.78125,180728.703125,231935.03125,209278.328125,200230.15625,175559.375,686582.125,201434.921875,0.09912109375,0.988525390625,-0.208251953125,-2.044677495956421,-1.5869139432907104,0.1220703050494194,100.0,135088.0,1.0
15:36:20.436265,198870.359375,180731.65625,231940.390625,209280.015625,200235.78125,175585.296875,686572.25,201429.734375,0.10009765625,0.988525390625,-0.21240234375,-2.075195074081421,-1.4953612089157104,0.1525878757238388,100.0,135089.0,1.0
15:36:20.440467,198869.375,180733.078125,231937.984375,209270.1875,200230.515625,175587.171875,686479.125,201419.171875,0.101806640625,0.988037109375,-0.2138671875,-2.197265386581421,-1.6174315214157104,0.1831054538488388,100.0,135090.0,1.0
15:36:20.440538,198867.5,180725.578125,231933.15625,209278.59375,200228.1875,175562.953125,686465.625,201432.765625,0.103271484375,0.986572265625,-0.210693359375,-2.258300542831421,-1.6479490995407104,0.2136230319738388,100.0,135091.0,1.0
15:36:20.446692,198858.109375,180714.125,231923.046875,209273.5,200218.265625,175546.140625,686562.1875,201428.390625,0.10302734375,0.98681640625,-0.214111328125,-2.136230230331421,-1.5869139432907104,0.1831054538488388,100.0,135092.0,1.0
15:36:20.446775,198861.0625,180721.8125,231930.296875,209271.4375,200226.40625,175574.03125,686579.75,201425.34375,0.1064453125,0.985107421875,-0.21337890625,-2.166747808456421,-1.6784666776657104,0.2136230319738388,100.0,135093.0,1.0
15:36:20.479536,198865.53125,180731.203125,231932.625,209265.453125,200227.46875,175587.171875,686498.1875,201417.921875,0.10791015625,0.98388671875,-0.212890625,-2.105712652206421,-1.4953612089157104,0.2441406100988388,100.0,135094.0,1.0
15:36:20.479594,198860.96875,180721.375,231923.671875,209266.703125,200219.96875,175562.328125,686443.8125,201422.046875,0.109375,0.9833984375,-0.21484375,-2.136230230331421,-1.5258787870407104,0.3356933295726776,100.0,135095.0,1.0
15:36:20.479614,198856.328125,180713.234375,231917.953125,209268.3125,200215.21875,175543.28125,686537.25,201423.46875,0.11083984375,0.982421875,-0.214111328125,-2.075195074081421,-1.4648436307907104,0.3356933295726776,100.0,135096.0,1.0
15:36:20.479627,198862.5,180723.78125,231926.71875,209270.1875,200225.59375,175567.953125,686578.5,201422.84375,0.114013671875,0.981689453125,-0.213623046875,-2.014159917831421,-1.3122557401657104,0.4882812201976776,100.0,135097.0,1.0
15:36:20.479642,198871.703125,180738.0,231938.078125,209273.21875,200233.546875,175593.53125,686507.5625,201421.6875,0.114013671875,0.9814453125,-0.21240234375,-2.044677495956421,-1.0681151151657104,0.6408690810203552,100.0,135098.0,1.0
15:36:20.479656,198865.890625,180727.09375,231927.609375,209266.96875,200222.375,175569.921875,686442.75,201418.828125,0.113037109375,0.97998046875,-0.21337890625,-1.8920897245407104,-0.9765624403953552,0.7019042372703552,100.0,135099.0,1.0
15:36:20.479669,198860.96875,180717.796875,231922.515625,209271.703125,200215.84375,175545.953125,686521.875,201423.015625,0.113525390625,0.98095703125,-0.213134765625,-1.8615721464157104,-0.8239745497703552,0.6713866591453552,100.0,135100.0,1.0
15:36:20.479682,198869.296875,180728.25,231931.640625,209276.71875,200225.6875,175567.5,686580.0,201424.359375,0.1142578125,0.98046875,-0.2138671875,-1.6784666776657104,-0.7934569716453552,0.7324218153953552,100.0,135101.0,1.0
15:36:20.479769,198873.140625,180731.125,231938.078125,209276.265625,200231.859375,175588.515625,686507.9375,201419.265625,0.111572265625,0.9794921875,-0.21240234375,-1.4343260526657104,-0.5798339247703552,0.8239745497703552,100.0,135102.0,1.0
15:36:20.492457,198868.671875,180724.5,231928.859375,209269.640625,200220.671875,175567.953125,686434.4375,201410.859375,0.11328125,0.979736328125,-0.21337890625,-1.4343260526657104,-0.4272460639476776,0.7629393935203552,100.0,135103.0,1.0
15:36:20.504735,198869.296875,180721.109375,231930.734375,209285.5625,200222.46875,175548.375,686497.3125,201425.4375,0.111328125,0.97998046875,-0.211181640625,-1.2817381620407104,-0.2746581733226776,0.8850097060203552,100.0,135104.0,1.0
15:36:20.504769,198866.609375,180720.84375,231929.21875,209283.328125,200221.296875,175555.171875,686586.4375,201419.453125,0.110107421875,0.980712890625,-0.21484375,-1.3122557401657104,-0.1525878757238388,0.8850097060203552,100.0,135105.0,1.0
15:36:20.504780,198871.96875,180731.65625,231940.84375,209286.09375,200233.828125,175586.46875,686523.875,201420.4375,0.111572265625,0.978271484375,-0.2138671875,-1.0986326932907104,-0.03051757626235485,0.8850097060203552,100.0,135106.0,1.0
15:36:20.507806,198873.140625,180732.546875,231936.546875,209274.390625,200227.65625,175578.765625,686442.5,201414.796875,0.1103515625,0.979248046875,-0.213134765625,-1.0681151151657104,0.0610351525247097,0.8544921278953552,100.0,135107.0,1.0
