Timestamp,Fz,FC3,FCz,FC4,Cz,C3,C4
15:37:28.592325,176805.609375,170823.296875,162240.234375,202900.921875,165489.28125,163370.515625,686002.25,161237.71875,-0.07421875,1.0029296875,-0.163818359375,-0.7629393935203552,0.5187987685203552,0.7934569716453552,100.0,133973.0,1.0
15:37:28.592333,176774.234375,170822.953125,162245.78125,202908.78125,165496.4375,163372.125,685977.5625,161255.5,-0.072509765625,1.002685546875,-0.161865234375,-0.8850097060203552,0.4272460639476776,0.7629393935203552,100.0,133974.0,1.0
15:37:28.603018,176738.65625,170805.609375,162224.953125,202900.46875,165482.9375,163353.984375,686041.75,161249.78125,-0.072021484375,1.00146484375,-0.164306640625,-1.0070799589157104,0.3967284858226776,0.8850097060203552,100.0,133975.0,1.0
15:37:28.606558,176767.53125,170817.5,162228.796875,202896.71875,165483.296875,163362.921875,685989.125,161248.703125,-0.074462890625,0.999755859375,-0.162841796875,-1.0375975370407104,0.3967284858226776,0.8544921278953552,100.0,133976.0,1.0
15:37:28.607889,176807.671875,170827.15625,162240.140625,202891.984375,165490.71875,163378.03125,686014.5625,161236.90625,-0.073486328125,1.0009765625,-0.1650390625,-1.0986326932907104,0.3967284858226776,0.7324218153953552,100.0,133977.0,1.0
15:37:28.616769,176767.96875,170827.421875,162240.40625,202880.359375,165490.625,163376.328125,685979.375,161234.046875,-0.072021484375,1.001708984375,-0.164794921875,-1.0986326932907104,0.3051757514476776,0.6713866591453552,100.0,133978.0,1.0
15:37:28.619202,176754.296875,170816.59375,162239.15625,202922.46875,165494.375,163360.765625,686054.4375,161270.609375,-0.0712890625,1.00146484375,-0.1630859375,-1.1901854276657104,0.3051757514476776,0.7934569716453552,100.0,133979.0,1.0
15:37:28.621653,176765.5625,170814.8125,162234.25,202909.140625,165487.765625,163361.578125,685987.3125,161254.25,-0.0703125,1.001708984375,-0.163818359375,-1.3732908964157104,0.3356933295726776,0.7629393935203552,100.0,133980.0,1.0
15:37:28.624177,176815.1875,170814.359375,162239.96875,202900.109375,165489.015625,163363.09375,686017.0625,161245.40625,-0.0712890625,1.001708984375,-0.163818359375,-1.5563963651657104,0.3967284858226776,0.7019042372703552,100.0,133981.0,1.0
15:37:28.628146,176782.90625,170835.546875,162247.296875,202886.171875,165491.515625,163381.515625,685985.0,161228.859375,-0.071533203125,1.0029296875,-0.162109375,-1.7089842557907104,0.2746581733226776,0.7324218153953552,100.0,133982.0,1.0
15:37:28.634738,176752.859375,170808.015625,162231.921875,202905.484375,165484.09375,163355.046875,686036.125,161248.53125,-0.07373046875,1.000732421875,-0.16162109375,-1.8920897245407104,0.2746581733226776,0.6713866591453552,100.0,133983.0,1.0
15:37:28.634748,176745.625,170803.09375,162222.625,202892.515625,165475.34375,163350.046875,685991.3125,161235.75,-0.073974609375,1.000732421875,-0.16357421875,-2.014159917831421,0.3356933295726776,0.4882812201976776,100.0,133984.0,1.0
15:37:28.641781,176814.28125,170822.40625,162238.796875,202903.515625,165488.125,163369.359375,686020.5,161242.1875,-0.075439453125,1.0029296875,-0.1650390625,-1.9836424589157104,0.3356933295726776,0.5187987685203552,100.0,133985.0,1.0
15:37:28.644176,176786.484375,170830.28125,162244.078125,202888.046875,165490.171875,163379.453125,685996.25,161241.203125,-0.0751953125,1.000732421875,-0.163818359375,-2.105712652206421,0.1525878757238388,0.5493163466453552,100.0,133986.0,1.0
15:37:28.647938,176755.640625,170808.546875,162231.203125,202895.5625,165483.734375,163357.109375,686028.6875,161247.453125,-0.075927734375,1.00048828125,-0.165771484375,-2.197265386581421,0.1525878757238388,0.4882812201976776,100.0,133987.0,1.0
15:37:28.657220,176742.578125,170801.75,162222.796875,202897.515625,165475.609375,163349.0625,686005.625,161243.96875,-0.074951171875,0.99853515625,-0.164794921875,-2.258300542831421,0.0915527269244194,0.3967284858226776,100.0,133988.0,1.0
15:37:28.657229,176812.40625,170824.28125,162240.859375,202914.953125,165488.65625,163370.78125,685995.75,161247.546875,-0.0751953125,1.00244140625,-0.164306640625,-2.288818120956421,0.0,0.3967284858226776,100.0,133989.0,1.0
15:37:28.659214,176798.1875,170827.78125,162246.765625,202900.65625,165491.25,163375.078125,685994.0,161239.59375,-0.072998046875,1.00341796875,-0.164794921875,-2.532958745956421,-0.0610351525247097,0.5493163466453552,100.0,133990.0,1.0
15:37:28.671698,176754.109375,170803.8125,162228.875,202894.21875,165479.359375,163350.765625,686012.875,161250.5,-0.0712890625,1.00439453125,-0.162353515625,-2.563476324081421,-0.0610351525247097,0.4882812201976776,100.0,133991.0,1.0
15:37:28.674787,176739.09375,170798.265625,162223.6875,202917.734375,165476.40625,163340.65625,686032.625,161271.234375,-0.07421875,1.003662109375,-0.160400390625,-2.746581792831421,-0.1525878757238388,0.5187987685203552,100.0,133992.0,1.0
15:37:28.674795,176796.859375,170828.671875,162233.625,202892.515625,165482.75,163369.171875,685989.375,161241.203125,-0.07177734375,1.001953125,-0.163818359375,-2.838134527206421,-0.1831054538488388,0.4272460639476776,100.0,133993.0,1.0
15:37:28.679198,176794.171875,170814.8125,162235.765625,202879.109375,165481.6875,163361.671875,685995.125,161226.0,-0.0693359375,1.000244140625,-0.166259765625,-2.868652105331421,-0.1525878757238388,0.4272460639476776,100.0,133994.0,1.0
15:37:28.681773,176763.140625,170810.703125,162235.765625,202886.078125,165484.1875,163356.03125,685988.375,161233.25,-0.06982421875,1.00146484375,-0.16650390625,-2.929687261581421,-0.0915527269244194,0.4882812201976776,100.0,133995.0,1.0
15:37:28.684151,176741.328125,170809.890625,162226.46875,202897.078125,165479.265625,163350.21875,686042.6875,161242.1875,-0.069580078125,1.000244140625,-0.16455078125,-2.960204839706421,-0.0915527269244194,0.6103515028953552,100.0,133996.0,1.0
15:37:28.686739,176789.171875,170823.390625,162235.671875,202900.109375,165486.421875,163366.140625,685985.625,161249.515625,-0.06884765625,0.9970703125,-0.163330078125,-2.899169683456421,0.0,0.5798339247703552,100.0,133997.0,1.0
15:37:28.694339,176807.671875,170822.5,162240.859375,202889.5625,165488.921875,163369.71875,686002.6875,161238.078125,-0.06884765625,0.998779296875,-0.1630859375,-2.868652105331421,0.0915527269244194,0.7019042372703552,100.0,133998.0,1.0
15:37:28.701069,176761.09375,170812.3125,162231.734375,202875.34375,165479.71875,163359.078125,685983.625,161227.34375,-0.0703125,0.999267578125,-0.16015625,-2.929687261581421,0.03051757626235485,0.7934569716453552,100.0,133999.0,1.0
15:37:28.701139,176737.390625,170794.78125,162219.9375,202897.34375,165474.265625,163342.4375,686064.625,161246.390625,-0.07177734375,1.0,-0.160400390625,-2.929687261581421,0.0610351525247097,0.8239745497703552,100.0,134000.0,1.0
15:37:28.732385,176777.1875,170809.0,162233.890625,202911.921875,165484.71875,163359.078125,685992.75,161255.59375,-0.071533203125,1.000244140625,-0.160888671875,-2.990722417831421,0.03051757626235485,0.8239745497703552,100.0,134001.0,1.0
15:37:28.732460,176821.625,170828.484375,162248.1875,202907.625,165494.375,163377.484375,686020.125,161246.125,-0.071044921875,1.00048828125,-0.157958984375,-3.021239995956421,0.1525878757238388,0.8850097060203552,100.0,134002.0,1.0
15:37:28.734237,176786.03125,170836.8125,162254.359375,202914.421875,165499.390625,163383.21875,685986.5,161267.046875,-0.06982421875,0.999755859375,-0.159912109375,-3.143310308456421,0.1525878757238388,0.8544921278953552,100.0,134003.0,1.0
15:37:28.736721,176755.453125,170820.171875,162235.5,202911.375,165487.3125,163360.5,686041.125,161264.171875,-0.069091796875,0.998779296875,-0.163818359375,-3.204345464706421,0.2136230319738388,0.7629393935203552,100.0,134004.0,1.0
15:37:28.739228,176771.46875,170826.34375,162239.34375,202907.53125,165488.65625,163370.515625,685984.1875,161258.09375,-0.0654296875,0.99658203125,-0.158447265625,-3.265380620956421,0.2746581733226776,0.7629393935203552,100.0,134005.0,1.0
15:37:28.744258,176830.828125,170839.671875,162257.046875,202930.25,165504.65625,163387.6875,686030.4375,161283.484375,-0.065185546875,0.998291015625,-0.158203125,-3.173827886581421,0.3662109076976776,0.7629393935203552,100.0,134006.0,1.0
15:37:28.746799,176799.09375,170847.625,162266.515625,202934.984375,165513.15625,163393.40625,685993.6875,161308.796875,-0.062744140625,0.9990234375,-0.158203125,-3.234863042831421,0.5187987685203552,0.6103515028953552,100.0,134007.0,1.0
15:37:28.773130,176754.03125,170822.046875,162232.640625,202893.859375,165483.828125,163363.984375,686042.1875,161245.046875,-0.065185546875,1.0,-0.157470703125,-3.295898199081421,0.5798339247703552,0.6408690810203552,100.0,134008.0,1.0
15:37:28.796711,176741.515625,170799.171875,162219.40625,202874.09375,165472.65625,163352.1875,686003.3125,161223.234375,-0.064453125,0.99951171875,-0.15966796875,-3.295898199081421,0.7324218153953552,0.5187987685203552,100.0,134009.0,1.0
15:37:28.799196,176812.5,170819.734375,162240.5,202893.328125,165489.734375,163371.234375,686003.5625,161238.78125,-0.06396484375,0.9990234375,-0.1572265625,-3.356933355331421,0.8544921278953552,0.6408690810203552,100.0,134010.0,1.0
15:37:28.801672,176790.234375,170835.734375,162248.546875,202884.640625,165493.03125,163384.109375,685979.4375,161239.5,-0.064208984375,0.996337890625,-0.159423828125,-3.326415777206421,1.0681151151657104,0.7629393935203552,100.0,134011.0,1.0
15:37:28.804171,176765.734375,170813.921875,162244.796875,202917.546875,165494.921875,163366.21875,686011.1875,161266.6875,-0.064697265625,0.99658203125,-0.159912109375,-3.265380620956421,1.0681151151657104,0.6713866591453552,100.0,134012.0,1.0
15:37:28.807217,176752.234375,170809.09375,162234.6875,202913.890625,165487.5,163359.4375,686002.1875,161264.625,-0.0654296875,0.998291015625,-0.1591796875,-3.295898199081421,1.1901854276657104,0.6408690810203552,100.0,134013.0,1.0
15:37:28.807221,176817.953125,170830.28125,162247.390625,202914.15625,165496.171875,163379.90625,685997.25,161258.28125,-0.0634765625,0.998779296875,-0.15673828125,-3.234863042831421,1.3732908964157104,0.6103515028953552,100.0,134014.0,1.0
15:37:28.809182,176814.640625,170855.3125,162263.21875,202907.71875,165508.15625,163402.078125,685991.875,161265.703125,-0.06396484375,0.998779296875,-0.159912109375,-3.204345464706421,1.4038084745407104,0.7629393935203552,100.0,134015.0,1.0
15:37:28.814232,176772.0,170832.78125,162245.234375,202896.546875,165494.375,163377.484375,686026.9375,161256.046875,-0.064697265625,0.9990234375,-0.1611328125,-3.265380620956421,1.5258787870407104,0.7629393935203552,100.0,134016.0,1.0
15:37:28.819274,176763.6875,170823.125,162248.28125,202939.8125,165499.75,163370.25,686049.0,161289.125,-0.06494140625,0.99853515625,-0.159423828125,-3.173827886581421,1.5869139432907104,0.7019042372703552,100.0,134017.0,1.0
15:37:28.821792,176811.875,170833.765625,162248.109375,202914.6875,165495.1875,163377.84375,685999.9375,161251.484375,-0.06640625,1.0,-0.1591796875,-3.143310308456421,1.6174315214157104,0.7324218153953552,100.0,134018.0,1.0
15:37:28.824200,176820.546875,170854.421875,162259.28125,202895.015625,165502.6875,163398.6875,686004.375,161246.921875,-0.06787109375,0.999755859375,-0.16064453125,-3.204345464706421,1.7395018339157104,0.6103515028953552,100.0,134019.0,1.0
15:37:28.826784,176764.9375,170817.21875,162237.375,202870.96875,165485.96875,163365.6875,685995.8125,161239.234375,-0.069580078125,0.997314453125,-0.157958984375,-3.265380620956421,1.8005369901657104,0.6103515028953552,100.0,134020.0,1.0
15:37:28.829209,176740.890625,170800.59375,162225.84375,202895.109375,165478.375,163347.1875,686040.0,161248.0,-0.069580078125,0.995361328125,-0.1552734375,-3.173827886581421,1.8310545682907104,0.7324218153953552,100.0,134021.0,1.0
15:37:28.831825,176808.65625,170829.5625,162256.0625,202949.921875,165503.234375,163375.96875,685993.75,161293.421875,-0.070556640625,0.99462890625,-0.159423828125,-3.173827886581421,1.7700194120407104,0.7934569716453552,100.0,134022.0,1.0
15:37:28.834199,176828.234375,170839.3125,162259.90625,202919.703125,165505.5625,163393.578125,686015.5625,161260.15625,-0.072021484375,0.9921875,-0.1552734375,-3.082275152206421,1.7089842557907104,0.8239745497703552,100.0,134023.0,1.0
15:37:28.836693,176765.5625,170821.0625,162236.921875,202867.484375,165485.890625,163374.1875,685982.25,161231.90625,-0.0732421875,0.996826171875,-0.156494140625,-2.929687261581421,1.6479490995407104,0.7629393935203552,100.0,134024.0,1.0
15:37:28.839254,176743.390625,170804.96875,162225.75,202895.203125,165479.265625,163353.890625,686065.9375,161252.015625,-0.071533203125,0.997802734375,-0.155029296875,-2.960204839706421,1.5563963651657104,0.8239745497703552,100.0,134025.0,1.0
15:37:28.844404,176775.75,170816.421875,162231.5625,202898.0625,165481.6875,163366.578125,685991.9375,161243.53125,-0.07080078125,0.996337890625,-0.15087890625,-2.990722417831421,1.6174315214157104,0.7629393935203552,100.0,134026.0,1.0
15:37:28.847373,176832.796875,170848.609375,162255.515625,202912.8125,165499.75,163394.75,686029.4375,161252.015625,-0.07421875,0.993896484375,-0.15478515625,-3.112792730331421,1.5563963651657104,0.7629393935203552,100.0,134027.0,1.0
15:37:28.847392,176798.28125,170848.34375,162263.21875,202919.96875,165506.984375,163395.109375,685989.3125,161273.203125,-0.07421875,0.994140625,-0.15380859375,-3.082275152206421,1.5563963651657104,0.7019042372703552,100.0,134028.0,1.0
15:37:28.849858,176764.84375,170812.390625,162240.953125,202922.28125,165490.796875,163359.15625,686043.3125,161264.625,-0.07373046875,0.99658203125,-0.15625,-3.112792730331421,1.4343260526657104,0.8239745497703552,100.0,134029.0,1.0
15:37:28.849870,176755.71875,170804.265625,162223.6875,202877.9375,165474.078125,163353.0,685990.8125,161232.796875,-0.07421875,0.994873046875,-0.1552734375,-3.112792730331421,1.3427733182907104,0.8850097060203552,100.0,134030.0,1.0
15:37:28.851712,176826.890625,170832.421875,162248.90625,202900.109375,165493.125,163377.9375,686018.9375,161242.1875,-0.076171875,0.99658203125,-0.15380859375,-3.021239995956421,1.2817381620407104,0.9155272841453552,100.0,134031.0,1.0
15:37:28.854746,176807.5,170858.703125,162265.890625,202901.640625,165505.734375,163399.390625,685985.875,161252.109375,-0.076416015625,0.998046875,-0.156494140625,-3.082275152206421,1.2207030057907104,0.7629393935203552,100.0,134032.0,1.0
15:37:28.854750,176785.140625,170849.5,162260.796875,202940.34375,165505.46875,163385.265625,686038.8125,161286.53125,-0.075439453125,0.996826171875,-0.15869140625,-3.143310308456421,1.2207030057907104,0.8544921278953552,100.0,134033.0,1.0
15:37:28.859772,176759.390625,170814.71875,162233.34375,202908.515625,165481.5,163359.078125,685991.5,161257.03125,-0.07470703125,0.99462890625,-0.155517578125,-3.143310308456421,1.1596678495407104,0.8239745497703552,100.0,134034.0,1.0
15:37:28.859782,176815.09375,170815.53125,162235.3125,202882.234375,165481.0625,163365.25,686000.625,161232.796875,-0.074951171875,0.9951171875,-0.15380859375,-3.112792730331421,1.0375975370407104,0.7324218153953552,100.0,134035.0,1.0
15:37:28.861776,176803.296875,170838.421875,162252.484375,202889.296875,165492.0625,163383.390625,685979.375,161246.828125,-0.072265625,0.995361328125,-0.15673828125,-3.021239995956421,0.9155272841453552,0.8239745497703552,100.0,134036.0,1.0
15:37:28.867360,176766.453125,170818.390625,162237.546875,202897.796875,165483.03125,163362.03125,686046.0,161252.5625,-0.072265625,0.99658203125,-0.1552734375,-3.112792730331421,0.8239745497703552,0.7934569716453552,100.0,134037.0,1.0
15:37:28.867368,176765.03125,170825.984375,162243.625,202920.859375,165490.359375,163369.171875,686037.75,161265.875,-0.071533203125,0.9970703125,-0.1533203125,-3.051757574081421,0.7934569716453552,0.8239745497703552,100.0,134038.0,1.0
15:37:28.869240,176829.125,170834.5625,162257.125,202944.734375,165501.625,163380.703125,686005.8125,161283.484375,-0.072265625,0.996826171875,-0.15380859375,-3.051757574081421,0.8544921278953552,0.8544921278953552,100.0,134039.0,1.0
15:37:28.874827,176818.40625,170842.96875,162263.75,202931.765625,165503.046875,163388.84375,686003.3125,161268.375,-0.072265625,0.995849609375,-0.158447265625,-3.082275152206421,0.7629393935203552,0.7934569716453552,100.0,134040.0,1.0
15:37:28.874837,176777.546875,170829.828125,162250.96875,202910.84375,165494.015625,163374.625,686016.1875,161261.046875,-0.0732421875,0.9951171875,-0.15576171875,-2.960204839706421,0.7324218153953552,0.7934569716453552,100.0,134041.0,1.0
15:37:28.876660,176756.53125,170811.859375,162238.0,202898.953125,165484.1875,163356.84375,686046.75,161254.875,-0.072998046875,0.99560546875,-0.154541015625,-2.899169683456421,0.5493163466453552,0.8850097060203552,100.0,134042.0,1.0
15:37:28.879884,176825.90625,170834.296875,162257.9375,202925.421875,165498.5,163378.46875,686004.0625,161266.5,-0.0732421875,0.997802734375,-0.156982421875,-2.929687261581421,0.5798339247703552,0.8850097060203552,100.0,134043.0,1.0
15:37:28.879894,176823.234375,170847.4375,162258.390625,202906.734375,165496.890625,163391.171875,686001.8125,161254.96875,-0.0712890625,0.996826171875,-0.154052734375,-2.899169683456421,0.6408690810203552,0.9765624403953552,100.0,134044.0,1.0
15:37:28.881845,176778.609375,170830.453125,162246.9375,202886.609375,165488.5625,163377.578125,685999.5,161244.59375,-0.07080078125,0.998779296875,-0.1533203125,-2.868652105331421,0.5798339247703552,0.9765624403953552,100.0,134045.0,1.0
15:37:28.884180,176760.203125,170815.53125,162240.859375,202909.5,165487.9375,163363.09375,686069.0625,161262.75,-0.069580078125,1.00048828125,-0.154052734375,-2.868652105331421,0.5187987685203552,0.8544921278953552,100.0,134046.0,1.0
15:37:28.894842,176803.46875,170837.515625,162250.421875,202906.90625,165493.3125,163382.40625,686002.1875,161260.328125,-0.0693359375,1.000732421875,-0.154052734375,-2.807616949081421,0.5493163466453552,0.9460448622703552,100.0,134047.0,1.0
15:37:28.894856,176834.140625,170850.125,162261.421875,202905.65625,165498.84375,163392.78125,686013.0,161250.3125,-0.068603515625,0.9990234375,-0.152587890625,-2.838134527206421,0.5187987685203552,0.7629393935203552,100.0,134048.0,1.0
15:37:28.897310,176795.515625,170838.234375,162260.984375,202918.171875,165497.953125,163384.46875,685976.3125,161258.09375,-0.06787109375,0.99853515625,-0.155517578125,-2.929687261581421,0.4882812201976776,0.7324218153953552,100.0,134049.0,1.0
15:37:28.897318,176769.765625,170819.109375,162250.25,202940.703125,165494.5625,163365.78125,686037.5625,161285.09375,-0.069091796875,0.99755859375,-0.156005859375,-2.838134527206421,0.4272460639476776,0.8544921278953552,100.0,134050.0,1.0
15:37:28.912917,176788.359375,170821.421875,162244.703125,202913.265625,165486.0625,163369.4375,685986.1875,161259.34375,-0.069580078125,0.993896484375,-0.155517578125,-2.807616949081421,0.4882812201976776,0.8544921278953552,100.0,134051.0,1.0
15:37:28.919054,176841.5625,170847.984375,162261.25,202919.96875,165496.796875,163391.171875,686004.375,161252.46875,-0.070068359375,0.99658203125,-0.1533203125,-2.807616949081421,0.5798339247703552,0.8544921278953552,100.0,134052.0,1.0
15:37:28.919061,176788.359375,170837.25,162253.90625,202895.734375,165491.703125,163381.96875,685983.9375,161248.4375,-0.068603515625,0.99755859375,-0.155029296875,-2.929687261581421,0.4577636420726776,0.7629393935203552,100.0,134053.0,1.0
15:37:28.919062,176754.921875,170808.546875,162235.140625,202905.03125,165481.78125,163351.109375,686067.4375,161267.671875,-0.069580078125,0.99609375,-0.151123046875,-2.899169683456421,0.5493163466453552,0.7324218153953552,100.0,134054.0,1.0
15:37:28.922293,176763.5,170806.046875,162232.640625,202900.828125,165476.59375,163351.296875,685984.8125,161253.0,-0.06884765625,0.99658203125,-0.14990234375,-2.838134527206421,0.6103515028953552,0.6713866591453552,100.0,134055.0,1.0
15:37:28.922298,176831.625,170822.40625,162252.125,202918.625,165490.890625,163370.96875,685999.9375,161247.453125,-0.069580078125,0.997314453125,-0.15283203125,-2.868652105331421,0.5493163466453552,0.6713866591453552,100.0,134056.0,1.0
15:37:28.924179,176790.0625,170831.796875,162250.515625,202880.453125,165487.859375,163378.65625,685970.0,161239.5,-0.068603515625,0.996826171875,-0.15283203125,-2.777099370956421,0.5493163466453552,0.5187987685203552,100.0,134057.0,1.0
15:37:28.931727,176769.140625,170823.578125,162245.421875,202901.8125,165486.25,163366.40625,686052.5,161248.078125,-0.069091796875,0.995361328125,-0.15283203125,-2.838134527206421,0.6103515028953552,0.6103515028953552,100.0,134058.0,1.0
15:37:28.937921,176767.796875,170820.890625,162244.4375,202906.375,165486.15625,163366.671875,686003.125,161259.265625,-0.07080078125,0.99365234375,-0.15087890625,-2.777099370956421,0.4882812201976776,0.5187987685203552,100.0,134059.0,1.0
15:37:28.944927,176838.875,170842.265625,162265.71875,202936.328125,165504.484375,163390.90625,686000.0,161281.875,-0.071533203125,0.99462890625,-0.148681640625,-2.746581792831421,0.4882812201976776,0.4882812201976776,100.0,134060.0,1.0
15:37:28.944935,176799.265625,170838.6875,162256.15625,202894.65625,165492.234375,163389.109375,685985.625,161237.265625,-0.072998046875,0.994873046875,-0.150390625,-2.685546636581421,0.5187987685203552,0.4272460639476776,100.0,134061.0,1.0
15:37:28.947342,176786.578125,170836.53125,162264.1875,202937.671875,165503.40625,163385.09375,686041.9375,161275.078125,-0.075439453125,0.995849609375,-0.150146484375,-2.624511480331421,0.4272460639476776,0.3967284858226776,100.0,134062.0,1.0
15:37:28.947346,176749.5625,170806.9375,162236.125,202900.390625,165479.359375,163356.21875,686028.375,161258.546875,-0.0751953125,0.99560546875,-0.149658203125,-2.624511480331421,0.3051757514476776,0.3051757514476776,100.0,134063.0,1.0
15:37:28.960558,176811.15625,170823.484375,162247.390625,202906.28125,165488.03125,163371.40625,686001.625,161251.03125,-0.07666015625,0.996826171875,-0.152099609375,-2.593993902206421,0.1831054538488388,0.2441406100988388,100.0,134064.0,1.0
15:37:28.964832,176819.203125,170856.390625,162270.359375,202908.4375,165506.0,163398.859375,685995.8125,161257.921875,-0.075927734375,0.998046875,-0.151123046875,-2.685546636581421,0.0915527269244194,0.2441406100988388,100.0,134065.0,1.0
15:37:28.964840,176775.125,170827.78125,162255.875,202913.265625,165497.515625,163377.3125,686020.9375,161264.53125,-0.074951171875,0.9990234375,-0.1494140625,-2.685546636581421,-0.03051757626235485,0.3967284858226776,100.0,134066.0,1.0
15:37:28.972442,176745.890625,170814.1875,162239.15625,202902.171875,165485.265625,163364.078125,686053.0625,161254.609375,-0.074951171875,0.999267578125,-0.1494140625,-2.655029058456421,-0.1525878757238388,0.3051757514476776,100.0,134067.0,1.0
15:37:28.972462,176804.09375,170833.046875,162252.578125,202910.671875,165494.46875,163383.578125,686001.1875,161258.09375,-0.074951171875,1.0,-0.15234375,-2.746581792831421,-0.0915527269244194,0.2746581733226776,100.0,134068.0,1.0
15:37:28.979800,176825.015625,170850.65625,162271.703125,202920.234375,165507.875,163402.703125,686010.3125,161266.765625,-0.074462890625,1.000732421875,-0.15087890625,-2.777099370956421,-0.1525878757238388,0.3051757514476776,100.0,134069.0,1.0
15:37:28.979805,176783.53125,170844.140625,162263.921875,202900.5625,165503.40625,163391.53125,686003.4375,161267.671875,-0.07666015625,1.000244140625,-0.152587890625,-2.746581792831421,-0.2746581733226776,0.3967284858226776,100.0,134070.0,1.0
15:37:28.986017,176747.59375,170816.59375,162239.703125,202903.328125,165484.8125,163363.8125,686062.5,161258.28125,-0.076904296875,1.001220703125,-0.15380859375,-2.838134527206421,-0.3662109076976776,0.3356933295726776,100.0,134071.0,1.0
15:37:28.986027,176801.140625,170826.875,162259.640625,202953.140625,165500.015625,163376.953125,685996.375,161291.71875,-0.07763671875,1.001220703125,-0.151123046875,-2.838134527206421,-0.4882812201976776,0.3662109076976776,100.0,134072.0,1.0
15:37:28.987890,176835.03125,170849.859375,162271.703125,202920.671875,165507.609375,163398.765625,686016.9375,161264.53125,-0.0751953125,1.000244140625,-0.14697265625,-2.868652105331421,-0.5798339247703552,0.3662109076976776,100.0,134073.0,1.0
15:37:28.997984,176782.453125,170839.21875,162258.390625,202893.953125,165496.078125,163385.71875,685988.5625,161250.5,-0.075927734375,1.0,-0.147705078125,-2.868652105331421,-0.6713866591453552,0.4882812201976776,100.0,134074.0,1.0
15:37:29.002261,176748.125,170811.953125,162238.453125,202899.484375,165483.203125,163357.734375,686058.5625,161258.09375,-0.0751953125,0.998779296875,-0.145263671875,-2.868652105331421,-0.7324218153953552,0.5798339247703552,100.0,134075.0,1.0
15:37:29.002270,176771.375,170816.6875,162241.3125,202896.453125,165485.265625,163365.953125,685981.625,161256.75,-0.07177734375,0.99853515625,-0.148681640625,-2.868652105331421,-0.7019042372703552,0.4882812201976776,100.0,134076.0,1.0
15:37:29.011669,176831.0,170844.046875,162265.53125,202913.078125,165503.40625,163392.328125,685996.625,161257.828125,-0.07080078125,0.99853515625,-0.147705078125,-2.838134527206421,-0.7324218153953552,0.4577636420726776,100.0,134077.0,1.0
15:37:29.019114,176804.625,170854.421875,162278.671875,202934.453125,165513.421875,163402.703125,685991.6875,161277.671875,-0.07080078125,0.998779296875,-0.14697265625,-2.868652105331421,-0.7324218153953552,0.5798339247703552,100.0,134078.0,1.0
15:37:29.019125,176754.203125,170818.296875,162241.3125,202902.265625,165483.921875,163363.984375,686066.625,161252.46875,-0.069091796875,0.997802734375,-0.15087890625,-2.899169683456421,-0.7019042372703552,0.4882812201976776,100.0,134079.0,1.0
15:37:29.019128,176767.078125,170823.75,162245.78125,202918.53125,165486.78125,163371.234375,685997.625,161263.90625,-0.06982421875,1.0,-0.150146484375,-2.990722417831421,-0.8544921278953552,0.5187987685203552,100.0,134080.0,1.0
15:37:29.026251,176827.78125,170839.21875,162258.5625,202912.984375,165496.171875,163387.859375,686019.875,161263.375,-0.072021484375,0.999755859375,-0.1484375,-3.082275152206421,-0.8544921278953552,0.4882812201976776,100.0,134081.0,1.0
15:37:29.026262,176790.234375,170841.8125,162256.59375,202886.609375,165493.21875,163390.453125,685985.4375,161248.703125,-0.072021484375,0.998291015625,-0.151611328125,-3.234863042831421,-0.7324218153953552,0.3967284858226776,100.0,134082.0,1.0
15:37:29.027950,176773.34375,170830.90625,162258.734375,202940.703125,165501.171875,163377.671875,686028.875,161287.78125,-0.070068359375,1.00146484375,-0.152587890625,-3.234863042831421,-0.7324218153953552,0.3967284858226776,100.0,134083.0,1.0
15:37:29.039225,176762.96875,170824.46875,162250.515625,202927.75,165493.75,163371.234375,685994.75,161280.8125,-0.072265625,1.004150390625,-0.14794921875,-3.326415777206421,-0.7629393935203552,0.4272460639476776,100.0,134084.0,1.0
15:37:29.043501,176826.890625,170839.21875,162257.484375,202908.78125,165495.8125,163385.0,686008.25,161264.53125,-0.072998046875,1.00244140625,-0.150146484375,-3.295898199081421,-0.8544921278953552,0.4577636420726776,100.0,134085.0,1.0
15:37:29.043506,176809.28125,170855.9375,162268.484375,202892.0625,165502.6875,163402.609375,685993.75,161257.203125,-0.071044921875,1.0009765625,-0.14990234375,-3.326415777206421,-0.8850097060203552,0.3967284858226776,100.0,134086.0,1.0
15:37:29.049814,176779.6875,170836.453125,162259.71875,202912.0,165498.046875,163380.796875,686018.0625,161267.3125,-0.06982421875,1.001708984375,-0.14990234375,-3.326415777206421,-0.8239745497703552,0.3662109076976776,100.0,134087.0,1.0
15:37:29.049823,176763.140625,170824.46875,162252.296875,202932.921875,165492.40625,163368.734375,686008.875,161282.0625,-0.070068359375,1.000732421875,-0.150390625,-3.448486089706421,-0.8850097060203552,0.2746581733226776,100.0,134088.0,1.0
15:37:29.051711,176822.953125,170837.875,162259.71875,202924.25,165497.78125,163383.125,685986.8125,161272.21875,-0.070068359375,1.00146484375,-0.151611328125,-3.356933355331421,-0.8850097060203552,0.2441406100988388,100.0,134089.0,1.0
15:37:29.065504,176810.625,170848.34375,162261.953125,202894.03125,165495.71875,163393.765625,685982.5625,161244.421875,-0.071533203125,1.00146484375,-0.15283203125,-3.356933355331421,-0.8544921278953552,0.3051757514476776,100.0,134090.0,1.0
15:37:29.072911,176781.125,170840.921875,162259.8125,202911.734375,165496.703125,163383.484375,686038.4375,161261.140625,-0.069580078125,1.0,-0.152587890625,-3.326415777206421,-0.8239745497703552,0.3356933295726776,100.0,134091.0,1.0
15:37:29.072917,176761.09375,170828.046875,162252.03125,202936.421875,165494.828125,163370.96875,686074.75,161283.765625,-0.069091796875,1.000244140625,-0.15185546875,-3.387450933456421,-0.8850097060203552,0.2441406100988388,100.0,134092.0,1.0
15:37:29.072919,176818.484375,170845.203125,162265.171875,202926.9375,165505.734375,163391.078125,686009.6875,161280.71875,-0.070068359375,0.99853515625,-0.15087890625,-3.448486089706421,-0.8544921278953552,0.03051757626235485,100.0,134093.0,1.0
15:37:29.076277,176836.640625,170857.1875,162279.3125,202936.421875,165514.140625,163402.96875,686014.3125,161286.078125,-0.072265625,0.999267578125,-0.152099609375,-3.540038824081421,-0.8544921278953552,-0.03051757626235485,100.0,134094.0,1.0
15:37:29.076286,176791.046875,170849.59375,162268.390625,202903.6875,165506.984375,163393.3125,686003.4375,161268.734375,-0.0732421875,0.99951171875,-0.151611328125,-3.601073980331421,-0.8544921278953552,-0.03051757626235485,100.0,134095.0,1.0
15:37:29.088002,176756.171875,170825.359375,162245.859375,202897.171875,165491.34375,163368.640625,686056.5,161256.40625,-0.0751953125,1.00146484375,-0.1494140625,-3.631591558456421,-0.8850097060203552,-0.1220703050494194,100.0,134096.0,1.0
15:37:29.092469,176797.921875,170836.453125,162257.046875,202915.578125,165498.21875,163381.609375,686001.0625,161265.15625,-0.072509765625,1.001220703125,-0.150634765625,-3.540038824081421,-0.8850097060203552,-0.1525878757238388,100.0,134097.0,1.0
15:37:29.092494,176841.28125,170861.03125,162278.40625,202922.640625,165514.234375,163406.734375,686032.1875,161270.609375,-0.072509765625,1.0029296875,-0.150390625,-3.601073980331421,-0.8850097060203552,-0.1831054538488388,100.0,134098.0,1.0
15:37:29.099369,176808.65625,170867.375,162283.0625,202920.859375,165519.6875,163411.46875,685985.25,161283.21875,-0.072265625,1.0029296875,-0.148193359375,-3.540038824081421,-0.9765624403953552,-0.1831054538488388,100.0,134099.0,1.0
15:37:29.099386,176778.53125,170840.46875,162264.546875,202939.8125,165508.0625,163382.859375,686040.3125,161289.84375,-0.0703125,1.004638671875,-0.14990234375,-3.662109136581421,-0.9155272841453552,-0.03051757626235485,100.0,134100.0,1.0
15:37:29.104234,176803.109375,170849.328125,162270.625,202938.734375,165512.078125,163394.203125,685998.6875,161293.859375,-0.06982421875,1.004150390625,-0.14697265625,-3.692626714706421,-0.8850097060203552,0.0610351525247097,100.0,134101.0,1.0
15:37:29.111050,176841.109375,170857.546875,162270.359375,202906.734375,165507.609375,163402.796875,686036.125,161253.625,-0.067138671875,1.001953125,-0.146240234375,-3.784179449081421,-0.9155272841453552,0.1220703050494194,100.0,134102.0,1.0
15:37:29.111115,176802.84375,170860.9375,162274.203125,202900.390625,165508.5,163405.46875,685985.25,161259.0,-0.06787109375,1.001708984375,-0.1484375,-3.692626714706421,-0.9155272841453552,0.2746581733226776,100.0,134103.0,1.0
15:37:29.136037,176772.0,170832.515625,162256.421875,202911.734375,165498.84375,163377.9375,686072.4375,161268.015625,-0.06640625,1.001708984375,-0.146728515625,-3.692626714706421,-0.8239745497703552,0.3051757514476776,100.0,134104.0,1.0
15:37:29.136047,176785.234375,170836.453125,162261.953125,202929.890625,165502.0625,163381.6875,686012.25,161278.84375,-0.068603515625,1.002197265625,-0.148193359375,-3.631591558456421,-0.7324218153953552,0.3662109076976776,100.0,134105.0,1.0
15:37:29.169075,176859.890625,170862.46875,162291.375,202970.125,165525.9375,163406.734375,686027.3125,161315.40625,-0.06982421875,0.999755859375,-0.14453125,-3.601073980331421,-0.7019042372703552,0.5493163466453552,100.0,134106.0,1.0
15:37:29.169089,176827.4375,170870.25,162293.4375,202935.96875,165526.125,163415.3125,685995.375,161294.3125,-0.0693359375,1.000732421875,-0.146484375,-3.662109136581421,-0.7019042372703552,0.6103515028953552,100.0,134107.0,1.0
15:37:29.169090,176778.078125,170834.75,162258.734375,202894.03125,165499.828125,163380.890625,686045.5,161256.578125,-0.068115234375,0.998046875,-0.143310546875,-3.784179449081421,-0.5798339247703552,0.6103515028953552,100.0,134108.0,1.0
15:37:29.171722,176763.5,170825.546875,162249.359375,202898.78125,165491.515625,163373.46875,686014.0625,161258.359375,-0.0673828125,0.998779296875,-0.14453125,-3.784179449081421,-0.4882812201976776,0.6103515028953552,100.0,134109.0,1.0
15:37:29.174171,176840.21875,170849.234375,162271.34375,202928.90625,165508.234375,163396.53125,686024.75,161271.875,-0.068359375,0.9970703125,-0.14453125,-3.875732183456421,-0.3967284858226776,0.6103515028953552,100.0,134110.0,1.0
15:37:29.176686,176823.671875,170865.0625,162281.09375,202913.078125,165513.609375,163412.359375,686009.3125,161270.796875,-0.067626953125,0.996826171875,-0.14697265625,-3.845214605331421,-0.3356933295726776,0.6408690810203552,100.0,134111.0,1.0
15:37:29.179161,176781.828125,170841.359375,162261.515625,202903.78125,165500.453125,163387.6875,686036.3125,161271.421875,-0.06787109375,0.997802734375,-0.14404296875,-3.692626714706421,-0.2746581733226776,0.7019042372703552,100.0,134112.0,1.0
15:37:29.181831,176769.046875,170835.109375,162257.578125,202924.796875,165497.953125,163381.328125,686042.6875,161281.96875,-0.06591796875,0.996826171875,-0.14794921875,-3.601073980331421,-0.2441406100988388,0.7324218153953552,100.0,134113.0,1.0
15:37:29.184165,176832.4375,170850.484375,162268.578125,202924.4375,165504.9375,163398.046875,686024.9375,161270.96875,-0.068359375,0.994873046875,-0.14453125,-3.662109136581421,-0.1831054538488388,0.6713866591453552,100.0,134114.0,1.0
15:37:29.186827,176823.9375,170863.265625,162275.109375,202906.546875,165507.96875,163410.84375,686025.875,161262.84375,-0.0673828125,0.994384765625,-0.145751953125,-3.601073980331421,-0.1525878757238388,0.6408690810203552,100.0,134115.0,1.0
15:37:29.189190,176779.328125,170842.4375,162260.34375,202892.515625,165498.765625,163391.96875,686001.25,161262.390625,-0.06787109375,0.99462890625,-0.146728515625,-3.509521245956421,-0.0915527269244194,0.6713866591453552,100.0,134116.0,1.0
15:37:29.191661,176754.75,170824.90625,162247.75,202910.3125,165490.625,163375.4375,686038.8125,161268.109375,-0.067138671875,0.992431640625,-0.146484375,-3.417968511581421,0.0,0.6408690810203552,100.0,134117.0,1.0
15:37:29.194161,176811.421875,170840.109375,162261.78125,202922.375,165500.453125,163393.046875,686006.8125,161272.671875,-0.068115234375,0.9931640625,-0.145263671875,-3.326415777206421,0.1831054538488388,0.5187987685203552,100.0,134118.0,1.0
15:37:29.196649,176836.109375,170857.375,162280.640625,202933.828125,165515.03125,163410.578125,686021.9375,161284.03125,-0.06640625,0.9931640625,-0.14306640625,-3.173827886581421,0.1220703050494194,0.4272460639476776,100.0,134119.0,1.0
15:37:29.199144,176785.859375,170844.859375,162263.484375,202886.96875,165500.1875,163397.15625,686002.6875,161254.96875,-0.0673828125,0.99462890625,-0.14306640625,-3.143310308456421,0.2746581733226776,0.4882812201976776,100.0,134120.0,1.0
15:37:29.202325,176765.296875,170829.390625,162250.609375,202904.046875,165493.84375,163379.640625,686074.6875,161268.015625,-0.06494140625,0.994873046875,-0.14404296875,-3.173827886581421,0.3356933295726776,0.3967284858226776,100.0,134121.0,1.0
15:37:29.202331,176805.53125,170836.53125,162254.8125,202906.640625,165495.8125,163388.75,686000.1875,161263.46875,-0.065185546875,0.994873046875,-0.1416015625,-3.051757574081421,0.3356933295726776,0.4272460639476776,100.0,134122.0,1.0
15:37:29.217514,176835.921875,170845.203125,162262.3125,202897.4375,165499.828125,163398.6875,686014.4375,161254.078125,-0.06494140625,0.99462890625,-0.143310546875,-2.899169683456421,0.4272460639476776,0.4882812201976776,100.0,134123.0,1.0
15:37:29.217537,176803.921875,170849.234375,162269.015625,202907.0,165506.265625,163400.921875,685990.1875,161268.203125,-0.06787109375,0.9951171875,-0.142578125,-2.807616949081421,0.3967284858226776,0.3662109076976776,100.0,134124.0,1.0
15:37:29.217544,176777.1875,170825.09375,162252.484375,202932.03125,165497.59375,163375.875,686062.75,161284.828125,-0.068603515625,0.993896484375,-0.142578125,-2.807616949081421,0.5798339247703552,0.3356933295726776,100.0,134125.0,1.0
15:37:29.217549,176788.53125,170826.4375,162245.59375,202898.5,165489.546875,163379.546875,685988.5625,161257.390625,-0.068603515625,0.99609375,-0.142822265625,-2.685546636581421,0.6103515028953552,0.3356933295726776,100.0,134126.0,1.0
15:37:29.217554,176842.546875,170845.390625,162261.78125,202893.328125,165503.40625,163400.921875,686013.1875,161260.609375,-0.070556640625,0.993896484375,-0.14404296875,-2.593993902206421,0.6103515028953552,0.3662109076976776,100.0,134127.0,1.0
15:37:29.217558,176803.015625,170847.265625,162262.59375,202882.234375,165503.671875,163402.875,685990.1875,161257.03125,-0.071044921875,0.996337890625,-0.143798828125,-2.532958745956421,0.4577636420726776,0.3662109076976776,100.0,134128.0,1.0
15:37:29.218570,176779.515625,170828.671875,162251.765625,202903.6875,165499.296875,163382.140625,686078.8125,161269.546875,-0.072021484375,0.994384765625,-0.14404296875,-2.441406011581421,0.4882812201976776,0.3356933295726776,100.0,134129.0,1.0
15:37:29.218584,176789.96875,170830.546875,162255.96875,202917.734375,165501.53125,163386.4375,686019.125,161277.140625,-0.072021484375,0.9951171875,-0.144287109375,-2.349853277206421,0.4577636420726776,0.3051757514476776,100.0,134130.0,1.0
15:37:29.233504,176855.328125,170849.328125,162272.421875,202926.671875,165513.15625,163404.84375,686010.75,161281.609375,-0.072265625,0.99560546875,-0.145263671875,-2.197265386581421,0.4882812201976776,0.3356933295726776,100.0,134131.0,1.0
15:37:29.233515,176816.96875,170851.203125,162268.046875,202891.4375,165504.84375,163404.140625,685988.5625,161255.859375,-0.072998046875,0.997802734375,-0.139892578125,-2.105712652206421,0.3356933295726776,0.3356933295726776,100.0,134132.0,1.0
15:37:29.235971,176782.015625,170826.34375,162250.875,202897.609375,165494.296875,163376.859375,686063.375,161265.78125,-0.074462890625,0.998779296875,-0.140625,-2.014159917831421,0.3662109076976776,0.2746581733226776,100.0,134133.0,1.0
15:37:29.235981,176774.5,170821.15625,162245.953125,202903.875,165490.265625,163372.390625,686029.8125,161266.59375,-0.075439453125,0.999755859375,-0.1396484375,-2.014159917831421,0.3051757514476776,0.3051757514476776,100.0,134134.0,1.0
15:37:29.238034,176843.25,170840.296875,162263.125,202916.828125,165502.515625,163393.578125,686033.125,161265.96875,-0.07373046875,0.999267578125,-0.139404296875,-1.9226073026657104,0.3051757514476776,0.2441406100988388,100.0,134135.0,1.0
15:37:29.251101,176824.390625,170852.8125,162269.296875,202894.296875,165506.0,163405.75,686007.0625,161259.53125,-0.075439453125,0.997802734375,-0.14111328125,-1.9226073026657104,0.0915527269244194,0.0915527269244194,100.0,134136.0,1.0
15:37:29.251173,176791.9375,170835.109375,162260.265625,202904.671875,165502.609375,163386.4375,686020.0625,161273.46875,-0.075927734375,0.994873046875,-0.141845703125,-1.8005369901657104,0.0610351525247097,0.1831054538488388,100.0,134137.0,1.0
15:37:29.253581,176770.203125,170818.390625,162249.0,202909.859375,165493.9375,163370.609375,686033.5625,161272.21875,-0.0771484375,0.9951171875,-0.140869140625,-1.7395018339157104,-0.1831054538488388,0.3356933295726776,100.0,134138.0,1.0
15:37:29.253632,176832.703125,170835.90625,162259.28125,202911.203125,165500.015625,163388.21875,686004.8125,161267.9375,-0.07568359375,0.996826171875,-0.142822265625,-1.6784666776657104,-0.2441406100988388,0.3051757514476776,100.0,134139.0,1.0
15:37:29.259220,176836.015625,170849.953125,162271.96875,202907.09375,165508.6875,163403.234375,686004.0625,161273.5625,-0.074951171875,0.995361328125,-0.14013671875,-1.5869139432907104,-0.3356933295726776,0.2746581733226776,100.0,134140.0,1.0
15:37:29.270274,176801.328125,170842.265625,162265.453125,202902.265625,165504.65625,163392.6875,686003.5625,161268.65625,-0.07421875,0.99609375,-0.14208984375,-1.6174315214157104,-0.4882812201976776,0.3356933295726776,100.0,134141.0,1.0
15:37:29.270323,176770.296875,170817.140625,162245.59375,202902.0,165488.84375,163367.828125,686040.9375,161259.703125,-0.07470703125,0.99658203125,-0.1435546875,-1.5869139432907104,-0.4577636420726776,0.3356933295726776,100.0,134142.0,1.0
15:37:29.272331,176822.25,170829.390625,162255.515625,202912.1875,165495.8125,163380.703125,686001.6875,161267.21875,-0.07421875,0.996337890625,-0.141845703125,-1.4343260526657104,-0.6408690810203552,0.2746581733226776,100.0,134143.0,1.0
15:37:29.272342,176836.109375,170842.796875,162263.921875,202898.78125,165499.46875,163394.203125,686015.5,161259.4375,-0.074462890625,0.99560546875,-0.140869140625,-1.4038084745407104,-0.7324218153953552,0.2136230319738388,100.0,134144.0,1.0
15:37:29.279222,176795.875,170837.078125,162260.0,202890.453125,165497.515625,163387.6875,685997.6875,161260.515625,-0.0732421875,0.998291015625,-0.138671875,-1.3732908964157104,-0.7324218153953552,0.2746581733226776,100.0,134145.0,1.0
15:37:29.289852,176772.09375,170819.015625,162248.734375,202904.59375,165491.78125,163369.625,686075.75,161274.8125,-0.07275390625,0.99951171875,-0.141845703125,-1.3122557401657104,-0.7934569716453552,0.4577636420726776,100.0,134146.0,1.0
15:37:29.289869,176806.328125,170824.90625,162252.9375,202902.53125,165492.140625,163377.140625,686008.0,161265.15625,-0.072998046875,0.998779296875,-0.142333984375,-1.3427733182907104,-1.0070799589157104,0.4577636420726776,100.0,134147.0,1.0
15:37:29.292305,176845.484375,170842.703125,162266.15625,202902.890625,165500.375,163394.65625,686033.4375,161261.234375,-0.072265625,0.99951171875,-0.14306640625,-1.1901854276657104,-1.0681151151657104,0.3662109076976776,100.0,134148.0,1.0
15:37:29.292310,176801.859375,170838.234375,162263.484375,202891.265625,165498.3125,163390.28125,685988.5625,161261.859375,-0.07275390625,0.9990234375,-0.145751953125,-1.1901854276657104,-1.1901854276657104,0.3356933295726776,100.0,134149.0,1.0
15:37:29.304223,176778.53125,170818.828125,162252.03125,202908.78125,165493.9375,163369.53125,686059.9375,161277.140625,-0.07373046875,0.999267578125,-0.14306640625,-1.1901854276657104,-1.1596678495407104,0.1831054538488388,100.0,134150.0,1.0
15:37:29.311594,176795.25,170824.828125,162253.90625,202901.28125,165494.46875,163377.140625,685993.0625,161267.578125,-0.0771484375,0.998046875,-0.142333984375,-1.1596678495407104,-1.2817381620407104,0.1220703050494194,100.0,134151.0,1.0
15:37:29.311608,176853.171875,170843.25,162271.96875,202916.296875,165507.875,163397.15625,686013.0625,161276.34375,-0.076904296875,0.99755859375,-0.14111328125,-1.1901854276657104,-1.4343260526657104,0.0,100.0,134152.0,1.0
15:37:29.311612,176815.984375,170850.84375,162273.9375,202898.0625,165508.6875,163403.421875,685991.25,161270.703125,-0.077392578125,0.99755859375,-0.139404296875,-1.1291502714157104,-1.4343260526657104,-0.0610351525247097,100.0,134153.0,1.0
15:37:29.314481,176788.265625,170831.890625,162259.90625,202906.828125,165500.1875,163380.4375,686059.625,161277.859375,-0.075439453125,0.99609375,-0.14208984375,-1.2512205839157104,-1.6174315214157104,-0.1831054538488388,100.0,134154.0,1.0
15:37:29.316665,176783.625,170819.453125,162250.34375,202904.9375,165488.75,163372.21875,686003.875,161267.75,-0.076171875,0.99755859375,-0.14306640625,-1.2512205839157104,-1.7395018339157104,-0.1525878757238388,100.0,134155.0,1.0
15:37:29.329243,176846.109375,170833.765625,162261.953125,202904.9375,165495.984375,163387.328125,686016.9375,161262.5625,-0.073486328125,1.0,-0.142578125,-1.1901854276657104,-1.7700194120407104,-0.2136230319738388,100.0,134156.0,1.0
15:37:29.334205,176825.28125,170851.640625,162275.640625,202893.859375,165506.546875,163403.59375,685999.5,161267.390625,-0.0751953125,1.00048828125,-0.141845703125,-1.0986326932907104,-1.8310545682907104,-0.3662109076976776,100.0,134157.0,1.0
15:37:29.334273,176791.125,170829.5625,162258.828125,202901.546875,165495.1875,163379.375,686058.125,161271.0625,-0.07421875,1.000732421875,-0.14208984375,-1.0375975370407104,-1.9226073026657104,-0.2136230319738388,100.0,134158.0,1.0
15:37:29.337359,176786.75,170827.6875,162257.9375,202912.453125,165495.8125,163378.46875,686029.625,161277.5,-0.072998046875,1.00244140625,-0.142578125,-1.0681151151657104,-1.9226073026657104,-0.2441406100988388,100.0,134159.0,1.0
15:37:29.337417,176850.5,170842.078125,162267.953125,202907.09375,165502.421875,163393.859375,686025.375,161270.171875,-0.072509765625,1.001220703125,-0.1435546875,-1.0986326932907104,-2.075195074081421,-0.1525878757238388,100.0,134160.0,1.0
15:37:29.369226,176831.359375,170853.25,162273.671875,202894.65625,165505.015625,163402.96875,686006.625,161265.703125,-0.0703125,1.001953125,-0.14501953125,-1.0986326932907104,-2.044677495956421,-0.2441406100988388,100.0,134161.0,1.0
15:37:29.372217,176797.65625,170835.828125,162263.75,202906.828125,165500.8125,163384.109375,686048.9375,161275.890625,-0.07177734375,1.0029296875,-0.14306640625,-1.1291502714157104,-2.014159917831421,-0.2746581733226776,100.0,134162.0,1.0
15:37:29.372221,176780.9375,170825.0,162257.84375,202922.203125,165496.078125,163375.703125,686063.0625,161283.3125,-0.0703125,1.00048828125,-0.144775390625,-1.2207030057907104,-2.075195074081421,-0.1831054538488388,100.0,134163.0,1.0
15:37:29.379128,176844.953125,170843.0625,162273.140625,202928.453125,165506.890625,163394.03125,686012.6875,161285.1875,-0.070068359375,1.00244140625,-0.1455078125,-1.2817381620407104,-1.8920897245407104,-0.0915527269244194,100.0,134164.0,1.0
15:37:29.379138,176838.703125,170847.4375,162274.65625,202902.078125,165504.390625,163399.21875,686014.75,161267.578125,-0.070068359375,1.001708984375,-0.14453125,-1.3427733182907104,-1.8615721464157104,-0.03051757626235485,100.0,134165.0,1.0
15:37:29.379140,176796.765625,170831.53125,162262.140625,202892.6875,165495.1875,163382.40625,686016.375,161264.625,-0.07177734375,1.001220703125,-0.1455078125,-1.2817381620407104,-1.8920897245407104,0.03051757626235485,100.0,134166.0,1.0
15:37:29.384165,176770.828125,170813.828125,162247.390625,202898.421875,165483.203125,163365.328125,686053.5625,161267.046875,-0.0693359375,1.002685546875,-0.147216796875,-1.3122557401657104,-1.8615721464157104,0.0,100.0,134167.0,1.0
15:37:29.386759,176819.390625,170824.734375,162254.984375,202902.4375,165487.9375,163378.109375,686006.375,161264.625,-0.0693359375,1.00341796875,-0.144775390625,-1.3732908964157104,-1.8005369901657104,0.0,100.0,134168.0,1.0
15:37:29.389135,176841.734375,170844.046875,162267.765625,202893.40625,165497.59375,163396.265625,686019.6875,161259.171875,-0.068359375,1.00341796875,-0.145263671875,-1.4038084745407104,-1.7089842557907104,0.0,100.0,134169.0,1.0
15:37:29.392239,176804.8125,170838.6875,162267.140625,202900.03125,165498.9375,163391.34375,685992.25,161273.390625,-0.070068359375,1.00439453125,-0.1435546875,-1.4953612089157104,-1.7395018339157104,0.0610351525247097,100.0,134170.0,1.0
15:37:29.392247,176780.671875,170822.859375,162255.515625,202922.921875,165492.5,163372.84375,686069.8125,161292.34375,-0.06982421875,1.004638671875,-0.143310546875,-1.5869139432907104,-1.6784666776657104,0.0915527269244194,100.0,134171.0,1.0
15:37:29.394144,176802.390625,170820.890625,162249.078125,202898.6875,165483.46875,163373.640625,686008.625,161261.140625,-0.071533203125,1.003662109375,-0.14453125,-1.7089842557907104,-1.6784666776657104,0.0610351525247097,100.0,134172.0,1.0
15:37:29.396750,176837.984375,170830.8125,162258.5625,202894.484375,165488.84375,163385.265625,686036.375,161254.34375,-0.07080078125,1.004150390625,-0.14501953125,-1.8005369901657104,-1.6479490995407104,-0.03051757626235485,100.0,134173.0,1.0
15:37:29.399788,176798.1875,170831.53125,162259.28125,202883.671875,165490.453125,163385.09375,685990.1875,161260.515625,-0.072998046875,1.0029296875,-0.144775390625,-1.8615721464157104,-1.6174315214157104,0.0,100.0,134174.0,1.0
15:37:29.399798,176774.6875,170811.953125,162248.109375,202908.4375,165486.609375,163363.359375,686067.0,161282.421875,-0.07177734375,1.00146484375,-0.146240234375,-1.7700194120407104,-1.4038084745407104,-0.03051757626235485,100.0,134175.0,1.0
15:37:29.408593,176794.265625,170819.109375,162252.03125,202907.71875,165488.125,163371.671875,685996.4375,161272.140625,-0.06982421875,1.0029296875,-0.147216796875,-1.9531248807907104,-1.4038084745407104,-0.0915527269244194,100.0,134176.0,1.0
15:37:29.408665,176852.015625,170837.515625,162269.5625,202916.203125,165501.078125,163390.8125,686008.25,161273.125,-0.0712890625,1.0009765625,-0.146728515625,-2.014159917831421,-1.4343260526657104,-0.2441406100988388,100.0,134177.0,1.0
15:37:29.418537,176809.375,170839.84375,162267.765625,202890.453125,165497.15625,163391.53125,685986.3125,161261.5,-0.07177734375,1.00146484375,-0.143798828125,-2.044677495956421,-1.2817381620407104,-0.3051757514476776,100.0,134178.0,1.0
15:37:29.418544,176783.703125,170822.140625,162253.90625,202899.484375,165490.453125,163369.796875,686079.75,161270.796875,-0.06884765625,1.000244140625,-0.146240234375,-2.044677495956421,-1.1291502714157104,-0.1525878757238388,100.0,134179.0,1.0
15:37:29.420979,176791.21875,170823.03125,162258.203125,202916.125,165494.375,163373.921875,686022.125,161286.53125,-0.067138671875,1.001220703125,-0.144287109375,-2.105712652206421,-1.0681151151657104,-0.2136230319738388,100.0,134180.0,1.0
15:37:29.420981,176851.03125,170832.515625,162269.109375,202915.140625,165501.171875,163386.15625,686006.1875,161277.40625,-0.068115234375,1.001220703125,-0.144775390625,-2.166747808456421,-0.9765624403953552,-0.1831054538488388,100.0,134181.0,1.0
15:37:29.432938,176815.890625,170836.0,162267.234375,202890.1875,165495.90625,163388.21875,685993.9375,161257.828125,-0.0673828125,0.997802734375,-0.14453125,-2.288818120956421,-0.8544921278953552,-0.1831054538488388,100.0,134182.0,1.0
15:37:29.437477,176782.90625,170822.234375,162252.578125,202890.453125,165487.5,163370.78125,686056.8125,161263.640625,-0.068359375,0.998291015625,-0.145263671875,-2.380370855331421,-0.8239745497703552,-0.1525878757238388,100.0,134183.0,1.0
15:37:29.437486,176775.21875,170822.046875,162250.25,202897.34375,165487.859375,163372.125,686029.875,161267.9375,-0.069580078125,0.99609375,-0.14208984375,-2.319335699081421,-0.6713866591453552,-0.1525878757238388,100.0,134184.0,1.0
15:37:29.443648,176843.34375,170834.75,162263.75,202906.640625,165498.578125,163386.078125,686014.25,161270.4375,-0.068603515625,0.99951171875,-0.143798828125,-2.227782964706421,-0.5493163466453552,-0.1831054538488388,100.0,134185.0,1.0
15:37:29.443657,176834.21875,170850.125,162278.140625,202903.609375,165508.234375,163402.078125,686008.4375,161276.25,-0.068359375,1.000732421875,-0.14453125,-2.227782964706421,-0.5187987685203552,-0.1220703050494194,100.0,134186.0,1.0
15:37:29.451190,176800.703125,170839.125,162267.5,202896.546875,165501.890625,163389.375,686020.75,161270.796875,-0.06884765625,1.0009765625,-0.14453125,-2.288818120956421,-0.4577636420726776,-0.2746581733226776,100.0,134187.0,1.0
15:37:29.451204,176783.078125,170829.390625,162260.53125,202907.0,165497.953125,163380.625,686038.1875,161276.78125,-0.069580078125,1.000244140625,-0.14501953125,-2.258300542831421,-0.2746581733226776,-0.3356933295726776,100.0,134188.0,1.0
15:37:29.457993,176840.21875,170841.1875,162270.1875,202907.53125,165503.140625,163395.1875,686008.0625,161269.359375,-0.072021484375,1.00048828125,-0.14697265625,-2.227782964706421,-0.2441406100988388,-0.2136230319738388,100.0,134189.0,1.0
15:37:29.462252,176844.328125,170855.765625,162280.203125,202899.578125,165508.0625,163408.515625,686000.1875,161264.625,-0.072509765625,1.0,-0.148193359375,-2.349853277206421,-0.1525878757238388,-0.0915527269244194,100.0,134190.0,1.0
15:37:29.462260,176807.046875,170848.0625,162273.671875,202896.890625,165504.296875,163399.390625,685993.25,161271.953125,-0.07470703125,1.00048828125,-0.145263671875,-2.349853277206421,-0.1525878757238388,-0.1220703050494194,100.0,134191.0,1.0
15:37:29.467987,176782.09375,170830.28125,162260.796875,202909.328125,165496.609375,163381.875,686056.9375,161276.96875,-0.072509765625,1.000244140625,-0.144287109375,-2.258300542831421,0.0,-0.0915527269244194,100.0,134192.0,1.0
15:37:29.478540,176826.890625,170834.65625,162265.625,202911.015625,165498.9375,163388.40625,686002.625,161271.328125,-0.0732421875,1.00048828125,-0.14599609375,-2.197265386581421,0.0610351525247097,-0.0610351525247097,100.0,134193.0,1.0
15:37:29.478548,176847.546875,170850.125,162276.4375,202899.484375,165504.9375,163403.859375,686010.3125,161266.5,-0.07373046875,1.00048828125,-0.144287109375,-2.227782964706421,0.1220703050494194,-0.03051757626235485,100.0,134194.0,1.0
15:37:29.483082,176808.390625,170851.46875,162274.921875,202889.828125,165505.375,163403.859375,685996.625,161271.59375,-0.074462890625,0.9990234375,-0.141357421875,-2.319335699081421,0.1831054538488388,-0.0610351525247097,100.0,134195.0,1.0
15:37:29.483153,176780.40625,170830.453125,162257.84375,202897.515625,165494.640625,163380.703125,686065.9375,161269.28125,-0.075927734375,0.9990234375,-0.142333984375,-2.227782964706421,0.2136230319738388,0.03051757626235485,100.0,134196.0,1.0
15:37:29.510610,176813.390625,170836.53125,162264.28125,202904.671875,165497.0625,163388.671875,686001.375,161269.984375,-0.07421875,0.9990234375,-0.14111328125,-2.197265386581421,0.3051757514476776,0.03051757626235485,100.0,134197.0,1.0
15:37:29.534544,176854.875,170853.703125,162278.046875,202900.921875,165506.265625,163405.65625,686020.0625,161264.796875,-0.07470703125,0.997802734375,-0.142333984375,-2.136230230331421,0.2746581733226776,0.0915527269244194,100.0,134198.0,1.0
15:37:29.536450,176818.21875,170860.859375,162282.171875,202888.765625,165512.078125,163411.203125,685985.25,161270.890625,-0.07470703125,0.996826171875,-0.144775390625,-2.105712652206421,0.4272460639476776,0.1831054538488388,100.0,134199.0,1.0
15:37:29.538774,176794.625,170841.71875,162270.0,202907.453125,165505.5625,163390.359375,686074.375,161278.125,-0.076904296875,0.998779296875,-0.14306640625,-2.075195074081421,0.3662109076976776,0.2746581733226776,100.0,134200.0,1.0
15:37:29.540556,176811.515625,170844.046875,162273.21875,202912.28125,165506.453125,163395.1875,686010.3125,161276.421875,-0.078857421875,0.99755859375,-0.142333984375,-2.044677495956421,0.3051757514476776,0.2746581733226776,100.0,134201.0,1.0
15:37:29.543550,176864.359375,170854.59375,162282.703125,202909.6875,165511.453125,163406.546875,686043.5625,161269.1875,-0.0771484375,0.997314453125,-0.144775390625,-2.075195074081421,0.4577636420726776,0.3051757514476776,100.0,134202.0,1.0
15:37:29.545553,176825.015625,170859.96875,162283.5,202896.09375,165511.640625,163411.734375,685996.25,161268.921875,-0.077880859375,0.996826171875,-0.14306640625,-2.014159917831421,0.4577636420726776,0.3967284858226776,100.0,134203.0,1.0
15:37:29.548010,176794.53125,170838.765625,162267.5,202903.78125,165503.59375,163390.28125,686052.875,161278.390625,-0.07666015625,0.997802734375,-0.14208984375,-2.105712652206421,0.4577636420726776,0.3967284858226776,100.0,134204.0,1.0
15:37:29.550488,176794.796875,170839.390625,162264.375,202901.375,165501.796875,163393.40625,686024.6875,161274.453125,-0.0771484375,0.998779296875,-0.14111328125,-2.105712652206421,0.3967284858226776,0.3356933295726776,100.0,134205.0,1.0
15:37:29.553381,176858.1875,170855.40625,162278.234375,202905.84375,165513.25,163409.671875,686051.0,161276.96875,-0.076904296875,0.99853515625,-0.14013671875,-2.075195074081421,0.3967284858226776,0.3662109076976776,100.0,134206.0,1.0
15:37:29.555926,176830.296875,170863.71875,162283.5,202889.03125,165514.140625,163414.953125,686004.9375,161271.78125,-0.075439453125,0.997314453125,-0.141845703125,-2.044677495956421,0.4882812201976776,0.3967284858226776,100.0,134207.0,1.0
15:37:29.557937,176798.28125,170842.171875,162267.6875,202896.0,165503.328125,163392.328125,686029.625,161269.546875,-0.07763671875,0.999267578125,-0.1416015625,-1.9836424589157104,0.4577636420726776,0.3051757514476776,100.0,134208.0,1.0
15:37:29.560574,176774.953125,170826.078125,162251.328125,202887.515625,165489.109375,163377.046875,686024.875,161262.125,-0.077392578125,0.99658203125,-0.142822265625,-1.9531248807907104,0.3662109076976776,0.3356933295726776,100.0,134209.0,1.0
15:37:29.562974,176839.59375,170840.296875,162263.21875,202891.171875,165495.359375,163391.34375,686011.8125,161256.3125,-0.078125,0.999755859375,-0.1416015625,-1.9226073026657104,0.3662109076976776,0.4272460639476776,100.0,134210.0,1.0
15:37:29.565522,176829.84375,170853.078125,162273.046875,202879.546875,165501.078125,163404.046875,685999.5625,161252.828125,-0.077392578125,0.999267578125,-0.142822265625,-1.9226073026657104,0.2746581733226776,0.4577636420726776,100.0,134211.0,1.0
15:37:29.568575,176802.9375,170847.0,162270.359375,202892.515625,165501.625,163396.984375,686035.625,161270.171875,-0.0791015625,0.998779296875,-0.143310546875,-1.9531248807907104,0.2441406100988388,0.5798339247703552,100.0,134212.0,1.0
15:37:29.568625,176776.203125,170826.703125,162255.078125,202893.234375,165489.734375,163378.828125,686052.6875,161267.484375,-0.078125,0.99951171875,-0.143798828125,-1.9531248807907104,0.2136230319738388,0.5798339247703552,100.0,134213.0,1.0
15:37:29.571103,176834.140625,170840.921875,162266.4375,202900.109375,165498.3125,163395.1875,685999.125,161269.984375,-0.078369140625,0.9990234375,-0.141357421875,-1.8920897245407104,0.2136230319738388,0.5798339247703552,100.0,134214.0,1.0
15:37:29.571152,176836.375,170852.984375,162273.9375,202883.75,165502.25,163408.515625,685997.875,161261.671875,-0.077392578125,0.999267578125,-0.1396484375,-1.9836424589157104,0.2441406100988388,0.4882812201976776,100.0,134215.0,1.0
15:37:29.572949,176797.484375,170844.21875,162266.15625,202884.015625,165497.15625,163396.71875,686020.0625,161265.4375,-0.075439453125,1.001220703125,-0.140625,-1.8615721464157104,0.1831054538488388,0.5493163466453552,100.0,134216.0,1.0
15:37:29.576144,176775.21875,170825.8125,162254.8125,202910.84375,165491.25,163377.765625,686066.5625,161282.859375,-0.075439453125,1.003173828125,-0.139892578125,-1.9531248807907104,0.2136230319738388,0.4882812201976776,100.0,134217.0,1.0
15:37:29.576185,176821.265625,170836.453125,162261.515625,202905.84375,165494.640625,163390.09375,686001.875,161273.390625,-0.076416015625,1.004638671875,-0.1416015625,-2.044677495956421,0.2136230319738388,0.6713866591453552,100.0,134218.0,1.0
15:37:29.577937,176847.1875,170853.53125,162274.65625,202892.515625,165502.25,163408.25,686019.9375,161262.484375,-0.07470703125,1.00341796875,-0.138916015625,-2.075195074081421,0.0915527269244194,0.6408690810203552,100.0,134219.0,1.0
15:37:29.581058,176804.8125,170851.015625,162271.34375,202877.765625,165500.015625,163405.296875,685996.4375,161262.484375,-0.075439453125,1.003173828125,-0.139892578125,-2.136230230331421,0.1525878757238388,0.7629393935203552,100.0,134220.0,1.0
15:37:29.581096,176784.515625,170834.484375,162262.140625,202902.703125,165497.59375,163385.359375,686072.1875,161281.34375,-0.07421875,1.003173828125,-0.140625,-2.227782964706421,0.2136230319738388,0.6713866591453552,100.0,134221.0,1.0
15:37:29.590573,176814.640625,170841.90625,162266.875,202900.828125,165499.46875,163394.484375,686008.5,161274.015625,-0.077880859375,1.003173828125,-0.13818359375,-2.288818120956421,0.2441406100988388,0.5493163466453552,100.0,134222.0,1.0
15:37:29.604870,176851.75,170852.984375,162274.203125,202893.328125,165501.625,163405.65625,686032.5625,161256.3125,-0.078369140625,1.0048828125,-0.138427734375,-2.288818120956421,0.2746581733226776,0.6408690810203552,100.0,134223.0,1.0
15:37:29.604883,176822.25,170861.921875,162283.859375,202901.8125,165510.390625,163414.140625,685999.9375,161273.125,-0.075927734375,1.00341796875,-0.141845703125,-2.258300542831421,0.2136230319738388,0.6408690810203552,100.0,134224.0,1.0
15:37:29.607302,176788.625,170834.5625,162260.984375,202895.5625,165495.0,163384.46875,686066.0,161270.34375,-0.075927734375,1.003662109375,-0.13916015625,-2.349853277206421,0.0915527269244194,0.6713866591453552,100.0,134225.0,1.0
15:37:29.607309,176797.5625,170832.953125,162258.828125,202892.15625,165490.796875,163385.984375,685993.0625,161264.09375,-0.075927734375,1.0029296875,-0.141357421875,-2.471923589706421,0.0610351525247097,0.6408690810203552,100.0,134226.0,1.0
15:37:29.611088,176858.8125,170851.203125,162277.15625,202908.515625,165504.03125,163405.03125,686022.375,161271.78125,-0.075439453125,1.0009765625,-0.14013671875,-2.593993902206421,0.0915527269244194,0.6408690810203552,100.0,134227.0,1.0
15:37:29.611098,176824.5625,170857.28125,162280.921875,202886.4375,165506.359375,163410.21875,685998.9375,161270.53125,-0.075439453125,1.000244140625,-0.140380859375,-2.655029058456421,0.0915527269244194,0.6408690810203552,100.0,134228.0,1.0
15:37:29.626134,176793.71875,170834.5625,162265.09375,202901.640625,165497.515625,163384.375,686067.875,161281.25,-0.07666015625,0.99853515625,-0.14013671875,-2.716064214706421,0.1220703050494194,0.5798339247703552,100.0,134229.0,1.0
15:37:29.626148,176788.359375,170829.5625,162259.453125,202895.375,165492.59375,163383.03125,686021.0,161265.078125,-0.07568359375,1.00048828125,-0.13720703125,-2.655029058456421,0.1220703050494194,0.5187987685203552,100.0,134230.0,1.0
15:37:29.629167,176857.375,170851.5625,162276.4375,202901.8125,165508.0625,163405.75,686033.75,161273.03125,-0.07568359375,0.99853515625,-0.14111328125,-2.655029058456421,0.1525878757238388,0.5798339247703552,100.0,134231.0,1.0
15:37:29.629174,176827.34375,170857.28125,162278.953125,202886.703125,165508.5,163411.203125,686009.3125,161268.296875,-0.07568359375,0.99755859375,-0.141357421875,-2.716064214706421,0.1831054538488388,0.6713866591453552,100.0,134232.0,1.0
15:37:29.629175,176787.640625,170828.3125,162256.15625,202880.984375,165491.96875,163381.421875,686033.25,161259.796875,-0.078857421875,0.99951171875,-0.141845703125,-2.655029058456421,0.2136230319738388,0.7019042372703552,100.0,134233.0,1.0
15:37:29.631691,176781.390625,170824.828125,162257.40625,202906.546875,165492.859375,163378.109375,686029.0,161280.8125,-0.076416015625,1.0,-0.14306640625,-2.563476324081421,0.0915527269244194,0.6408690810203552,100.0,134234.0,1.0
15:37:29.635475,176839.765625,170834.484375,162263.390625,202899.046875,165495.09375,163389.828125,686030.125,161269.28125,-0.074951171875,1.00146484375,-0.138671875,-2.532958745956421,0.1525878757238388,0.6408690810203552,100.0,134235.0,1.0
15:37:29.651063,176822.6875,170842.703125,162264.828125,202872.125,165492.765625,163397.78125,686007.8125,161248.53125,-0.0751953125,1.001953125,-0.13916015625,-2.502441167831421,0.1220703050494194,0.6103515028953552,100.0,134236.0,1.0
15:37:29.651077,176789.25,170828.84375,162255.96875,202879.546875,165489.28125,163381.875,686024.9375,161257.390625,-0.073486328125,1.000244140625,-0.138427734375,-2.471923589706421,0.1831054538488388,0.5493163466453552,100.0,134237.0,1.0
15:37:29.653107,176778.078125,170819.546875,162255.171875,202906.828125,165490.890625,163374.1875,686045.625,161277.59375,-0.07421875,0.998291015625,-0.137939453125,-2.380370855331421,0.1831054538488388,0.5493163466453552,100.0,134238.0,1.0
15:37:29.663537,176838.78125,170837.609375,162269.296875,202903.953125,165500.734375,163394.65625,686008.0625,161273.46875,-0.075439453125,0.997314453125,-0.137939453125,-2.349853277206421,0.0915527269244194,0.6713866591453552,100.0,134239.0,1.0
15:37:29.663547,176833.953125,170843.59375,162269.109375,202879.109375,165496.4375,163401.0,686006.125,161257.65625,-0.075439453125,0.99853515625,-0.13916015625,-2.258300542831421,0.1525878757238388,0.7019042372703552,100.0,134240.0,1.0
15:37:29.666024,176796.3125,170838.5,162262.671875,202874.640625,165493.390625,163393.046875,686023.625,161259.625,-0.0751953125,0.998779296875,-0.14111328125,-2.136230230331421,0.1831054538488388,0.7629393935203552,100.0,134241.0,1.0
15:37:29.666030,176766.0,170815.890625,162243.546875,202885.09375,165478.828125,163369.265625,686071.625,161258.09375,-0.07421875,0.997314453125,-0.14013671875,-2.136230230331421,0.2136230319738388,0.6713866591453552,100.0,134242.0,1.0
15:37:29.680517,176810.625,170824.203125,162249.4375,202885.09375,165481.234375,163379.453125,686011.8125,161255.953125,-0.0751953125,0.99609375,-0.137939453125,-2.105712652206421,0.3051757514476776,0.7629393935203552,100.0,134243.0,1.0
15:37:29.685499,176840.3125,170840.921875,162263.75,202882.234375,165491.4375,163397.421875,686032.5625,161256.75,-0.072998046875,0.99560546875,-0.137451171875,-2.014159917831421,0.3967284858226776,0.7019042372703552,100.0,134244.0,1.0
15:37:29.685511,176798.109375,170838.5,162260.4375,202866.046875,165489.90625,163394.296875,685989.75,161254.609375,-0.07275390625,0.991455078125,-0.137451171875,-1.8615721464157104,0.3356933295726776,0.8239745497703552,100.0,134245.0,1.0
15:37:29.685512,176778.53125,170823.125,162251.765625,202890.640625,165485.265625,163376.328125,686044.0,161263.109375,-0.071044921875,0.989013671875,-0.139892578125,-1.7700194120407104,0.3662109076976776,0.8544921278953552,100.0,134246.0,1.0
15:37:29.688536,176805.078125,170828.578125,162256.15625,202896.0,165486.15625,163384.109375,685996.0,161262.84375,-0.071533203125,0.98974609375,-0.13818359375,-1.7089842557907104,0.4577636420726776,0.8850097060203552,100.0,134247.0,1.0
15:37:29.688576,176854.4375,170851.46875,162276.4375,202901.015625,165502.421875,163407.796875,686016.125,161266.859375,-0.0712890625,0.990234375,-0.14013671875,-1.6479490995407104,0.5187987685203552,1.0070799589157104,100.0,134248.0,1.0
15:37:29.690482,176809.8125,170850.75,162271.703125,202871.953125,165499.390625,163407.171875,685992.4375,161253.625,-0.072509765625,0.992919921875,-0.13818359375,-1.4648436307907104,0.5798339247703552,0.9765624403953552,100.0,134249.0,1.0
15:37:29.708541,176781.125,170827.0625,162254.984375,202883.9375,165489.640625,163381.6875,686086.0,161263.28125,-0.0732421875,0.994873046875,-0.138916015625,-1.4343260526657104,0.5187987685203552,1.1291502714157104,100.0,134250.0,1.0
15:37:29.708554,176789.078125,170826.703125,162254.09375,202886.078125,165488.21875,163383.21875,686010.0,161264.71875,-0.07373046875,0.99560546875,-0.136474609375,-1.3122557401657104,0.6103515028953552,1.1596678495407104,100.0,134251.0,1.0
15:37:29.711025,176848.4375,170841.0,162269.015625,202892.421875,165498.40625,163397.609375,686024.625,161259.34375,-0.072509765625,0.995849609375,-0.142333984375,-1.2207030057907104,0.6408690810203552,1.1291502714157104,100.0,134252.0,1.0
15:37:29.711030,176810.625,170845.390625,162269.921875,202869.453125,165497.0625,163401.0,685989.9375,161250.59375,-0.0732421875,0.99658203125,-0.142578125,-1.1291502714157104,0.6713866591453552,1.1596678495407104,100.0,134253.0,1.0
15:37:29.712955,176786.65625,170828.3125,162260.625,202895.90625,165495.28125,163381.875,686066.5625,161274.28125,-0.0732421875,0.99755859375,-0.140625,-1.0070799589157104,0.6408690810203552,1.1291502714157104,100.0,134254.0,1.0
15:37:29.724161,176789.875,170831.4375,162263.03125,202904.765625,165498.578125,163385.453125,686029.4375,161284.46875,-0.07421875,0.998046875,-0.141357421875,-0.8850097060203552,0.6713866591453552,1.1291502714157104,100.0,134255.0,1.0
15:37:29.731456,176852.109375,170845.484375,162273.40625,202894.484375,165504.9375,163401.09375,686025.875,161269.453125,-0.072998046875,1.000244140625,-0.1435546875,-0.8239745497703552,0.7629393935203552,1.1291502714157104,100.0,134256.0,1.0
15:37:29.731470,176824.484375,170849.5,162276.984375,202876.609375,165504.03125,163406.28125,685997.25,161259.703125,-0.07275390625,1.0009765625,-0.143798828125,-0.7934569716453552,0.7629393935203552,1.0986326932907104,100.0,134257.0,1.0
15:37:29.731472,176800.609375,170836.0,162271.171875,202896.359375,165502.34375,163389.5625,686050.6875,161278.75,-0.07275390625,1.00244140625,-0.143798828125,-0.7934569716453552,0.7324218153953552,1.0375975370407104,100.0,134258.0,1.0
15:37:29.731712,176778.796875,170821.6875,162257.40625,202892.25,165491.25,163377.765625,686035.25,161272.40625,-0.072998046875,1.00390625,-0.140625,-0.6408690810203552,0.7019042372703552,1.0070799589157104,100.0,134259.0,1.0
15:37:29.737941,176848.4375,170844.671875,162276.265625,202907.890625,165505.203125,163401.453125,686033.375,161280.625,-0.073974609375,1.003173828125,-0.140625,-0.5493163466453552,0.7324218153953552,1.0070799589157104,100.0,134260.0,1.0
15:37:29.748518,176843.796875,170862.203125,162289.671875,202893.40625,165513.6875,163419.328125,686023.6875,161276.421875,-0.076416015625,1.0029296875,-0.138671875,-0.6103515028953552,0.7934569716453552,0.9765624403953552,100.0,134261.0,1.0
15:37:29.748528,176806.328125,170847.53125,162277.96875,202888.84375,165507.34375,163403.515625,686031.9375,161280.359375,-0.07763671875,1.0029296875,-0.141357421875,-0.6713866591453552,0.7934569716453552,0.7629393935203552,100.0,134262.0,1.0
15:37:29.750474,176785.140625,170833.40625,162268.84375,202904.9375,165502.875,163391.796875,686062.0,161293.59375,-0.079345703125,1.00390625,-0.140625,-0.6103515028953552,0.6713866591453552,0.7324218153953552,100.0,134263.0,1.0
15:37:29.754200,176842.09375,170846.375,162280.28125,202913.078125,165509.84375,163406.546875,686025.875,161284.46875,-0.080322265625,1.002685546875,-0.13916015625,-0.6408690810203552,0.7629393935203552,0.6408690810203552,100.0,134264.0,1.0
15:37:29.766017,176853.8125,170862.90625,162292.359375,202898.234375,165517.625,163421.75,686034.625,161276.875,-0.079833984375,1.00439453125,-0.13671875,-0.7324218153953552,0.7324218153953552,0.6408690810203552,100.0,134265.0,1.0
15:37:29.766025,176815.09375,170853.078125,162286.28125,202901.015625,165515.21875,163408.6875,686006.8125,161287.15625,-0.07861328125,1.00537109375,-0.136962890625,-0.8239745497703552,0.6408690810203552,0.5798339247703552,100.0,134266.0,1.0
15:37:29.767943,176780.671875,170825.265625,162263.03125,202894.21875,165498.5,163380.703125,686069.125,161276.78125,-0.076416015625,1.005615234375,-0.13720703125,-0.8544921278953552,0.5187987685203552,0.6713866591453552,100.0,134267.0,1.0
15:37:29.770544,176827.4375,170839.21875,162274.828125,202902.265625,165505.46875,163396.71875,686011.375,161278.03125,-0.07568359375,1.00537109375,-0.1357421875,-1.0070799589157104,0.3662109076976776,0.7019042372703552,100.0,134268.0,1.0
15:37:29.787624,176861.671875,170859.78125,162291.46875,202905.65625,165517.8125,163416.5625,686022.8125,161281.515625,-0.074462890625,1.004150390625,-0.1376953125,-1.0375975370407104,0.4272460639476776,0.7324218153953552,100.0,134269.0,1.0
15:37:29.787633,176813.125,170849.671875,162281.8125,202879.015625,165508.953125,163406.734375,685993.75,161269.90625,-0.073486328125,1.004638671875,-0.138916015625,-1.0681151151657104,0.4577636420726776,0.7629393935203552,100.0,134270.0,1.0
15:37:29.787634,176786.484375,170829.5625,162266.96875,202890.453125,165501.53125,163385.09375,686062.75,161277.671875,-0.07373046875,1.004150390625,-0.1357421875,-1.1901854276657104,0.3967284858226776,0.8544921278953552,100.0,134271.0,1.0
15:37:29.787636,176815.265625,170840.203125,162272.953125,202895.5625,165505.28125,163397.609375,685999.5625,161274.453125,-0.073974609375,1.00439453125,-0.135986328125,-1.2512205839157104,0.4882812201976776,0.9765624403953552,100.0,134272.0,1.0
15:37:29.797929,176865.875,170859.515625,162291.109375,202903.6875,165519.0625,163418.4375,686019.3125,161278.65625,-0.07421875,1.00439453125,-0.138671875,-1.3122557401657104,0.4882812201976776,1.0375975370407104,100.0,134273.0,1.0
15:37:29.801014,176820.015625,170857.640625,162288.0625,202886.890625,165514.765625,163416.46875,686000.1875,161274.015625,-0.0732421875,1.000244140625,-0.136474609375,-1.3732908964157104,0.3967284858226776,1.1901854276657104,100.0,134274.0,1.0
15:37:29.801039,176782.734375,170826.609375,162263.21875,202887.328125,165496.96875,163383.921875,686089.9375,161274.375,-0.073486328125,1.001708984375,-0.138671875,-1.3732908964157104,0.2746581733226776,1.2207030057907104,100.0,134275.0,1.0
15:37:29.802983,176801.0625,170834.84375,162271.078125,202901.1875,165503.859375,163394.390625,686017.6875,161284.5625,-0.072265625,1.000732421875,-0.134765625,-1.4648436307907104,0.3662109076976776,1.2512205839157104,100.0,134276.0,1.0
15:37:29.806751,176864.359375,170856.296875,162288.328125,202902.53125,165516.90625,163415.40625,686034.25,161279.109375,-0.0712890625,0.99853515625,-0.138427734375,-1.4038084745407104,0.4577636420726776,1.3427733182907104,100.0,134277.0,1.0
15:37:29.817352,176823.140625,170856.65625,162285.203125,202872.40625,165510.5625,163414.859375,686000.8125,161261.140625,-0.072021484375,0.998046875,-0.141357421875,-1.4648436307907104,0.6103515028953552,1.3427733182907104,100.0,134278.0,1.0
15:37:29.817407,176795.875,170838.5,162271.96875,202890.375,165503.328125,163394.125,686064.3125,161280.625,-0.072998046875,0.997802734375,-0.138671875,-1.4038084745407104,0.5798339247703552,1.2817381620407104,100.0,134279.0,1.0
15:37:29.819301,176792.296875,170832.515625,162267.859375,202896.265625,165499.65625,163391.890625,686030.25,161278.84375,-0.07177734375,0.997802734375,-0.140869140625,-1.4953612089157104,0.5798339247703552,1.3122557401657104,100.0,134280.0,1.0
15:37:29.821840,176860.25,170852.453125,162284.046875,202900.921875,165510.734375,163412.359375,686039.375,161272.84375,-0.0732421875,0.99365234375,-0.139892578125,-1.4953612089157104,0.5798339247703552,1.4343260526657104,100.0,134281.0,1.0
15:37:29.834866,176839.234375,170864.15625,162292.359375,202890.734375,165515.390625,163423.0,686015.8125,161273.03125,-0.071044921875,0.9951171875,-0.136962890625,-1.4343260526657104,0.4577636420726776,1.3732908964157104,100.0,134282.0,1.0
15:37:29.834886,176807.5,170847.71875,162281.0,202897.96875,165510.46875,163404.578125,686022.75,161284.921875,-0.07080078125,0.99267578125,-0.1396484375,-1.3732908964157104,0.6103515028953552,1.2817381620407104,100.0,134283.0,1.0
15:37:29.837348,176790.78125,170837.25,162271.34375,202896.453125,165502.25,163394.65625,686026.5625,161282.5,-0.071044921875,0.99365234375,-0.1396484375,-1.3122557401657104,0.6713866591453552,1.2207030057907104,100.0,134284.0,1.0
15:37:29.837370,176858.453125,170853.609375,162285.46875,202907.265625,165511.90625,163411.5625,686029.25,161285.015625,-0.072509765625,0.993408203125,-0.137451171875,-1.2207030057907104,0.6103515028953552,1.1596678495407104,100.0,134285.0,1.0
15:37:29.839320,176846.46875,170861.75,162286.546875,202879.90625,165508.421875,163419.15625,686017.1875,161265.96875,-0.0703125,0.995361328125,-0.1396484375,-1.0375975370407104,0.6103515028953552,1.1596678495407104,100.0,134286.0,1.0
15:37:29.870682,176802.21875,170841.359375,162268.84375,202871.0625,165494.203125,163397.515625,686035.0625,161259.890625,-0.070068359375,0.994140625,-0.14013671875,-0.9765624403953552,0.6103515028953552,1.0681151151657104,100.0,134287.0,1.0
15:37:29.899936,176780.484375,170827.859375,162257.9375,202881.703125,165486.875,163385.359375,686058.5625,161263.1875,-0.06640625,0.9931640625,-0.1396484375,-0.8850097060203552,0.7019042372703552,0.9460448622703552,100.0,134288.0,1.0
15:37:29.900022,176838.421875,170841.8125,162272.15625,202894.484375,165496.96875,163401.984375,686014.875,161270.609375,-0.066650390625,0.994140625,-0.13623046875,-0.7629393935203552,0.9155272841453552,1.0681151151657104,100.0,134289.0,1.0
15:37:29.901773,176849.875,170854.59375,162283.328125,202884.640625,165504.03125,163416.203125,686018.3125,161264.171875,-0.06884765625,0.99462890625,-0.13818359375,-0.7324218153953552,1.0681151151657104,1.0070799589157104,100.0,134290.0,1.0
15:37:29.904334,176811.609375,170849.5,162279.84375,202880.796875,165503.671875,163410.03125,686002.9375,161268.375,-0.0693359375,0.9970703125,-0.138916015625,-0.5493163466453552,1.1291502714157104,0.9155272841453552,100.0,134291.0,1.0
15:37:29.906794,176786.921875,170830.640625,162267.0625,202897.609375,165496.4375,163388.84375,686062.875,161278.21875,-0.069580078125,0.995361328125,-0.140380859375,-0.5187987685203552,1.1291502714157104,0.9155272841453552,100.0,134292.0,1.0
15:37:29.909287,176827.15625,170838.234375,162274.828125,202903.25,165499.921875,163398.953125,686008.625,161276.6875,-0.0693359375,0.996826171875,-0.1396484375,-0.3967284858226776,1.1596678495407104,0.9765624403953552,100.0,134293.0,1.0
15:37:29.911736,176857.65625,170853.96875,162286.375,202884.375,165505.46875,163414.421875,686029.6875,161265.4375,-0.070556640625,0.99755859375,-0.1435546875,-0.3051757514476776,1.1596678495407104,0.9460448622703552,100.0,134294.0,1.0
15:37:29.914218,176819.734375,170855.21875,162285.65625,202878.21875,165504.75,163412.1875,686003.4375,161271.234375,-0.068115234375,1.00048828125,-0.14013671875,-0.3051757514476776,1.2207030057907104,0.8544921278953552,100.0,134295.0,1.0
15:37:29.916736,176788.0,170828.84375,162264.90625,202891.171875,165490.890625,163383.84375,686098.8125,161274.375,-0.06884765625,0.9990234375,-0.137939453125,-0.2136230319738388,1.1901854276657104,1.0070799589157104,100.0,134296.0,1.0
15:37:29.919180,176808.65625,170831.078125,162265.796875,202894.296875,165491.078125,163389.296875,686016.125,161273.921875,-0.0693359375,1.00048828125,-0.140869140625,-0.1831054538488388,1.2817381620407104,0.9460448622703552,100.0,134297.0,1.0
15:37:29.921710,176853.8125,170843.59375,162277.15625,202886.890625,165497.59375,163403.234375,686040.1875,161264.984375,-0.06982421875,1.001953125,-0.141845703125,-0.1831054538488388,1.2207030057907104,1.0681151151657104,100.0,134298.0,1.0
15:37:29.924189,176818.671875,170850.390625,162283.421875,202880.890625,165503.140625,163408.15625,686003.3125,161277.328125,-0.06982421875,1.00244140625,-0.142578125,-0.1220703050494194,1.1596678495407104,1.0070799589157104,100.0,134299.0,1.0
15:37:29.926708,176784.96875,170823.578125,162263.21875,202889.75,165490.625,163380.4375,686075.9375,161279.734375,-0.071044921875,1.00341796875,-0.14208984375,-0.03051757626235485,1.2207030057907104,1.0375975370407104,100.0,134300.0,1.0
15:37:29.929197,176789.25,170822.859375,162258.734375,202883.578125,165486.953125,163381.96875,686014.75,161273.390625,-0.072265625,1.003662109375,-0.1435546875,-0.0915527269244194,1.1596678495407104,0.9460448622703552,100.0,134301.0,1.0
15:37:29.931722,176849.515625,170837.609375,162272.234375,202885.8125,165496.171875,163398.5,686033.4375,161264.359375,-0.073486328125,1.0048828125,-0.14306640625,-0.03051757626235485,1.1291502714157104,0.9765624403953552,100.0,134302.0,1.0
15:37:29.935380,176820.015625,170849.046875,162280.46875,202870.34375,165500.453125,163407.359375,686004.375,161257.46875,-0.07373046875,1.00439453125,-0.144287109375,-0.0610351525247097,1.0986326932907104,1.0070799589157104,100.0,134303.0,1.0
15:37:29.935388,176789.703125,170827.953125,162266.96875,202888.84375,165493.84375,163383.921875,686057.125,161275.4375,-0.07373046875,1.004638671875,-0.138916015625,-0.1831054538488388,1.0681151151657104,0.9155272841453552,100.0,134304.0,1.0
15:37:29.935390,176782.09375,170825.0,162261.6875,202883.03125,165488.390625,163382.59375,686025.5625,161271.515625,-0.0751953125,1.00244140625,-0.137939453125,-0.2136230319738388,0.9460448622703552,0.9155272841453552,100.0,134305.0,1.0
15:37:29.938073,176845.484375,170838.234375,162273.3125,202886.171875,165495.625,163397.515625,686028.25,161265.34375,-0.07470703125,1.000732421875,-0.140869140625,-0.2746581733226776,1.0375975370407104,0.8239745497703552,100.0,134306.0,1.0
15:37:29.945482,176830.296875,170854.5,162285.203125,202877.859375,165505.375,163413.4375,686008.6875,161264.453125,-0.072509765625,0.999267578125,-0.140869140625,-0.2746581733226776,0.8850097060203552,0.9460448622703552,100.0,134307.0,1.0
15:37:29.948515,176803.109375,170843.25,162279.3125,202891.359375,165505.109375,163398.953125,686037.5,161284.03125,-0.072265625,0.9970703125,-0.14208984375,-0.3051757514476776,0.7934569716453552,1.0070799589157104,100.0,134308.0,1.0
15:37:29.948521,176786.296875,170830.546875,162270.0,202902.078125,165498.21875,163386.4375,686036.75,161288.046875,-0.072021484375,0.997314453125,-0.1416015625,-0.2441406100988388,0.7324218153953552,1.0070799589157104,100.0,134309.0,1.0
15:37:29.950469,176845.046875,170841.359375,162276.265625,202889.390625,165502.0625,163399.65625,686027.9375,161266.328125,-0.0703125,0.9990234375,-0.1416015625,-0.1220703050494194,0.7629393935203552,1.1291502714157104,100.0,134310.0,1.0
15:37:29.953130,176841.015625,170855.671875,162286.546875,202877.765625,165508.234375,163413.4375,686021.8125,161260.15625,-0.07080078125,0.998779296875,-0.145263671875,-0.2441406100988388,0.7019042372703552,1.0681151151657104,100.0,134311.0,1.0
15:37:29.955481,176810.71875,170848.25,162283.59375,202895.28125,165509.046875,163402.25,686019.25,161278.390625,-0.071044921875,0.999755859375,-0.1416015625,-0.2136230319738388,0.6103515028953552,1.0070799589157104,100.0,134312.0,1.0
15:37:29.957947,176785.59375,170832.0625,162269.109375,202895.203125,165497.859375,163386.15625,686060.25,161275.4375,-0.0732421875,0.997314453125,-0.146240234375,-0.2136230319738388,0.6713866591453552,1.0375975370407104,100.0,134313.0,1.0
15:37:29.961088,176837.171875,170842.4375,162276.265625,202889.203125,165502.0625,163399.65625,686023.0,161270.265625,-0.07373046875,0.99658203125,-0.144287109375,-0.0915527269244194,0.5493163466453552,1.1291502714157104,100.0,134314.0,1.0
15:37:29.961094,176846.921875,170851.921875,162283.953125,202880.359375,165506.8125,163410.296875,686024.4375,161271.515625,-0.07421875,0.99951171875,-0.143798828125,-0.1831054538488388,0.5493163466453552,1.0986326932907104,100.0,134315.0,1.0
15:37:29.962973,176803.5625,170841.90625,162276.09375,202870.34375,165501.0,163399.65625,686012.875,161265.96875,-0.072021484375,0.99951171875,-0.14306640625,-0.0915527269244194,0.4577636420726776,1.0986326932907104,100.0,134316.0,1.0
15:37:29.965474,176777.09375,170821.875,162261.953125,202885.8125,165491.703125,163379.375,686088.875,161270.171875,-0.07177734375,1.0,-0.142822265625,-0.0610351525247097,0.4882812201976776,0.9765624403953552,100.0,134317.0,1.0
15:37:29.972915,176823.3125,170837.34375,162275.734375,202894.484375,165504.03125,163396.09375,686006.0,161279.640625,-0.07177734375,1.0009765625,-0.141845703125,-0.1220703050494194,0.4577636420726776,1.0070799589157104,100.0,134318.0,1.0
15:37:30.012961,176850.765625,170845.390625,162280.640625,202877.671875,165504.484375,163404.484375,686009.5625,161261.046875,-0.072265625,1.0,-0.14501953125,-0.1525878757238388,0.3967284858226776,0.7629393935203552,100.0,134319.0,1.0
15:37:30.012983,176813.75,170846.734375,162282.34375,202875.53125,165506.0,163404.671875,685987.0625,161268.203125,-0.07177734375,1.0,-0.146728515625,-0.2136230319738388,0.3051757514476776,0.7934569716453552,100.0,134320.0,1.0
15:37:30.012987,176789.703125,170827.5,162270.625,202896.265625,165499.828125,163384.203125,686065.9375,161279.46875,-0.072509765625,0.99853515625,-0.144775390625,-0.2441406100988388,0.2136230319738388,0.7019042372703552,100.0,134321.0,1.0
15:37:30.015653,176810.53125,170833.59375,162272.59375,202885.8125,165499.46875,163393.5,686010.75,161272.9375,-0.075927734375,0.998779296875,-0.144287109375,-0.2441406100988388,0.2136230319738388,0.6103515028953552,100.0,134322.0,1.0
15:37:30.017931,176860.59375,170849.5,162286.90625,202892.515625,165509.671875,163408.25,686042.0625,161277.140625,-0.07373046875,0.99951171875,-0.144775390625,-0.1525878757238388,0.1831054538488388,0.4882812201976776,100.0,134323.0,1.0
15:37:30.020772,176810.171875,170842.796875,162275.1875,202858.984375,165496.4375,163400.015625,685992.75,161248.984375,-0.07177734375,1.001220703125,-0.14599609375,-0.2441406100988388,0.0915527269244194,0.5187987685203552,100.0,134324.0,1.0
15:37:30.023041,176777.453125,170818.5625,162256.15625,202868.28125,165485.34375,163375.078125,686074.9375,161261.234375,-0.07373046875,1.002197265625,-0.1455078125,-0.3051757514476776,-0.03051757626235485,0.4577636420726776,100.0,134325.0,1.0
15:37:30.026767,176792.03125,170825.8125,162263.65625,202890.28125,165492.5,163384.828125,686021.9375,161282.953125,-0.072998046875,1.00146484375,-0.145751953125,-0.2441406100988388,0.0,0.3662109076976776,100.0,134326.0,1.0
15:37:30.026784,176855.0625,170843.515625,162277.34375,202887.953125,165500.90625,163402.96875,686029.5,161264.265625,-0.07177734375,1.004638671875,-0.147705078125,-0.2136230319738388,0.0,0.4577636420726776,100.0,134327.0,1.0
15:37:30.028066,176819.5625,170849.5,162278.953125,202860.6875,165501.078125,163409.859375,686001.25,161254.875,-0.07275390625,1.004150390625,-0.1455078125,-0.2441406100988388,-0.03051757626235485,0.5493163466453552,100.0,134328.0,1.0
15:37:30.030664,176787.90625,170827.0625,162263.75,202870.34375,165492.40625,163386.796875,686052.3125,161265.703125,-0.073974609375,1.005126953125,-0.14892578125,-0.2746581733226776,-0.0915527269244194,0.4272460639476776,100.0,134329.0,1.0
15:37:30.036916,176786.578125,170827.78125,162264.640625,202880.625,165493.671875,163388.046875,686024.0625,161265.96875,-0.073486328125,1.001220703125,-0.150390625,-0.3356933295726776,-0.1525878757238388,0.3967284858226776,100.0,134330.0,1.0
15:37:30.039224,176857.03125,170847.0,162283.78125,202896.265625,165508.0625,163409.234375,686018.0625,161273.75,-0.0732421875,1.001220703125,-0.148681640625,-0.3967284858226776,-0.0915527269244194,0.4272460639476776,100.0,134331.0,1.0
15:37:30.042321,176835.484375,170856.03125,162289.59375,202881.34375,165510.5625,163417.546875,686003.5625,161267.578125,-0.07470703125,1.0009765625,-0.146240234375,-0.4882812201976776,-0.1220703050494194,0.4577636420726776,100.0,134332.0,1.0
15:37:30.042331,176801.953125,170839.75,162275.28125,202875.0,165501.625,163398.5,686051.625,161265.875,-0.072509765625,1.000732421875,-0.14599609375,-0.4882812201976776,-0.0610351525247097,0.3967284858226776,100.0,134333.0,1.0
15:37:30.046697,176782.8125,170827.78125,162266.34375,202884.015625,165495.8125,163387.6875,686052.6875,161273.46875,-0.072265625,1.000244140625,-0.1474609375,-0.5187987685203552,-0.1220703050494194,0.5187987685203552,100.0,134334.0,1.0
15:37:30.049181,176843.53125,170842.265625,162278.40625,202887.234375,165505.375,163403.953125,686028.4375,161272.671875,-0.0732421875,1.00146484375,-0.146484375,-0.5493163466453552,-0.2136230319738388,0.4882812201976776,100.0,134335.0,1.0
15:37:30.052288,176839.234375,170854.421875,162285.65625,202871.234375,165508.0625,163416.390625,686024.0625,161258.90625,-0.07373046875,1.000732421875,-0.147216796875,-0.6713866591453552,-0.2746581733226776,0.5187987685203552,100.0,134336.0,1.0
15:37:30.052290,176799.265625,170839.21875,162273.578125,202869.265625,165500.015625,163400.109375,686023.1875,161267.484375,-0.074462890625,0.999755859375,-0.146484375,-0.7019042372703552,-0.3051757514476776,0.4882812201976776,100.0,134337.0,1.0
15:37:30.054170,176779.59375,170826.96875,162265.359375,202887.6875,165494.640625,163386.25,686065.125,161275.359375,-0.073974609375,1.000244140625,-0.14404296875,-0.7629393935203552,-0.3967284858226776,0.4882812201976776,100.0,134338.0,1.0
15:37:30.056654,176836.109375,170840.109375,162278.40625,202894.84375,165504.03125,163401.984375,686019.4375,161275.796875,-0.0751953125,1.00048828125,-0.14599609375,-0.7629393935203552,-0.2746581733226776,0.5493163466453552,100.0,134339.0,1.0
15:37:30.063542,176846.921875,170851.015625,162285.390625,202881.25,165507.4375,163412.890625,686026.0625,161265.875,-0.074462890625,0.99853515625,-0.147216796875,-0.7629393935203552,-0.3967284858226776,0.4882812201976776,100.0,134340.0,1.0
15:37:30.063552,176809.546875,170849.671875,162283.15625,202875.265625,165507.875,163409.5,685995.4375,161269.1875,-0.073486328125,0.9990234375,-0.1484375,-0.6713866591453552,-0.4272460639476776,0.4272460639476776,100.0,134341.0,1.0
15:37:30.065520,176784.6875,170832.875,162270.09375,202882.59375,165500.546875,163391.171875,686060.125,161272.671875,-0.072509765625,0.997802734375,-0.1455078125,-0.7019042372703552,-0.4272460639476776,0.5493163466453552,100.0,134342.0,1.0
15:37:30.075529,176821.4375,170840.5625,162276.359375,202885.359375,165503.671875,163400.5625,686004.1875,161276.96875,-0.073974609375,0.997314453125,-0.146240234375,-0.8239745497703552,-0.2746581733226776,0.4882812201976776,100.0,134343.0,1.0
15:37:30.082883,176856.484375,170852.453125,162288.0625,202883.9375,165510.03125,163414.421875,686030.6875,161271.59375,-0.0732421875,0.997802734375,-0.144775390625,-0.7324218153953552,-0.3967284858226776,0.4577636420726776,100.0,134344.0,1.0
15:37:30.082896,176815.1875,170852.546875,162286.015625,202872.40625,165507.96875,163413.703125,685998.6875,161266.59375,-0.072998046875,0.99755859375,-0.14697265625,-0.7324218153953552,-0.3662109076976776,0.4272460639476776,100.0,134345.0,1.0
15:37:30.082899,176787.90625,170830.015625,162269.734375,202890.8125,165499.46875,163390.09375,686075.8125,161279.46875,-0.07177734375,0.99951171875,-0.146484375,-0.7629393935203552,-0.4272460639476776,0.6103515028953552,100.0,134346.0,1.0
15:37:30.086730,176803.109375,170831.890625,162268.046875,202880.796875,165495.28125,163392.78125,686005.125,161269.90625,-0.070556640625,0.996337890625,-0.14697265625,-0.6408690810203552,-0.3051757514476776,0.5493163466453552,100.0,134347.0,1.0
15:37:30.101737,176853.171875,170848.78125,162282.25,202880.453125,165504.9375,163410.578125,686034.1875,161267.046875,-0.0712890625,0.998046875,-0.14794921875,-0.6713866591453552,-0.2746581733226776,0.4272460639476776,100.0,134348.0,1.0
15:37:30.109119,176812.234375,170851.28125,162282.25,202864.265625,165505.109375,163413.25,685996.0,161263.375,-0.0732421875,0.99560546875,-0.148681640625,-0.7019042372703552,-0.3356933295726776,0.5187987685203552,100.0,134349.0,1.0
15:37:30.109127,176783.265625,170827.5,162266.609375,202881.25,165495.984375,163387.765625,686065.75,161275.359375,-0.072021484375,0.994873046875,-0.1455078125,-0.7019042372703552,-0.2746581733226776,0.5493163466453552,100.0,134350.0,1.0
15:37:30.109128,176790.59375,170828.765625,162267.328125,202892.0625,165495.0,163390.71875,686013.25,161280.625,-0.072509765625,0.996337890625,-0.14794921875,-0.6713866591453552,-0.3967284858226776,0.4272460639476776,100.0,134351.0,1.0
15:37:30.111699,176857.109375,170848.609375,162282.53125,202889.390625,165505.375,163412.09375,686020.875,161273.125,-0.071533203125,0.997802734375,-0.146728515625,-0.5493163466453552,-0.3662109076976776,0.3662109076976776,100.0,134352.0,1.0
15:37:30.119323,176821.4375,170854.328125,162281.71875,202855.046875,165502.25,163417.1875,686003.6875,161252.90625,-0.07177734375,0.996337890625,-0.14697265625,-0.5798339247703552,-0.3051757514476776,0.3662109076976776,100.0,134353.0,1.0
15:37:30.121708,176792.65625,170836.984375,162271.609375,202874.1875,165499.296875,163398.046875,686057.9375,161274.640625,-0.071533203125,0.9990234375,-0.146484375,-0.6408690810203552,-0.3662109076976776,0.4272460639476776,100.0,134354.0,1.0
15:37:30.124372,176781.5625,170829.296875,162263.75,202877.9375,165491.078125,163391.703125,686024.75,161271.953125,-0.072021484375,0.99755859375,-0.146728515625,-0.6103515028953552,-0.3356933295726776,0.3662109076976776,100.0,134355.0,1.0
15:37:30.126802,176849.6875,170844.5,162277.703125,202885.09375,165501.265625,163408.515625,686020.875,161266.328125,-0.072021484375,1.0,-0.14599609375,-0.5798339247703552,-0.3051757514476776,0.3662109076976776,100.0,134356.0,1.0
15:37:30.129241,176835.296875,170859.0625,162287.4375,202870.96875,165507.171875,163422.109375,686007.6875,161259.078125,-0.07373046875,0.999267578125,-0.146728515625,-0.5187987685203552,-0.3356933295726776,0.3967284858226776,100.0,134357.0,1.0
15:37:30.131662,176798.1875,170839.84375,162274.03125,202874.640625,165499.828125,163401.1875,686034.0,161270.96875,-0.072998046875,1.0,-0.14453125,-0.5187987685203552,-0.3356933295726776,0.3051757514476776,100.0,134358.0,1.0
15:37:30.146114,176777.359375,170828.484375,162264.46875,202878.03125,165492.6875,163390.8125,686044.6875,161271.0625,-0.072265625,1.00048828125,-0.144775390625,-0.5187987685203552,-0.2441406100988388,0.2746581733226776,100.0,134359.0,1.0
15:37:30.146131,176834.765625,170836.984375,162270.71875,202873.921875,165494.375,163401.359375,686014.75,161261.578125,-0.07373046875,1.0,-0.14453125,-0.4577636420726776,-0.2746581733226776,0.2746581733226776,100.0,134360.0,1.0
15:37:30.148544,176830.5625,170845.75,162275.8125,202860.6875,165495.453125,163410.03125,686010.5,161253.0,-0.072998046875,1.000732421875,-0.1474609375,-0.5493163466453552,-0.3356933295726776,0.2746581733226776,100.0,134361.0,1.0
15:37:30.148553,176795.0625,170837.875,162269.203125,202863.8125,165492.6875,163399.390625,685995.4375,161262.125,-0.072998046875,1.001220703125,-0.14697265625,-0.6103515028953552,-0.3967284858226776,0.2441406100988388,100.0,134362.0,1.0
15:37:30.150504,176768.875,170817.3125,162254.09375,202870.875,165482.3125,163380.0,686029.6875,161264.53125,-0.073974609375,1.001220703125,-0.14453125,-0.7019042372703552,-0.2746581733226776,0.4272460639476776,100.0,134363.0,1.0
15:37:30.154324,176820.453125,170827.59375,162263.75,202878.390625,165489.640625,163393.765625,686006.25,161268.828125,-0.072998046875,1.001220703125,-0.147705078125,-0.6103515028953552,-0.2746581733226776,0.4577636420726776,100.0,134364.0,1.0
15:37:30.161043,176837.09375,170842.078125,162272.515625,202858.71875,165493.484375,163406.8125,686019.3125,161250.140625,-0.073486328125,1.002197265625,-0.14501953125,-0.6408690810203552,-0.3051757514476776,0.3662109076976776,100.0,134365.0,1.0
15:37:30.161058,176799.09375,170839.125,162270.453125,202852.734375,165492.234375,163401.265625,686000.75,161254.25,-0.076171875,1.001220703125,-0.146484375,-0.6408690810203552,-0.3051757514476776,0.3967284858226776,100.0,134366.0,1.0
15:37:30.170608,176773.96875,170818.5625,162256.78125,202867.484375,165483.65625,163380.359375,686063.0625,161263.734375,-0.0751953125,1.000732421875,-0.1494140625,-0.7019042372703552,-0.3662109076976776,0.4272460639476776,100.0,134367.0,1.0
15:37:30.174762,176812.046875,170829.734375,162265.625,202871.5,165489.46875,163394.03125,686004.1875,161264.796875,-0.076171875,1.003662109375,-0.148681640625,-0.6713866591453552,-0.4272460639476776,0.4577636420726776,100.0,134368.0,1.0
15:37:30.174769,176849.421875,170844.5,162278.859375,202870.96875,165498.9375,163409.140625,686027.3125,161262.125,-0.0751953125,1.00048828125,-0.1474609375,-0.7324218153953552,-0.4882812201976776,0.3967284858226776,100.0,134369.0,1.0
15:37:30.185363,176808.46875,170842.4375,162277.78125,202860.59375,165496.890625,163405.03125,685996.0,161260.6875,-0.07470703125,1.000732421875,-0.146240234375,-0.7019042372703552,-0.4882812201976776,0.3662109076976776,100.0,134370.0,1.0
15:37:30.185373,176786.578125,170825.265625,162267.5,202885.0,165492.6875,163385.09375,686073.9375,161274.109375,-0.0751953125,1.00048828125,-0.14794921875,-0.7629393935203552,-0.4882812201976776,0.4272460639476776,100.0,134371.0,1.0
15:37:30.186673,176807.84375,170831.890625,162273.140625,202884.640625,165496.25,163395.1875,686008.9375,161275.53125,-0.07568359375,1.00244140625,-0.146728515625,-0.8544921278953552,-0.5493163466453552,0.3967284858226776,100.0,134372.0,1.0
15:37:30.192916,176857.296875,170844.765625,162281.09375,202876.875,165501.171875,163408.96875,686022.8125,161262.65625,-0.074462890625,0.99951171875,-0.150390625,-0.7934569716453552,-0.4577636420726776,0.3662109076976776,100.0,134373.0,1.0
15:37:30.197321,176822.421875,170852.359375,162285.109375,202869.71875,165503.953125,163415.9375,685997.0,161260.15625,-0.07470703125,0.99951171875,-0.149169921875,-0.8850097060203552,-0.5187987685203552,0.4882812201976776,100.0,134374.0,1.0
15:37:30.197333,176790.59375,170830.546875,162268.9375,202878.65625,165494.375,163391.703125,686071.25,161266.5,-0.07421875,1.00048828125,-0.149169921875,-0.8544921278953552,-0.5493163466453552,0.4882812201976776,100.0,134375.0,1.0
15:37:30.204235,176795.78125,170830.28125,162267.5,202876.0625,165491.515625,163391.625,686013.6875,161267.484375,-0.07373046875,1.0009765625,-0.145751953125,-0.9460448622703552,-0.5798339247703552,0.4577636420726776,100.0,134376.0,1.0
15:37:30.208530,176861.859375,170846.734375,162283.5,202881.515625,165503.234375,163410.296875,686031.8125,161261.9375,-0.07470703125,0.999755859375,-0.148193359375,-0.9460448622703552,-0.5798339247703552,0.6103515028953552,100.0,134377.0,1.0
15:37:30.208544,176829.484375,170855.140625,162287.078125,202862.828125,165503.953125,163417.8125,686006.625,161254.875,-0.072998046875,1.001708984375,-0.149169921875,-0.8850097060203552,-0.6713866591453552,0.6713866591453552,100.0,134378.0,1.0
15:37:30.255651,176796.671875,170836.890625,162272.15625,202866.140625,165495.71875,163397.15625,686052.5,161261.671875,-0.072998046875,1.0009765625,-0.148193359375,-0.9765624403953552,-0.6713866591453552,0.6408690810203552,100.0,134379.0,1.0
15:37:30.267600,176784.96875,170828.84375,162265.171875,202872.578125,165489.90625,163389.65625,686023.875,161262.75,-0.072265625,1.00146484375,-0.148193359375,-0.9765624403953552,-0.5187987685203552,0.6103515028953552,100.0,134380.0,1.0
15:37:30.267674,176853.984375,170846.109375,162281.265625,202882.40625,165500.90625,163408.609375,686026.75,161264.71875,-0.072509765625,0.999267578125,-0.147216796875,-0.9765624403953552,-0.6408690810203552,0.6713866591453552,100.0,134381.0,1.0
15:37:30.269269,176839.5,170861.390625,162289.59375,202865.25,165505.203125,163421.5625,686012.25,161257.390625,-0.07275390625,0.9990234375,-0.146728515625,-1.0375975370407104,-0.5798339247703552,0.6408690810203552,100.0,134382.0,1.0
15:37:30.271751,176808.03125,170849.328125,162281.890625,202877.046875,165501.984375,163405.828125,686015.5625,161268.65625,-0.07080078125,0.999267578125,-0.14794921875,-1.0681151151657104,-0.6103515028953552,0.6713866591453552,100.0,134383.0,1.0
15:37:30.274198,176791.671875,170837.4375,162273.671875,202889.296875,165496.890625,163393.765625,686040.875,161279.640625,-0.071533203125,0.99951171875,-0.145263671875,-0.8850097060203552,-0.5187987685203552,0.6103515028953552,100.0,134384.0,1.0
15:37:30.279254,176856.3125,170854.78125,162287.890625,202895.5625,165508.5,163412.1875,686019.0625,161280.71875,-0.0712890625,1.000244140625,-0.146240234375,-0.9765624403953552,-0.4577636420726776,0.5798339247703552,100.0,134385.0,1.0
15:37:30.281924,176851.84375,170862.375,162291.375,202869.0,165507.515625,163419.0625,686010.75,161256.125,-0.0703125,0.99755859375,-0.14697265625,-0.9765624403953552,-0.3356933295726776,0.6408690810203552,100.0,134386.0,1.0
15:37:30.284223,176815.265625,170852.265625,162284.40625,202871.6875,165505.109375,163406.8125,686017.0,161265.875,-0.07275390625,0.9990234375,-0.147216796875,-1.0070799589157104,-0.3356933295726776,0.7019042372703552,100.0,134387.0,1.0
15:37:30.286730,176783.359375,170827.15625,162265.53125,202875.890625,165491.34375,163383.03125,686053.375,161269.71875,-0.070068359375,0.9990234375,-0.1484375,-1.0070799589157104,-0.3051757514476776,0.7324218153953552,100.0,134388.0,1.0
15:37:30.289206,176828.140625,170832.953125,162270.71875,202878.296875,165493.3125,163393.765625,685992.4375,161264.71875,-0.0703125,0.999267578125,-0.150390625,-1.0375975370407104,-0.3051757514476776,0.7324218153953552,100.0,134389.0,1.0
15:37:30.291720,176850.40625,170847.4375,162280.28125,202873.390625,165497.15625,163407.4375,686006.4375,161258.71875,-0.06982421875,0.998779296875,-0.1494140625,-1.0375975370407104,-0.2441406100988388,0.7019042372703552,100.0,134390.0,1.0
15:37:30.295112,176813.390625,170846.734375,162277.78125,202867.390625,165495.625,163403.859375,686007.0625,161262.65625,-0.0703125,0.999267578125,-0.15087890625,-1.0070799589157104,-0.2136230319738388,0.6713866591453552,100.0,134391.0,1.0
15:37:30.296730,176790.140625,170832.25,162266.15625,202878.390625,165489.375,163386.96875,686075.375,161267.75,-0.06982421875,1.000732421875,-0.147705078125,-0.9765624403953552,-0.1831054538488388,0.7934569716453552,100.0,134392.0,1.0
15:37:30.299248,176824.921875,170839.125,162271.796875,202878.921875,165492.765625,163396.625,685999.8125,161266.140625,-0.072509765625,0.99853515625,-0.148681640625,-1.0070799589157104,-0.1220703050494194,0.9460448622703552,100.0,134393.0,1.0
15:37:30.301703,176868.203125,170857.09375,162285.828125,202879.546875,165501.078125,163414.328125,686032.8125,161261.9375,-0.072509765625,0.99755859375,-0.15185546875,-1.0681151151657104,-0.03051757626235485,0.9155272841453552,100.0,134394.0,1.0
15:37:30.304846,176833.234375,170862.90625,162288.328125,202869.453125,165502.515625,163417.546875,686001.25,161263.28125,-0.072265625,0.99755859375,-0.1494140625,-1.0681151151657104,0.0915527269244194,0.8544921278953552,100.0,134395.0,1.0
15:37:30.304919,176814.28125,170849.953125,162283.15625,202899.765625,165503.40625,163402.34375,686082.875,161285.375,-0.0712890625,1.00048828125,-0.14892578125,-1.0375975370407104,0.1525878757238388,0.7934569716453552,100.0,134396.0,1.0
15:37:30.306771,176828.5,170851.203125,162283.234375,202895.734375,165501.078125,163406.09375,686016.75,161282.859375,-0.070556640625,0.998046875,-0.1494140625,-1.0375975370407104,0.1831054538488388,0.9155272841453552,100.0,134397.0,1.0
15:37:30.309973,176882.6875,170865.59375,162294.59375,202889.5625,165507.609375,163421.84375,686047.25,161271.953125,-0.068603515625,0.996826171875,-0.153076171875,-0.9460448622703552,0.1525878757238388,0.9155272841453552,100.0,134398.0,1.0
15:37:30.310053,176845.484375,170871.5,162296.734375,202870.515625,165507.609375,163427.015625,686005.375,161263.015625,-0.069580078125,0.9990234375,-0.150634765625,-0.9155272841453552,0.1525878757238388,0.9765624403953552,100.0,134399.0,1.0
15:37:30.312394,176822.15625,170853.96875,162284.578125,202889.921875,165500.015625,163405.46875,686040.875,161279.46875,-0.069580078125,1.0009765625,-0.149658203125,-0.8544921278953552,0.1831054538488388,0.9155272841453552,100.0,134400.0,1.0
15:37:30.312473,176821.625,170850.65625,162279.578125,202888.9375,165494.640625,163404.046875,686007.8125,161273.75,-0.070556640625,0.999755859375,-0.147705078125,-0.8239745497703552,0.3356933295726776,0.8850097060203552,100.0,134401.0,1.0
15:37:30.314202,176889.390625,170869.625,162298.4375,202901.640625,165510.03125,163424.25,686026.5625,161281.703125,-0.07080078125,0.997802734375,-0.146728515625,-0.8544921278953552,0.3051757514476776,1.0375975370407104,100.0,134402.0,1.0
15:37:30.316724,176861.765625,170879.0,162305.328125,202889.75,165514.140625,163434.265625,686007.6875,161276.515625,-0.0703125,0.996337890625,-0.148193359375,-0.8544921278953552,0.2136230319738388,0.8544921278953552,100.0,134403.0,1.0
15:37:30.319881,176829.75,170858.796875,162291.015625,202899.9375,165505.640625,163409.953125,686064.0,161290.28125,-0.073486328125,0.995361328125,-0.14794921875,-0.8544921278953552,0.1525878757238388,0.8850097060203552,100.0,134404.0,1.0
15:37:30.319939,176814.734375,170848.703125,162277.96875,202882.6875,165492.234375,163398.6875,686024.0625,161272.578125,-0.072265625,0.997314453125,-0.150390625,-0.8544921278953552,0.2441406100988388,0.9155272841453552,100.0,134405.0,1.0
15:37:30.321726,176883.21875,170864.703125,162291.640625,202892.0625,165501.078125,163414.328125,686002.9375,161272.578125,-0.0712890625,0.9970703125,-0.1494140625,-0.7324218153953552,0.3356933295726776,0.9765624403953552,100.0,134406.0,1.0
15:37:30.328541,176869.8125,170875.96875,162300.578125,202880.359375,165506.453125,163425.5,685997.25,161267.578125,-0.072021484375,0.997314453125,-0.148681640625,-0.6408690810203552,0.3051757514476776,0.8239745497703552,100.0,134407.0,1.0
15:37:30.328590,176837.0,170863.1875,162292.09375,202888.5,165502.875,163410.484375,686037.5625,161275.625,-0.072021484375,0.99609375,-0.1484375,-0.6103515028953552,0.3662109076976776,0.8850097060203552,100.0,134408.0,1.0
15:37:30.337976,176820.375,170855.046875,162285.46875,202896.1875,165498.671875,163402.703125,686040.875,161280.625,-0.071533203125,0.99658203125,-0.14794921875,-0.6713866591453552,0.4577636420726776,0.9460448622703552,100.0,134409.0,1.0
15:37:30.342388,176883.046875,170869.34375,162297.359375,202902.265625,165507.078125,163419.25,686009.125,161281.078125,-0.0673828125,0.99658203125,-0.15283203125,-0.7019042372703552,0.3662109076976776,1.0681151151657104,100.0,134410.0,1.0
15:37:30.342443,176882.0625,170880.078125,162304.34375,202887.78125,165508.78125,163430.328125,686017.5625,161272.40625,-0.067138671875,0.995361328125,-0.151123046875,-0.7019042372703552,0.5187987685203552,1.1901854276657104,100.0,134411.0,1.0
15:37:30.349259,176839.765625,170867.828125,162293.078125,202879.8125,165500.8125,163417.28125,686020.3125,161272.40625,-0.06689453125,0.995849609375,-0.152099609375,-0.6713866591453552,0.6103515028953552,1.2512205839157104,100.0,134412.0,1.0
15:37:30.353515,176822.421875,170859.25,162288.0625,202901.71875,165500.28125,163407.703125,686075.125,161286.890625,-0.06689453125,0.996826171875,-0.15087890625,-0.6408690810203552,0.6408690810203552,1.3732908964157104,100.0,134413.0,1.0
15:37:30.353544,176871.515625,170872.484375,162298.171875,202903.421875,165507.875,163422.90625,686012.875,161287.6875,-0.070068359375,0.998046875,-0.152099609375,-0.5798339247703552,0.6713866591453552,1.3732908964157104,100.0,134414.0,1.0
15:37:30.363014,176893.6875,170884.09375,162307.734375,202892.34375,165512.796875,163433.734375,686023.25,161272.046875,-0.069580078125,1.0,-0.149658203125,-0.6408690810203552,0.6713866591453552,1.3122557401657104,100.0,134415.0,1.0
15:37:30.367332,176853.71875,170880.609375,162305.953125,202887.953125,165511.28125,163428.28125,685997.5,161274.1875,-0.072998046875,0.99951171875,-0.150146484375,-0.6408690810203552,0.6713866591453552,1.3732908964157104,100.0,134416.0,1.0
15:37:30.367375,176827.703125,170863.984375,162294.234375,202901.015625,165505.734375,163410.84375,686068.4375,161287.15625,-0.071044921875,0.999755859375,-0.147705078125,-0.6408690810203552,0.6408690810203552,1.3427733182907104,100.0,134417.0,1.0
15:37:30.373741,176854.96875,170869.078125,162294.765625,202891.53125,165505.46875,163419.0625,686000.1875,161275.078125,-0.07275390625,0.99853515625,-0.150634765625,-0.6103515028953552,0.4882812201976776,1.3732908964157104,100.0,134418.0,1.0
15:37:30.373796,176897.796875,170888.484375,162308.984375,202896.8125,165515.390625,163437.65625,686024.625,161274.1875,-0.072265625,0.999267578125,-0.15087890625,-0.5493163466453552,0.6103515028953552,1.2817381620407104,100.0,134419.0,1.0
15:37:30.375602,176848.078125,170878.921875,162301.03125,202876.875,165507.4375,163430.59375,685992.3125,161268.109375,-0.072265625,1.0009765625,-0.1513671875,-0.5493163466453552,0.5798339247703552,1.1596678495407104,100.0,134420.0,1.0
15:37:30.391715,176821.171875,170859.0625,162288.0625,202892.15625,165501.890625,163409.671875,686057.875,161280.09375,-0.069091796875,1.0,-0.151611328125,-0.6408690810203552,0.6103515028953552,1.1596678495407104,100.0,134421.0,1.0
15:37:30.394801,176842.8125,170867.296875,162294.953125,202898.0625,165506.8125,163420.578125,686001.6875,161281.796875,-0.068603515625,1.0029296875,-0.149169921875,-0.4882812201976776,0.6103515028953552,1.1901854276657104,100.0,134422.0,1.0
15:37:30.394849,176900.296875,170885.703125,162312.203125,202904.5,165519.5,163439.265625,686042.1875,161280.0,-0.06982421875,1.001220703125,-0.1494140625,-0.4882812201976776,0.6103515028953552,1.1291502714157104,100.0,134423.0,1.0
15:37:30.397306,176856.671875,170885.078125,162308.09375,202876.609375,165513.25,163437.578125,685998.9375,161267.671875,-0.072021484375,1.001708984375,-0.149169921875,-0.5187987685203552,0.5493163466453552,1.0375975370407104,100.0,134424.0,1.0
15:37:30.397341,176821.890625,170858.265625,162286.8125,202881.34375,165499.828125,163409.234375,686055.8125,161270.703125,-0.07373046875,1.00048828125,-0.149658203125,-0.5798339247703552,0.4577636420726776,0.9765624403953552,100.0,134425.0,1.0
15:37:30.399246,176822.25,170855.9375,162286.453125,202888.5,165499.828125,163408.609375,686012.25,161277.59375,-0.073974609375,1.0,-0.14892578125,-0.6408690810203552,0.4272460639476776,0.8850097060203552,100.0,134426.0,1.0
15:37:30.410868,176887.0625,170870.421875,162300.578125,202892.515625,165510.109375,163424.078125,686029.8125,161276.15625,-0.07470703125,1.000732421875,-0.150146484375,-0.6713866591453552,0.3356933295726776,0.7019042372703552,100.0,134427.0,1.0
15:37:30.415678,176856.9375,170874.984375,162302.546875,202871.6875,165508.0625,163428.28125,685997.75,161265.078125,-0.075439453125,0.999755859375,-0.1494140625,-0.7019042372703552,0.3051757514476776,0.6408690810203552,100.0,134428.0,1.0
15:37:30.415776,176823.578125,170854.15625,162288.515625,202885.8125,165500.640625,163404.9375,686061.25,161280.265625,-0.076171875,1.001220703125,-0.14794921875,-0.7324218153953552,0.0915527269244194,0.5798339247703552,100.0,134429.0,1.0
15:37:30.417109,176809.734375,170844.9375,162279.75,202886.078125,165494.46875,163397.609375,686045.1875,161278.484375,-0.07763671875,0.99951171875,-0.146728515625,-0.7324218153953552,0.0915527269244194,0.3356933295726776,100.0,134430.0,1.0
15:37:30.425580,176872.140625,170857.28125,162289.765625,202884.46875,165501.796875,163411.46875,686028.875,161271.515625,-0.0771484375,1.0009765625,-0.149169921875,-0.7934569716453552,0.0915527269244194,0.3051757514476776,100.0,134431.0,1.0
15:37:30.432365,176860.59375,170871.5,162301.390625,202870.875,165509.40625,163427.5625,686016.8125,161267.125,-0.0751953125,1.001708984375,-0.1494140625,-0.8239745497703552,-0.03051757626235485,0.2136230319738388,100.0,134432.0,1.0
15:37:30.432455,176820.28125,170855.140625,162287.984375,202872.484375,165501.359375,163410.921875,686040.0,161271.953125,-0.073974609375,1.003173828125,-0.147705078125,-0.8544921278953552,-0.1220703050494194,0.3662109076976776,100.0,134433.0,1.0
15:37:30.434781,176796.578125,170837.15625,162271.53125,202878.84375,165486.953125,163392.421875,686063.25,161270.4375,-0.073486328125,1.000732421875,-0.146728515625,-0.9765624403953552,-0.1831054538488388,0.3356933295726776,100.0,134434.0,1.0
15:37:30.434822,176856.390625,170850.65625,162282.4375,202883.390625,165496.171875,163407.890625,686028.4375,161269.28125,-0.07275390625,1.000732421875,-0.14453125,-1.0070799589157104,-0.2441406100988388,0.5187987685203552,100.0,134435.0,1.0
15:37:30.440560,176859.96875,170862.90625,162291.375,202867.390625,165501.359375,163418.890625,686034.4375,161261.40625,-0.071533203125,1.00146484375,-0.14697265625,-1.0681151151657104,-0.3356933295726776,0.5187987685203552,100.0,134436.0,1.0
15:37:30.451673,176818.125,170850.390625,162281.09375,202866.953125,165494.921875,163403.953125,686028.0625,161266.953125,-0.07177734375,1.002197265625,-0.151123046875,-1.1596678495407104,-0.3051757514476776,0.6103515028953552,100.0,134437.0,1.0
15:37:30.457289,176790.5,170831.0,162265.09375,202869.453125,165484.546875,163384.90625,686072.1875,161269.28125,-0.069580078125,1.0009765625,-0.1494140625,-1.1291502714157104,-0.2746581733226776,0.7019042372703552,100.0,134438.0,1.0
15:37:30.457317,176837.09375,170842.796875,162275.1875,202871.234375,165491.515625,163399.578125,686026.75,161267.390625,-0.0703125,1.002197265625,-0.147216796875,-1.1596678495407104,-0.3356933295726776,0.6103515028953552,100.0,134439.0,1.0
15:37:30.459765,176862.484375,170857.640625,162287.0,202863.90625,165498.9375,163414.6875,686051.0625,161254.078125,-0.072998046875,1.001220703125,-0.147705078125,-1.0986326932907104,-0.3967284858226776,0.7629393935203552,100.0,134440.0,1.0
15:37:30.459785,176818.84375,170851.640625,162280.015625,202849.15625,165494.375,163408.6875,685998.5625,161252.203125,-0.072021484375,1.001220703125,-0.14794921875,-1.2207030057907104,-0.3967284858226776,0.9460448622703552,100.0,134441.0,1.0
15:37:30.469224,176790.5,170829.828125,162263.5625,202865.609375,165485.703125,163386.4375,686046.25,161265.078125,-0.070556640625,1.00146484375,-0.1484375,-1.1901854276657104,-0.3662109076976776,0.9765624403953552,100.0,134442.0,1.0
15:37:30.472389,176820.375,170836.171875,162268.84375,202873.5625,165488.484375,163395.109375,686007.375,161268.109375,-0.071044921875,0.999267578125,-0.144775390625,-1.2512205839157104,-0.3662109076976776,1.0681151151657104,100.0,134443.0,1.0
15:37:30.472404,176860.6875,170850.125,162279.390625,202865.78125,165495.28125,163409.3125,686044.1875,161257.203125,-0.0712890625,0.997802734375,-0.146484375,-1.3732908964157104,-0.3967284858226776,0.9460448622703552,100.0,134444.0,1.0
15:37:30.479161,176821.34375,170853.796875,162280.640625,202850.140625,165495.453125,163411.46875,686001.0625,161256.3125,-0.071044921875,0.99609375,-0.146484375,-1.3732908964157104,-0.2441406100988388,0.8850097060203552,100.0,134445.0,1.0
15:37:30.485972,176793.453125,170832.25,162265.09375,202861.9375,165486.609375,163388.40625,686061.25,161265.15625,-0.071044921875,0.996337890625,-0.149169921875,-1.3122557401657104,-0.2441406100988388,1.0375975370407104,100.0,134446.0,1.0
15:37:30.485984,176806.59375,170835.375,162265.890625,202862.296875,165486.609375,163393.9375,686005.125,161261.046875,-0.070556640625,0.995849609375,-0.14892578125,-1.1901854276657104,-0.3356933295726776,1.0070799589157104,100.0,134447.0,1.0
15:37:30.496073,176866.5,170855.046875,162281.0,202866.859375,165498.5,163412.8125,686044.25,161256.3125,-0.06982421875,0.99462890625,-0.146484375,-1.1291502714157104,-0.3051757514476776,1.0070799589157104,100.0,134448.0,1.0
15:37:30.496088,176832.34375,170859.515625,162288.0625,202857.5625,165503.859375,163419.25,686001.8125,161259.890625,-0.070068359375,0.995849609375,-0.148681640625,-1.1596678495407104,-0.3356933295726776,1.0681151151657104,100.0,134449.0,1.0
15:37:30.498536,176799.09375,170834.65625,162270.0,202864.359375,165493.03125,163391.265625,686045.375,161265.78125,-0.069580078125,0.993896484375,-0.146728515625,-1.2207030057907104,-0.3662109076976776,0.9765624403953552,100.0,134450.0,1.0
15:37:30.498553,176794.171875,170830.28125,162264.375,202863.375,165488.125,163388.3125,686009.375,161262.75,-0.06884765625,0.994384765625,-0.147705078125,-1.1596678495407104,-0.3662109076976776,0.9155272841453552,100.0,134451.0,1.0
15:37:30.505644,176859.609375,170846.28125,162277.0625,202865.875,165498.046875,163405.828125,686019.9375,161259.4375,-0.068359375,0.99462890625,-0.1484375,-1.0375975370407104,-0.3051757514476776,0.8544921278953552,100.0,134452.0,1.0
15:37:30.515621,176833.328125,170857.09375,162282.4375,202848.890625,165501.265625,163416.734375,686002.9375,161252.90625,-0.067138671875,0.994140625,-0.149169921875,-0.9765624403953552,-0.3356933295726776,0.8850097060203552,100.0,134453.0,1.0
15:37:30.518684,176799.453125,170838.0625,162268.125,202857.828125,165491.96875,163394.203125,686061.25,161261.9375,-0.066650390625,0.994873046875,-0.15185546875,-0.8239745497703552,-0.2746581733226776,0.8239745497703552,100.0,134454.0,1.0
15:37:30.518708,176783.4375,170828.765625,162259.453125,202863.546875,165484.359375,163385.1875,686034.8125,161264.0,-0.066162109375,0.99609375,-0.150146484375,-0.8239745497703552,-0.2441406100988388,0.8850097060203552,100.0,134455.0,1.0
15:37:30.520838,176848.625,170841.546875,162271.34375,202871.6875,165492.0625,163400.734375,686028.5625,161261.5,-0.066650390625,0.99560546875,-0.151123046875,-0.7629393935203552,-0.1831054538488388,0.7934569716453552,100.0,134456.0,1.0
15:37:30.534272,176833.0625,170847.625,162273.40625,202848.4375,165490.359375,163406.1875,686014.875,161246.296875,-0.068359375,0.994140625,-0.15283203125,-0.6408690810203552,-0.0610351525247097,0.6713866591453552,100.0,134457.0,1.0
15:37:30.537935,176793.453125,170831.4375,162260.34375,202845.40625,165482.578125,163387.59375,686040.0,161249.609375,-0.06640625,0.995361328125,-0.149658203125,-0.6103515028953552,0.03051757626235485,0.7629393935203552,100.0,134458.0,1.0
15:37:30.537947,176771.90625,170816.875,162251.671875,202857.375,165475.96875,163373.203125,686067.8125,161257.296875,-0.06787109375,0.995361328125,-0.15185546875,-0.5493163466453552,0.0610351525247097,0.7934569716453552,100.0,134459.0,1.0
15:37:30.537949,176833.421875,170831.984375,162264.640625,202859.4375,165484.09375,163390.1875,686015.0625,161250.046875,-0.0693359375,0.996826171875,-0.154541015625,-0.5187987685203552,0.1525878757238388,0.7019042372703552,100.0,134460.0,1.0
15:37:30.540568,176842.09375,170848.15625,162276.265625,202849.0625,165491.15625,163406.453125,686025.0625,161246.921875,-0.068359375,0.995361328125,-0.151611328125,-0.3967284858226776,0.0610351525247097,0.6103515028953552,100.0,134461.0,1.0
15:37:30.542928,176805.890625,170842.96875,162273.5,202857.640625,165492.234375,163399.65625,686021.3125,161263.015625,-0.068115234375,0.995361328125,-0.14892578125,-0.4272460639476776,0.1525878757238388,0.6713866591453552,100.0,134462.0,1.0
15:37:30.546689,176774.765625,170820.890625,162256.0625,202858.453125,165480.96875,163378.03125,686070.375,161257.65625,-0.068359375,0.9970703125,-0.151611328125,-0.3356933295726776,0.1220703050494194,0.6713866591453552,100.0,134463.0,1.0
15:37:30.556806,176820.90625,170831.078125,162263.125,202854.515625,165485.625,163390.71875,686018.625,161250.671875,-0.068359375,1.0,-0.15380859375,-0.3051757514476776,0.2136230319738388,0.6103515028953552,100.0,134464.0,1.0
15:37:30.559822,176847.71875,170847.4375,162275.28125,202849.78125,165494.46875,163408.15625,686044.875,161247.015625,-0.0693359375,0.999755859375,-0.153076171875,-0.2441406100988388,0.1831054538488388,0.5187987685203552,100.0,134465.0,1.0
15:37:30.559832,176803.109375,170842.53125,162270.453125,202838.78125,165491.34375,163401.265625,686015.1875,161247.640625,-0.0693359375,0.998291015625,-0.15283203125,-0.2441406100988388,0.1525878757238388,0.6103515028953552,100.0,134466.0,1.0
15:37:30.565524,176771.640625,170817.5,162251.859375,202848.703125,165478.90625,163374.0,686088.375,161251.21875,-0.0703125,0.99853515625,-0.150390625,-0.1220703050494194,0.0610351525247097,0.6408690810203552,100.0,134467.0,1.0
15:37:30.576482,176801.765625,170824.203125,162256.953125,202849.78125,165480.609375,163382.671875,686010.75,161249.34375,-0.072021484375,0.99853515625,-0.151123046875,-0.1525878757238388,0.0610351525247097,0.6713866591453552,100.0,134468.0,1.0
15:37:30.576554,176847.71875,170840.828125,162272.0625,202853.359375,165490.53125,163399.65625,686029.4375,161248.796875,-0.072021484375,1.0,-0.1494140625,-0.1525878757238388,-0.03051757626235485,0.6408690810203552,100.0,134469.0,1.0
15:37:30.578582,176813.75,170848.15625,162277.515625,202851.828125,165494.921875,163406.015625,686000.8125,161259.96875,-0.072509765625,1.0009765625,-0.1533203125,-0.2441406100988388,-0.03051757626235485,0.6103515028953552,100.0,134470.0,1.0
15:37:30.578637,176777.09375,170820.359375,162253.015625,202841.015625,165478.90625,163376.6875,686069.5,161253.265625,-0.07080078125,0.99951171875,-0.15283203125,-0.2746581733226776,-0.0915527269244194,0.5798339247703552,100.0,134471.0,1.0
15:37:30.604248,176785.953125,170819.375,162251.140625,202841.46875,165477.03125,163378.5625,686008.6875,161252.5625,-0.07275390625,0.9990234375,-0.150146484375,-0.2441406100988388,-0.1831054538488388,0.5493163466453552,100.0,134472.0,1.0
15:37:30.629906,176845.9375,170837.78125,162266.609375,202847.1875,165487.9375,163398.046875,686043.1875,161246.125,-0.07275390625,0.997314453125,-0.14990234375,-0.3051757514476776,-0.2136230319738388,0.5493163466453552,100.0,134473.0,1.0
15:37:30.629920,176813.296875,170847.625,162272.234375,202833.328125,165490.890625,163406.453125,686002.6875,161244.234375,-0.069091796875,0.998291015625,-0.152587890625,-0.3662109076976776,-0.1831054538488388,0.5187987685203552,100.0,134474.0,1.0
