Timestamp,Fz,FC3,FCz,FC4,Cz,C3,C4
15:43:34.696675,174521.625,168559.515625,157948.25,199179.984375,159819.8125,162697.546875,687200.9375,157995.375,-0.04345703125,1.00537109375,-0.108154296875,-1.8310545682907104,0.2136230319738388,0.7934569716453552,100.0,225541.0,1.0
15:43:34.696687,174472.0,168567.75,157953.4375,199172.203125,159822.578125,162705.859375,687198.3125,157993.9375,-0.041748046875,1.00537109375,-0.107666015625,-1.8615721464157104,0.2136230319738388,0.7019042372703552,100.0,225542.0,1.0
15:43:34.699116,174458.59375,168548.34375,157942.0,199190.53125,159817.125,162685.578125,687270.5,158007.4375,-0.04150390625,1.005859375,-0.107666015625,-1.9226073026657104,0.2441406100988388,0.6713866591453552,100.0,225543.0,1.0
15:43:34.699129,174453.046875,168542.53125,157935.28125,199181.40625,159810.59375,162681.28125,687252.875,157998.3125,-0.042236328125,1.004150390625,-0.1103515625,-1.8920897245407104,0.3356933295726776,0.6408690810203552,100.0,225544.0,1.0
15:43:34.700990,174518.765625,168553.625,157944.59375,199182.578125,159817.125,162694.25,687234.4375,157996.359375,-0.0419921875,1.004150390625,-0.108154296875,-1.7700194120407104,0.3356933295726776,0.7629393935203552,100.0,225545.0,1.0
15:43:34.705997,174478.0,168563.453125,157950.9375,199174.265625,159819.984375,162703.984375,687182.625,157994.46875,-0.04443359375,1.00390625,-0.108642578125,-1.8920897245407104,0.3356933295726776,0.7324218153953552,100.0,225546.0,1.0
15:43:34.708543,174460.203125,168548.796875,157940.828125,199185.25,159814.890625,162686.46875,687262.625,158005.65625,-0.04638671875,1.00390625,-0.106201171875,-1.8920897245407104,0.3967284858226776,0.6408690810203552,100.0,225547.0,1.0
15:43:34.711138,174448.046875,168542.4375,157935.5625,199187.671875,159810.953125,162679.9375,687255.1875,158002.703125,-0.04541015625,1.00390625,-0.105224609375,-1.8920897245407104,0.4272460639476776,0.6408690810203552,100.0,225548.0,1.0
15:43:34.713560,174517.15625,168557.109375,157948.703125,199191.78125,159820.4375,162695.5,687234.1875,158001.453125,-0.044189453125,1.004150390625,-0.107666015625,-1.7700194120407104,0.5493163466453552,0.6713866591453552,100.0,225549.0,1.0
15:43:34.716002,174487.203125,168566.3125,157952.640625,199170.40625,159819.8125,162705.234375,687185.4375,157990.71875,-0.045166015625,1.00390625,-0.108642578125,-1.7395018339157104,0.5493163466453552,0.6103515028953552,100.0,225550.0,1.0
15:43:34.718683,174458.234375,168552.1875,157942.625,199172.46875,159812.484375,162689.234375,687267.1875,157994.203125,-0.044189453125,1.004150390625,-0.109619140625,-1.6784666776657104,0.4577636420726776,0.5798339247703552,100.0,225551.0,1.0
15:43:34.721029,174444.28125,168541.375,157934.390625,199180.96875,159807.015625,162678.328125,687266.75,157996.703125,-0.042236328125,1.002685546875,-0.10986328125,-1.5563963651657104,0.3967284858226776,0.7019042372703552,100.0,225552.0,1.0
15:43:34.723686,174506.609375,168554.328125,157943.609375,199181.5,159813.734375,162693.96875,687229.1875,157994.828125,-0.04345703125,1.0029296875,-0.10888671875,-1.4953612089157104,0.4577636420726776,0.7934569716453552,100.0,225553.0,1.0
15:43:34.725975,174500.171875,168566.046875,157951.46875,199174.171875,159819.265625,162707.203125,687180.4375,157991.078125,-0.0439453125,1.003173828125,-0.107177734375,-1.4648436307907104,0.4272460639476776,0.8544921278953552,100.0,225554.0,1.0
15:43:34.728526,174465.921875,168562.5625,157949.59375,199184.625,159820.609375,162701.75,687243.875,158002.078125,-0.043212890625,1.0048828125,-0.109375,-1.4038084745407104,0.3356933295726776,0.8850097060203552,100.0,225555.0,1.0
15:43:34.731134,174451.4375,168546.5625,157939.046875,199195.53125,159815.0625,162685.03125,687263.875,158007.53125,-0.043701171875,1.004150390625,-0.10888671875,-1.3732908964157104,0.3356933295726776,0.7934569716453552,100.0,225556.0,1.0
15:43:34.734239,174491.5,168551.5625,157941.90625,199184.984375,159814.53125,162690.84375,687248.5625,157997.609375,-0.044677734375,1.00390625,-0.11083984375,-1.4343260526657104,0.3662109076976776,0.8239745497703552,100.0,225557.0,1.0
15:43:34.734288,174502.671875,168558.453125,157945.296875,199167.109375,159813.28125,162697.734375,687195.0,157983.5625,-0.04443359375,1.003662109375,-0.110595703125,-1.4648436307907104,0.3967284858226776,0.6408690810203552,100.0,225558.0,1.0
15:43:34.736058,174451.078125,168549.953125,157936.0,199158.875,159804.78125,162688.4375,687263.6875,157980.796875,-0.044677734375,1.005615234375,-0.111572265625,-1.4648436307907104,0.3662109076976776,0.6103515028953552,100.0,225559.0,1.0
15:43:34.739076,174436.953125,168529.390625,157922.765625,199177.65625,159796.921875,162666.078125,687277.9375,157994.125,-0.0439453125,1.0048828125,-0.1083984375,-1.4648436307907104,0.3356933295726776,0.6103515028953552,100.0,225560.0,1.0
15:43:34.739082,174469.765625,168538.953125,157930.28125,199180.34375,159802.28125,162678.234375,687247.625,157993.578125,-0.0439453125,1.00537109375,-0.107421875,-1.4038084745407104,0.2746581733226776,0.7019042372703552,100.0,225561.0,1.0
15:43:34.741655,174514.03125,168556.125,157944.671875,199181.671875,159812.03125,162696.203125,687204.3125,157990.265625,-0.045654296875,1.00439453125,-0.107421875,-1.3732908964157104,0.3356933295726776,0.7324218153953552,100.0,225562.0,1.0
15:43:34.741661,174459.671875,168558.453125,157942.265625,199162.640625,159809.796875,162699.609375,687212.4375,157984.1875,-0.043212890625,1.0048828125,-0.108154296875,-1.3427733182907104,0.2746581733226776,0.8239745497703552,100.0,225563.0,1.0
15:43:34.743602,174445.359375,168539.84375,157929.125,199175.78125,159803.0,162679.9375,687281.0625,157992.6875,-0.044189453125,1.003662109375,-0.10693359375,-1.4648436307907104,0.1831054538488388,0.7019042372703552,100.0,225564.0,1.0
15:43:34.751786,174456.53125,168541.734375,157929.828125,199179.359375,159802.734375,162682.53125,687259.9375,157991.875,-0.044677734375,1.006591796875,-0.108154296875,-1.3732908964157104,0.2136230319738388,0.8239745497703552,100.0,225565.0,1.0
15:43:34.751805,174513.9375,168555.234375,157940.921875,199177.921875,159810.515625,162695.765625,687219.625,157988.484375,-0.043701171875,1.007080078125,-0.109619140625,-1.4343260526657104,0.1831054538488388,0.7934569716453552,100.0,225566.0,1.0
15:43:34.753530,174466.1875,168563.984375,157946.015625,199169.34375,159814.53125,162705.59375,687194.9375,157988.9375,-0.04296875,1.006591796875,-0.110107421875,-1.4953612089157104,0.2136230319738388,0.7019042372703552,100.0,225567.0,1.0
15:43:34.757310,174453.140625,168547.359375,157935.375,199184.546875,159809.265625,162686.28125,687281.6875,158000.015625,-0.0439453125,1.0078125,-0.111083984375,-1.3732908964157104,0.1525878757238388,0.6408690810203552,100.0,225568.0,1.0
15:43:34.767841,174452.515625,168546.203125,157934.21875,199188.5625,159807.375,162685.65625,687257.6875,158000.28125,-0.0419921875,1.007568359375,-0.111328125,-1.3732908964157104,0.1220703050494194,0.7324218153953552,100.0,225569.0,1.0
15:43:34.767853,174524.9375,168564.34375,157951.5625,199197.953125,159818.921875,162703.359375,687226.6875,158005.03125,-0.041015625,1.006591796875,-0.1123046875,-1.3732908964157104,0.1220703050494194,0.6713866591453552,100.0,225570.0,1.0
15:43:34.769826,174481.5625,168571.59375,157953.4375,199179.0,159818.734375,162710.78125,687195.125,157994.921875,-0.041259765625,1.00732421875,-0.111083984375,-1.2512205839157104,0.0915527269244194,0.7324218153953552,100.0,225571.0,1.0
15:43:34.774710,174458.59375,168552.90625,157939.578125,199180.15625,159810.421875,162691.109375,687284.1875,157998.046875,-0.0439453125,1.006103515625,-0.111083984375,-1.3427733182907104,0.0,0.7629393935203552,100.0,225572.0,1.0
15:43:34.784086,174444.203125,168543.875,157931.078125,199182.390625,159803.625,162683.0625,687266.9375,157995.640625,-0.042236328125,1.006103515625,-0.10986328125,-1.4648436307907104,0.0610351525247097,0.7324218153953552,100.0,225573.0,1.0
15:43:34.784104,174511.875,168555.765625,157942.890625,199184.984375,159809.890625,162697.1875,687214.25,157992.515625,-0.042724609375,1.00732421875,-0.10986328125,-1.5869139432907104,0.0610351525247097,0.6408690810203552,100.0,225574.0,1.0
15:43:34.786743,174487.5625,168567.828125,157950.21875,199172.5625,159813.28125,162708.09375,687181.6875,157985.09375,-0.043701171875,1.005615234375,-0.10791015625,-1.4953612089157104,0.0610351525247097,0.5493163466453552,100.0,225575.0,1.0
15:43:34.786810,174465.65625,168559.4375,157946.015625,199182.484375,159813.109375,162697.109375,687266.8125,157996.359375,-0.04248046875,1.0048828125,-0.11083984375,-1.5869139432907104,0.0915527269244194,0.4882812201976776,100.0,225576.0,1.0
15:43:34.813527,174453.40625,168548.171875,157940.46875,199200.09375,159810.78125,162685.03125,687252.9375,158007.890625,-0.041748046875,1.00439453125,-0.106201171875,-1.5563963651657104,0.0610351525247097,0.5798339247703552,100.0,225577.0,1.0
15:43:34.816174,174509.640625,168558.359375,157946.640625,199193.03125,159815.15625,162697.28125,687223.25,157999.65625,-0.04248046875,1.005615234375,-0.108642578125,-1.5563963651657104,0.1220703050494194,0.5798339247703552,100.0,225578.0,1.0
15:43:34.818587,174502.140625,168569.796875,157951.828125,199175.59375,159817.390625,162708.734375,687177.625,157988.3125,-0.0419921875,1.00537109375,-0.108154296875,-1.4343260526657104,0.0915527269244194,0.5493163466453552,100.0,225579.0,1.0
15:43:34.821023,174465.921875,168561.046875,157945.296875,199179.796875,159811.671875,162698.53125,687262.4375,157993.140625,-0.041015625,1.003173828125,-0.10791015625,-1.5258787870407104,0.0915527269244194,0.5493163466453552,100.0,225580.0,1.0
15:43:34.823534,174452.78125,168546.015625,157936.1875,199194.46875,159806.671875,162681.90625,687269.125,158001.0,-0.040283203125,1.003662109375,-0.110595703125,-1.4343260526657104,0.1831054538488388,0.5187987685203552,100.0,225581.0,1.0
15:43:34.826019,174499.8125,168558.0,157945.5625,199190.53125,159814.09375,162696.65625,687244.5,157998.5,-0.040771484375,1.001220703125,-0.1103515625,-1.4038084745407104,0.1831054538488388,0.4577636420726776,100.0,225582.0,1.0
15:43:34.829084,174524.125,168576.59375,157961.21875,199188.46875,159824.375,162714.359375,687189.1875,157997.421875,-0.04052734375,1.0009765625,-0.11181640625,-1.4343260526657104,0.2136230319738388,0.5798339247703552,100.0,225583.0,1.0
15:43:34.831010,174482.546875,168577.84375,157963.625,199188.921875,159827.046875,162713.46875,687221.3125,158004.84375,-0.042236328125,0.999267578125,-0.11279296875,-1.4343260526657104,0.2136230319738388,0.4577636420726776,100.0,225584.0,1.0
15:43:34.844921,174472.1875,168560.234375,157954.25,199207.78125,159822.84375,162693.4375,687269.5625,158017.09375,-0.043701171875,1.002685546875,-0.111083984375,-1.4953612089157104,0.1220703050494194,0.4577636420726776,100.0,225585.0,1.0
15:43:34.844999,174505.796875,168568.8125,157960.671875,199214.046875,159825.53125,162701.84375,687244.0,158017.984375,-0.04443359375,1.002197265625,-0.11181640625,-1.4343260526657104,0.1220703050494194,0.3967284858226776,100.0,225586.0,1.0
15:43:34.855383,174547.828125,168584.828125,157971.046875,199205.46875,159832.421875,162716.78125,687201.625,158009.578125,-0.0439453125,1.003662109375,-0.111083984375,-1.4648436307907104,0.0,0.3356933295726776,100.0,225587.0,1.0
15:43:34.855407,174493.90625,168589.109375,157972.84375,199195.625,159834.296875,162720.703125,687215.75,158009.671875,-0.044189453125,1.00390625,-0.111328125,-1.4648436307907104,0.03051757626235485,0.2746581733226776,100.0,225588.0,1.0
15:43:34.860787,174480.9375,168565.59375,157957.46875,199206.4375,159824.90625,162696.484375,687272.875,158016.296875,-0.0439453125,1.00439453125,-0.1103515625,-1.4038084745407104,0.0915527269244194,0.2136230319738388,100.0,225589.0,1.0
15:43:34.860828,174492.65625,168566.84375,157958.625,199208.140625,159824.28125,162699.078125,687235.6875,158013.78125,-0.04443359375,1.005615234375,-0.1103515625,-1.4038084745407104,0.03051757626235485,0.2136230319738388,100.0,225590.0,1.0
15:43:34.860838,174555.0625,168584.109375,157972.578125,199213.421875,159833.484375,162715.609375,687193.4375,158014.140625,-0.046875,1.006591796875,-0.11328125,-1.3427733182907104,-0.0610351525247097,0.2441406100988388,100.0,225591.0,1.0
15:43:34.860845,174504.640625,168590.984375,157974.265625,199202.25,159832.953125,162722.140625,687203.625,158010.125,-0.045654296875,1.00537109375,-0.1103515625,-1.3122557401657104,-0.2136230319738388,0.0610351525247097,100.0,225592.0,1.0
15:43:34.860853,174488.09375,168571.140625,157960.140625,199208.234375,159826.328125,162701.9375,687286.3125,158017.28125,-0.046875,1.0078125,-0.11083984375,-1.2512205839157104,-0.1220703050494194,0.0915527269244194,100.0,225593.0,1.0
15:43:34.867269,174482.46875,168566.5,157955.5,199210.734375,159822.484375,162699.515625,687259.875,158018.4375,-0.0458984375,1.007080078125,-0.109619140625,-1.2817381620407104,-0.1831054538488388,0.03051757626235485,100.0,225594.0,1.0
15:43:34.867290,174544.78125,168575.796875,157962.5625,199206.0,159825.171875,162709.890625,687219.0625,158010.84375,-0.048095703125,1.007080078125,-0.10986328125,-1.2817381620407104,-0.2136230319738388,0.0610351525247097,100.0,225595.0,1.0
15:43:34.877971,174497.21875,168581.875,157964.078125,199189.1875,159825.0,162716.140625,687191.125,158000.828125,-0.05126953125,1.005859375,-0.109375,-1.2512205839157104,-0.3356933295726776,0.0915527269244194,100.0,225596.0,1.0
15:43:34.877993,174478.078125,168565.15625,157952.984375,199201.609375,159821.0625,162697.8125,687275.125,158010.5625,-0.04931640625,1.009033203125,-0.11083984375,-1.3122557401657104,-0.3662109076976776,-0.0915527269244194,100.0,225597.0,1.0
15:43:34.884239,174468.515625,168557.546875,157947.984375,199210.203125,159818.828125,162690.84375,687261.25,158014.953125,-0.0517578125,1.011474609375,-0.107666015625,-1.3732908964157104,-0.4272460639476776,-0.1525878757238388,100.0,225598.0,1.0
15:43:34.884258,174533.78125,168569.359375,157957.8125,199205.546875,159826.15625,162704.796875,687218.0,158011.46875,-0.050537109375,1.010009765625,-0.10986328125,-1.5563963651657104,-0.6713866591453552,-0.2441406100988388,100.0,225599.0,1.0
15:43:34.886770,174506.15625,168578.296875,157963.625,199196.34375,159828.84375,162713.90625,687183.0625,158007.4375,-0.0517578125,1.010498046875,-0.110595703125,-1.5258787870407104,-0.7629393935203552,-0.3051757514476776,100.0,225600.0,1.0
15:43:34.886787,174470.3125,168560.859375,157949.140625,199190.984375,159819.265625,162695.140625,687266.5625,158005.03125,-0.051513671875,1.0087890625,-0.111572265625,-1.6174315214157104,-0.8850097060203552,-0.3051757514476776,100.0,225601.0,1.0
15:43:34.901216,174453.3125,168545.65625,157937.875,199197.140625,159811.9375,162680.5625,687255.4375,158007.265625,-0.05078125,1.008056640625,-0.11181640625,-1.6479490995407104,-0.9460448622703552,-0.3051757514476776,100.0,225602.0,1.0
15:43:34.904437,174514.03125,168560.6875,157947.453125,199198.125,159818.203125,162696.203125,687236.9375,158005.65625,-0.049560546875,1.007080078125,-0.110107421875,-1.4953612089157104,-1.0070799589157104,-0.1525878757238388,100.0,225603.0,1.0
15:43:34.904456,174506.875,168573.734375,157955.765625,199188.75,159821.859375,162709.796875,687191.125,157998.953125,-0.047119140625,1.00634765625,-0.109619140625,-1.6174315214157104,-1.0375975370407104,-0.2136230319738388,100.0,225604.0,1.0
15:43:34.906264,174466.90625,168564.609375,157947.625,199183.109375,159816.765625,162700.59375,687266.8125,157999.484375,-0.045654296875,1.0068359375,-0.110595703125,-1.6784666776657104,-1.0681151151657104,-0.03051757626235485,100.0,225605.0,1.0
15:43:34.910348,174449.109375,168546.109375,157933.671875,199189.71875,159807.46875,162681.640625,687284.4375,158000.734375,-0.045166015625,1.007080078125,-0.11181640625,-1.7395018339157104,-1.1291502714157104,0.03051757626235485,100.0,225606.0,1.0
15:43:34.920455,174494.359375,168556.125,157942.625,199192.5,159813.90625,162693.34375,687249.375,158001.71875,-0.043212890625,1.006591796875,-0.11279296875,-1.7700194120407104,-1.0986326932907104,0.2441406100988388,100.0,225607.0,1.0
15:43:34.920501,174514.203125,168572.9375,157956.828125,199189.453125,159826.25,162711.40625,687195.125,158002.078125,-0.043212890625,1.007080078125,-0.109619140625,-1.8920897245407104,-1.0375975370407104,0.2441406100988388,100.0,225608.0,1.0
15:43:34.922935,174469.765625,168573.5625,157957.8125,199187.578125,159828.484375,162711.3125,687243.875,158006.71875,-0.04248046875,1.00732421875,-0.108154296875,-1.8920897245407104,-1.0375975370407104,0.4577636420726776,100.0,225609.0,1.0
15:43:34.922946,174458.859375,168555.234375,157947.171875,199201.703125,159823.46875,162690.671875,687285.25,158015.75,-0.042724609375,1.0068359375,-0.109375,-1.8615721464157104,-0.8850097060203552,0.5798339247703552,100.0,225610.0,1.0
15:43:34.933650,174486.578125,168560.59375,157951.109375,199199.65625,159825.171875,162698.71875,687245.5625,158012.625,-0.04296875,1.007568359375,-0.10791015625,-1.9531248807907104,-0.8544921278953552,0.7934569716453552,100.0,225611.0,1.0
15:43:34.937856,174524.9375,168573.734375,157961.03125,199193.75,159831.25,162713.015625,687195.1875,158008.328125,-0.042724609375,1.00634765625,-0.10986328125,-2.105712652206421,-0.8239745497703552,0.7629393935203552,100.0,225612.0,1.0
15:43:34.937869,174470.84375,168575.171875,157958.171875,199177.125,159826.875,162714.265625,687228.3125,158000.28125,-0.044189453125,1.00537109375,-0.1083984375,-2.166747808456421,-0.8544921278953552,0.8239745497703552,100.0,225613.0,1.0
15:43:34.947300,174458.40625,168552.640625,157942.0,199189.90625,159816.40625,162690.390625,687297.25,158004.125,-0.043701171875,1.00634765625,-0.107666015625,-2.197265386581421,-0.7629393935203552,0.9155272841453552,100.0,225614.0,1.0
15:43:34.951733,174467.0,168555.046875,157942.796875,199196.796875,159816.40625,162693.4375,687262.4375,158005.109375,-0.044189453125,1.006591796875,-0.108154296875,-2.136230230331421,-0.7629393935203552,0.8544921278953552,100.0,225615.0,1.0
15:43:34.951752,174522.96875,168568.28125,157951.203125,199183.015625,159820.609375,162707.296875,687214.0,157992.78125,-0.044189453125,1.005126953125,-0.107177734375,-2.166747808456421,-0.6713866591453552,0.7019042372703552,100.0,225616.0,1.0
15:43:34.962961,174472.265625,168574.0,157953.609375,199170.859375,159820.078125,162713.203125,687201.5625,157989.109375,-0.042724609375,1.004150390625,-0.108154296875,-2.227782964706421,-0.6103515028953552,0.7019042372703552,100.0,225617.0,1.0
15:43:34.962989,174457.96875,168553.890625,157941.71875,199187.3125,159814.0,162691.296875,687297.75,158001.71875,-0.042236328125,1.004150390625,-0.108154296875,-2.258300542831421,-0.5187987685203552,0.5798339247703552,100.0,225618.0,1.0
15:43:34.965957,174455.1875,168550.84375,157938.421875,199189.71875,159810.59375,162689.421875,687263.1875,158001.09375,-0.043212890625,1.001220703125,-0.108154296875,-2.258300542831421,-0.4272460639476776,0.4272460639476776,100.0,225619.0,1.0
15:43:34.965976,174521.796875,168564.96875,157948.609375,199186.5,159816.59375,162703.09375,687219.0,157994.46875,-0.041259765625,1.00341796875,-0.109375,-2.136230230331421,-0.4272460639476776,0.5187987685203552,100.0,225620.0,1.0
15:43:34.967329,174476.734375,168572.65625,157952.0,199169.078125,159816.40625,162710.34375,687187.6875,157985.53125,-0.040771484375,1.00341796875,-0.106689453125,-2.136230230331421,-0.3967284858226776,0.4577636420726776,100.0,225621.0,1.0
15:43:34.979826,174460.5625,168557.375,157943.0625,199180.96875,159812.03125,162692.640625,687261.5625,157994.921875,-0.039306640625,1.004638671875,-0.1103515625,-2.105712652206421,-0.2136230319738388,0.3967284858226776,100.0,225622.0,1.0
15:43:34.982928,174450.28125,168551.296875,157938.328125,199190.703125,159809.265625,162687.265625,687249.1875,157997.6875,-0.036865234375,1.00341796875,-0.110595703125,-2.136230230331421,-0.1220703050494194,0.5187987685203552,100.0,225623.0,1.0
15:43:34.982957,174516.890625,168564.609375,157947.359375,199185.171875,159815.0625,162702.375,687241.0,157991.171875,-0.037353515625,1.004150390625,-0.10791015625,-2.075195074081421,0.0915527269244194,0.5493163466453552,100.0,225624.0,1.0
15:43:34.984781,174489.265625,168576.421875,157953.171875,199171.21875,159817.84375,162713.375,687186.875,157983.390625,-0.038818359375,1.002685546875,-0.110107421875,-2.075195074081421,0.1831054538488388,0.4882812201976776,100.0,225625.0,1.0
15:43:34.995455,174462.796875,168564.53125,157946.46875,199181.40625,159813.734375,162699.078125,687265.9375,157994.03125,-0.0380859375,1.003173828125,-0.108642578125,-2.075195074081421,0.2441406100988388,0.3967284858226776,100.0,225626.0,1.0
15:43:34.995466,174445.09375,168547.625,157934.21875,199184.71875,159804.15625,162681.546875,687269.3125,157993.046875,-0.03857421875,1.00244140625,-0.110595703125,-2.014159917831421,0.4272460639476776,0.4272460639476776,100.0,225627.0,1.0
15:43:34.997239,174503.03125,168557.734375,157941.546875,199183.46875,159808.28125,162692.28125,687225.5,157991.796875,-0.0400390625,1.0009765625,-0.110107421875,-1.8920897245407104,0.6103515028953552,0.4577636420726776,100.0,225628.0,1.0
15:43:35.001050,174497.3125,168568.1875,157947.359375,199173.625,159811.3125,162703.90625,687175.8125,157984.28125,-0.042236328125,1.001220703125,-0.108154296875,-1.8310545682907104,0.6408690810203552,0.4882812201976776,100.0,225629.0,1.0
15:43:35.011182,174458.0625,168560.234375,157940.46875,199168.71875,159807.375,162695.5,687270.25,157983.125,-0.0419921875,1.00341796875,-0.108154296875,-1.7395018339157104,0.6408690810203552,0.4577636420726776,100.0,225630.0,1.0
15:43:35.019744,174440.625,168543.78125,157928.3125,199178.015625,159800.5,162678.5,687274.6875,157986.421875,-0.0419921875,1.003662109375,-0.110595703125,-1.6784666776657104,0.6713866591453552,0.5187987685203552,100.0,225631.0,1.0
15:43:35.019772,174486.3125,168553.96875,157937.171875,199184.8125,159806.9375,162690.578125,687231.9375,157988.3125,-0.04345703125,1.003173828125,-0.108154296875,-1.6479490995407104,0.7629393935203552,0.5187987685203552,100.0,225632.0,1.0
15:43:35.019776,174506.328125,168569.796875,157948.78125,199177.828125,159814.796875,162706.21875,687176.0,157984.734375,-0.04443359375,1.0029296875,-0.1083984375,-1.5563963651657104,0.8544921278953552,0.5798339247703552,100.0,225633.0,1.0
15:43:35.065355,174455.46875,168563.984375,157941.71875,199163.265625,159810.234375,162700.046875,687241.625,157981.78125,-0.04736328125,1.00537109375,-0.10546875,-1.4648436307907104,0.7324218153953552,0.7019042372703552,100.0,225634.0,1.0
15:43:35.065376,174438.65625,168538.0625,157923.3125,199173.625,159797.546875,162673.140625,687292.125,157985.984375,-0.049560546875,1.00634765625,-0.10888671875,-1.4953612089157104,0.6713866591453552,0.5493163466453552,100.0,225635.0,1.0
15:43:35.067248,174464.40625,168543.421875,157925.546875,199173.09375,159799.0625,162681.09375,687249.9375,157984.640625,-0.050048828125,1.00634765625,-0.110595703125,-1.4648436307907104,0.6713866591453552,0.5798339247703552,100.0,225636.0,1.0
15:43:35.069786,174503.46875,168556.84375,157936.8125,199170.59375,159807.203125,162696.484375,687197.0,157980.890625,-0.050048828125,1.008544921875,-0.109375,-1.4648436307907104,0.5187987685203552,0.5798339247703552,100.0,225637.0,1.0
15:43:35.072235,174449.828125,168556.484375,157933.765625,199156.90625,159803.71875,162695.3125,687224.875,157976.5,-0.049072265625,1.009521484375,-0.109375,-1.5258787870407104,0.5798339247703552,0.5493163466453552,100.0,225638.0,1.0
15:43:35.074786,174437.140625,168534.9375,157919.640625,199168.984375,159795.578125,162671.4375,687285.75,157984.109375,-0.050537109375,1.009033203125,-0.10791015625,-1.5258787870407104,0.4882812201976776,0.6408690810203552,100.0,225639.0,1.0
15:43:35.080528,174449.46875,168540.5625,157923.125,199172.5625,159797.09375,162678.0625,687257.4375,157983.203125,-0.052001953125,1.00927734375,-0.10791015625,-1.6479490995407104,0.4272460639476776,0.6103515028953552,100.0,225640.0,1.0
15:43:35.080547,174507.046875,168555.9375,157935.828125,199171.75,159804.875,162694.78125,687215.875,157979.640625,-0.052001953125,1.009765625,-0.107421875,-1.5869139432907104,0.3051757514476776,0.4272460639476776,100.0,225641.0,1.0
15:43:35.082298,174457.078125,168562.65625,157939.125,199162.90625,159806.125,162704.171875,687198.625,157976.6875,-0.052490234375,1.00732421875,-0.105224609375,-1.4648436307907104,0.2136230319738388,0.4577636420726776,100.0,225642.0,1.0
15:43:35.085950,174444.375,168542.796875,157926.53125,199178.546875,159800.046875,162683.0625,687288.75,157986.703125,-0.052978515625,1.006591796875,-0.104736328125,-1.4953612089157104,0.1220703050494194,0.5187987685203552,100.0,225643.0,1.0
15:43:35.087254,174436.421875,168535.828125,157919.28125,199169.34375,159793.171875,162676.546875,687261.75,157977.671875,-0.0517578125,1.006103515625,-0.10595703125,-1.5869139432907104,0.0610351525247097,0.5493163466453552,100.0,225644.0,1.0
15:43:35.089775,174505.4375,168550.21875,157932.78125,199174.078125,159802.109375,162692.1875,687213.0,157978.203125,-0.0517578125,1.005126953125,-0.108154296875,-1.5258787870407104,0.0,0.5187987685203552,100.0,225645.0,1.0
15:43:35.092308,174465.484375,168560.953125,157940.296875,199169.078125,159806.578125,162703.625,687192.4375,157981.953125,-0.051513671875,1.00537109375,-0.110107421875,-1.5869139432907104,-0.0915527269244194,0.4882812201976776,100.0,225646.0,1.0
15:43:35.095319,174444.46875,168544.328125,157926.890625,199167.90625,159798.53125,162684.765625,687277.8125,157982.140625,-0.0498046875,1.00537109375,-0.1103515625,-1.6174315214157104,-0.1220703050494194,0.5798339247703552,100.0,225647.0,1.0
15:43:35.095324,174431.59375,168536.09375,157919.46875,199171.390625,159792.984375,162677.171875,687261.75,157980.171875,-0.050537109375,1.0068359375,-0.1103515625,-1.6174315214157104,-0.2746581733226776,0.5798339247703552,100.0,225648.0,1.0
15:43:35.097270,174500.875,168550.84375,157931.984375,199176.765625,159802.109375,162692.71875,687231.9375,157981.15625,-0.0498046875,1.00830078125,-0.1103515625,-1.5258787870407104,-0.3356933295726776,0.7019042372703552,100.0,225649.0,1.0
15:43:35.100383,174477.015625,168564.265625,157940.5625,199169.96875,159807.65625,162705.59375,687182.75,157979.546875,-0.048583984375,1.007080078125,-0.110595703125,-1.5563963651657104,-0.3662109076976776,0.7629393935203552,100.0,225650.0,1.0
15:43:35.100406,174448.9375,168554.0625,157933.5,199169.96875,159804.78125,162695.046875,687266.9375,157985.359375,-0.046630859375,1.00390625,-0.111083984375,-1.4953612089157104,-0.4272460639476776,0.7934569716453552,100.0,225651.0,1.0
15:43:35.102468,174436.515625,168542.796875,157928.046875,199182.484375,159801.296875,162683.609375,687260.9375,157991.53125,-0.045654296875,1.00537109375,-0.107666015625,-1.4953612089157104,-0.3967284858226776,0.8544921278953552,100.0,225652.0,1.0
15:43:35.105354,174496.59375,168553.53125,157938.78125,199184.265625,159806.84375,162694.875,687241.25,157990.453125,-0.044921875,1.003173828125,-0.109619140625,-1.4953612089157104,-0.4577636420726776,0.9155272841453552,100.0,225653.0,1.0
15:43:35.105366,174495.703125,168569.09375,157952.09375,199179.4375,159816.40625,162710.609375,687187.0,157989.46875,-0.045166015625,1.003173828125,-0.109375,-1.4953612089157104,-0.4272460639476776,0.8239745497703552,100.0,225654.0,1.0
15:43:35.107324,174462.34375,168567.65625,157952.453125,199184.359375,159819.359375,162708.09375,687259.5,157997.6875,-0.046142578125,1.004150390625,-0.112548828125,-1.5258787870407104,-0.3662109076976776,0.7629393935203552,100.0,225655.0,1.0
15:43:35.118332,174449.46875,168551.203125,157941.8125,199199.5625,159813.453125,162690.125,687280.5625,158006.640625,-0.047119140625,1.004638671875,-0.108642578125,-1.4343260526657104,-0.3967284858226776,0.7324218153953552,100.0,225656.0,1.0
15:43:35.118418,174496.140625,168562.109375,157950.9375,199200.1875,159819.546875,162702.375,687255.3125,158005.203125,-0.045654296875,1.003662109375,-0.105712890625,-1.4953612089157104,-0.3662109076976776,0.6408690810203552,100.0,225657.0,1.0
15:43:35.124156,174515.453125,168574.71875,157960.328125,199194.46875,159825.171875,162714.984375,687196.875,157999.296875,-0.046142578125,1.002685546875,-0.10888671875,-1.4648436307907104,-0.3967284858226776,0.4577636420726776,100.0,225658.0,1.0
15:43:35.124196,174469.5,168571.5,157958.53125,199191.328125,159823.828125,162710.0625,687236.4375,158003.859375,-0.0458984375,1.002197265625,-0.112060546875,-1.4648436307907104,-0.4577636420726776,0.3662109076976776,100.0,225659.0,1.0
15:43:35.129394,174458.59375,168551.296875,157945.84375,199206.796875,159816.953125,162688.875,687279.0,158012.984375,-0.045654296875,1.004638671875,-0.110107421875,-1.5258787870407104,-0.3967284858226776,0.3967284858226776,100.0,225660.0,1.0
15:43:35.129475,174479.78125,168553.703125,157945.390625,199197.859375,159814.171875,162693.96875,687245.8125,158004.40625,-0.04443359375,1.00537109375,-0.108154296875,-1.4038084745407104,-0.3967284858226776,0.1831054538488388,100.0,225661.0,1.0
15:43:35.134929,174522.609375,168568.8125,157957.640625,199195.984375,159821.59375,162708.28125,687200.3125,158001.8125,-0.04296875,1.00830078125,-0.109619140625,-1.3427733182907104,-0.3051757514476776,0.2441406100988388,100.0,225662.0,1.0
15:43:35.142891,174469.5,168572.21875,157958.265625,199186.421875,159821.5,162710.96875,687231.6875,158001.984375,-0.0419921875,1.0078125,-0.109130859375,-1.4953612089157104,-0.3051757514476776,0.2136230319738388,100.0,225663.0,1.0
15:43:35.142900,174458.40625,168551.109375,157944.671875,199199.03125,159813.640625,162687.890625,687284.625,158010.65625,-0.04296875,1.0078125,-0.109375,-1.4953612089157104,-0.3051757514476776,0.3662109076976776,100.0,225664.0,1.0
15:43:35.144858,174470.125,168554.15625,157947.625,199198.484375,159814.984375,162693.265625,687249.5625,158006.09375,-0.04296875,1.00927734375,-0.110595703125,-1.5563963651657104,-0.2136230319738388,0.5187987685203552,100.0,225665.0,1.0
15:43:35.160420,174527.171875,168568.109375,157957.46875,199194.203125,159821.421875,162707.296875,687209.875,157999.03125,-0.04296875,1.0087890625,-0.111572265625,-1.6174315214157104,-0.1831054538488388,0.5493163466453552,100.0,225666.0,1.0
15:43:35.160455,174473.515625,168573.28125,157957.90625,199179.265625,159819.1875,162712.578125,687200.75,157992.515625,-0.042724609375,1.0068359375,-0.11181640625,-1.6479490995407104,-0.0610351525247097,0.6103515028953552,100.0,225667.0,1.0
15:43:35.167672,174460.5625,168555.765625,157947.265625,199192.40625,159813.640625,162694.59375,687279.4375,158002.34375,-0.0400390625,1.006103515625,-0.111572265625,-1.6174315214157104,0.0915527269244194,0.6408690810203552,100.0,225668.0,1.0
15:43:35.167692,174456.796875,168553.0,157944.046875,199196.796875,159811.9375,162693.796875,687257.6875,158001.890625,-0.04052734375,1.005859375,-0.11181640625,-1.7089842557907104,0.0610351525247097,0.7019042372703552,100.0,225669.0,1.0
15:43:35.171634,174523.59375,168566.84375,157954.25,199197.765625,159818.734375,162708.015625,687217.125,158000.375,-0.043701171875,1.005615234375,-0.1123046875,-1.6784666776657104,0.03051757626235485,0.6713866591453552,100.0,225670.0,1.0
15:43:35.176200,174477.640625,168573.734375,157955.140625,199176.5,159817.390625,162714.984375,687193.125,157989.015625,-0.04345703125,1.007568359375,-0.111572265625,-1.6784666776657104,0.2136230319738388,0.7324218153953552,100.0,225671.0,1.0
15:43:35.176240,174456.890625,168555.40625,157942.625,199185.796875,159810.515625,162695.140625,687285.0,157996.703125,-0.04345703125,1.009033203125,-0.112060546875,-1.8005369901657104,0.3356933295726776,0.8544921278953552,100.0,225672.0,1.0
15:43:35.176257,174442.40625,168542.265625,157932.34375,199189.453125,159801.390625,162682.703125,687263.6875,157995.28125,-0.044189453125,1.010498046875,-0.10986328125,-1.9226073026657104,0.3051757514476776,0.8239745497703552,100.0,225673.0,1.0
15:43:35.178973,174506.6875,168554.421875,157940.390625,199187.21875,159805.953125,162695.3125,687235.625,157990.625,-0.04248046875,1.01025390625,-0.109619140625,-1.9531248807907104,0.3967284858226776,0.7629393935203552,100.0,225674.0,1.0
15:43:35.186149,174479.78125,168566.671875,157944.9375,199171.84375,159808.0,162706.9375,687179.5,157981.421875,-0.04296875,1.008056640625,-0.1083984375,-2.075195074081421,0.3662109076976776,0.8544921278953552,100.0,225675.0,1.0
15:43:35.194095,174454.03125,168557.546875,157940.390625,199184.71875,159807.109375,162696.65625,687252.0,157994.125,-0.04345703125,1.00732421875,-0.109375,-2.075195074081421,0.4577636420726776,0.8544921278953552,100.0,225676.0,1.0
15:43:35.194129,174436.859375,168542.53125,157927.875,199186.5,159798.078125,162681.09375,687261.25,157993.9375,-0.044189453125,1.00830078125,-0.107177734375,-2.197265386581421,0.4882812201976776,0.9460448622703552,100.0,225677.0,1.0
15:43:35.196655,174492.75,168551.828125,157935.28125,199183.375,159800.3125,162691.375,687233.3125,157988.9375,-0.044677734375,1.00830078125,-0.109375,-2.288818120956421,0.4272460639476776,0.8850097060203552,100.0,225678.0,1.0
15:43:35.208539,174490.15625,168564.171875,157944.234375,199173.625,159805.234375,162704.609375,687179.3125,157981.0625,-0.04541015625,1.009765625,-0.10791015625,-2.258300542831421,0.5187987685203552,0.7629393935203552,100.0,225679.0,1.0
15:43:35.216097,174452.515625,168559.25,157939.84375,199175.234375,159803.625,162698.625,687256.875,157986.078125,-0.043701171875,1.009765625,-0.10888671875,-2.319335699081421,0.4882812201976776,0.7324218153953552,100.0,225680.0,1.0
15:43:35.216110,174434.546875,168537.890625,157923.75,199182.125,159793.078125,162677.703125,687289.0625,157987.59375,-0.044189453125,1.009521484375,-0.1083984375,-2.532958745956421,0.6408690810203552,0.7324218153953552,100.0,225681.0,1.0
15:43:35.216111,174478.34375,168545.484375,157929.65625,199185.171875,159796.03125,162686.46875,687257.875,157988.84375,-0.044189453125,1.0087890625,-0.1083984375,-2.502441167831421,0.5187987685203552,0.7629393935203552,100.0,225682.0,1.0
15:43:35.219500,174495.421875,168556.5625,157938.859375,199177.828125,159800.765625,162698.71875,687203.1875,157985.625,-0.044189453125,1.008544921875,-0.10595703125,-2.593993902206421,0.4882812201976776,0.7324218153953552,100.0,225683.0,1.0
15:43:35.219614,174443.84375,168553.078125,157933.671875,199162.640625,159796.5625,162695.671875,687232.875,157977.75,-0.041748046875,1.00634765625,-0.10595703125,-2.685546636581421,0.5798339247703552,0.8544921278953552,100.0,225684.0,1.0
15:43:35.228525,174434.453125,168536.1875,157920.890625,199176.3125,159790.21875,162676.984375,687288.0,157983.390625,-0.043212890625,1.007568359375,-0.109375,-2.624511480331421,0.7324218153953552,0.8544921278953552,100.0,225685.0,1.0
15:43:35.232868,174461.09375,168543.15625,157926.171875,199178.90625,159791.640625,162684.859375,687251.0,157982.859375,-0.04296875,1.00537109375,-0.1103515625,-2.655029058456421,0.8239745497703552,0.7934569716453552,100.0,225686.0,1.0
15:43:35.232875,174502.765625,168556.125,157935.5625,199174.703125,159797.1875,162697.46875,687197.0625,157977.9375,-0.041259765625,1.003173828125,-0.10888671875,-2.746581792831421,0.8850097060203552,0.7629393935203552,100.0,225687.0,1.0
15:43:35.242301,174450.28125,168557.640625,157935.5625,199164.6875,159797.71875,162699.515625,687220.5,157976.859375,-0.04296875,1.006103515625,-0.108154296875,-2.655029058456421,0.9155272841453552,0.7019042372703552,100.0,225688.0,1.0
15:43:35.246781,174440.984375,168538.421875,157925.0,199187.3125,159794.234375,162679.046875,687289.25,157993.140625,-0.04296875,1.004150390625,-0.109130859375,-2.593993902206421,0.9765624403953552,0.7019042372703552,100.0,225689.0,1.0
15:43:35.246799,174449.109375,168537.96875,157922.859375,199185.875,159790.75,162679.9375,687255.0,157989.203125,-0.0439453125,1.00537109375,-0.110595703125,-2.624511480331421,0.9765624403953552,0.7934569716453552,100.0,225690.0,1.0
15:43:35.254177,174506.421875,168551.46875,157933.5,199179.71875,159797.015625,162693.078125,687215.0625,157983.75,-0.043701171875,1.003662109375,-0.109130859375,-2.624511480331421,1.0070799589157104,0.7629393935203552,100.0,225691.0,1.0
15:43:35.254190,174459.046875,168561.9375,157942.53125,199178.734375,159804.25,162704.25,687199.4375,157989.375,-0.044189453125,1.004638671875,-0.10693359375,-2.563476324081421,1.0375975370407104,0.9460448622703552,100.0,225692.0,1.0
15:43:35.260444,174443.296875,168541.8125,157928.21875,199181.671875,159797.375,162682.4375,687287.0,157990.984375,-0.04296875,1.0048828125,-0.107421875,-2.532958745956421,1.1596678495407104,0.8544921278953552,100.0,225693.0,1.0
15:43:35.260518,174439.1875,168538.328125,157924.203125,199181.234375,159792.984375,162680.203125,687262.1875,157987.6875,-0.042724609375,1.00390625,-0.10693359375,-2.532958745956421,1.1291502714157104,0.8239745497703552,100.0,225694.0,1.0
15:43:35.272397,174506.6875,168551.734375,157935.015625,199182.3125,159799.15625,162694.25,687229.0,157985.265625,-0.043212890625,1.00390625,-0.10498046875,-2.502441167831421,1.0681151151657104,0.7019042372703552,100.0,225695.0,1.0
15:43:35.274270,174462.703125,168559.34375,157936.1875,199161.734375,159798.34375,162701.578125,687187.5,157974.1875,-0.04345703125,1.00537109375,-0.10595703125,-2.441406011581421,1.1596678495407104,0.7019042372703552,100.0,225696.0,1.0
15:43:35.274338,174442.859375,168542.4375,157925.546875,199173.359375,159793.34375,162682.265625,687276.5,157983.921875,-0.045166015625,1.006103515625,-0.108154296875,-2.380370855331421,1.1291502714157104,0.7019042372703552,100.0,225697.0,1.0
15:43:35.280557,174431.40625,168531.359375,157917.234375,199178.734375,159786.90625,162671.4375,687265.9375,157984.1875,-0.046875,1.00634765625,-0.10693359375,-2.319335699081421,1.0986326932907104,0.5493163466453552,100.0,225698.0,1.0
15:43:35.280569,174502.578125,168548.078125,157931.625,199182.9375,159795.40625,162689.0625,687227.75,157984.46875,-0.047607421875,1.0048828125,-0.107421875,-2.349853277206421,1.0681151151657104,0.6713866591453552,100.0,225699.0,1.0
15:43:35.286411,174479.328125,168562.734375,157940.109375,199172.734375,159799.953125,162703.09375,687182.4375,157978.296875,-0.047607421875,1.00341796875,-0.108154296875,-2.349853277206421,0.9460448622703552,0.6713866591453552,100.0,225700.0,1.0
15:43:35.297529,174454.921875,168555.046875,157935.90625,199188.203125,159799.6875,162693.703125,687264.9375,157992.953125,-0.04833984375,1.002685546875,-0.107421875,-2.258300542831421,0.9460448622703552,0.5798339247703552,100.0,225701.0,1.0
15:43:35.297622,174439.734375,168540.5625,157925.1875,199188.296875,159791.203125,162678.859375,687279.4375,157988.65625,-0.050537109375,1.003662109375,-0.10498046875,-2.197265386581421,0.8544921278953552,0.6103515028953552,100.0,225702.0,1.0
15:43:35.298979,174493.8125,168549.59375,157932.78125,199183.015625,159794.6875,162689.328125,687241.875,157982.046875,-0.049072265625,1.00390625,-0.107177734375,-2.197265386581421,0.7324218153953552,0.5493163466453552,100.0,225703.0,1.0
15:43:35.309881,174487.828125,168560.6875,157939.765625,199170.859375,159798.078125,162702.109375,687186.8125,157974.359375,-0.047607421875,1.005126953125,-0.107177734375,-2.197265386581421,0.6408690810203552,0.5187987685203552,100.0,225704.0,1.0
15:43:35.313507,174447.6875,168553.0,157933.234375,199170.953125,159794.5,162694.0625,687257.1875,157978.46875,-0.051025390625,1.006103515625,-0.10595703125,-2.136230230331421,0.5798339247703552,0.4882812201976776,100.0,225705.0,1.0
15:43:35.313575,174433.828125,168534.125,157920.984375,199187.484375,159786.546875,162674.125,687262.4375,157987.765625,-0.05078125,1.00537109375,-0.105224609375,-2.227782964706421,0.4577636420726776,0.4272460639476776,100.0,225706.0,1.0
15:43:35.313597,174477.546875,168541.90625,157927.15625,199188.109375,159790.03125,162683.515625,687238.375,157985.625,-0.049560546875,1.005126953125,-0.1025390625,-2.197265386581421,0.3662109076976776,0.5187987685203552,100.0,225707.0,1.0
15:43:35.317388,174495.875,168552.71875,157932.96875,199178.734375,159792.453125,162693.96875,687182.0,157978.65625,-0.046875,1.005859375,-0.104736328125,-2.166747808456421,0.3662109076976776,0.4272460639476776,100.0,225708.0,1.0
15:43:35.321604,174445.1875,168550.40625,157927.953125,199166.84375,159788.0625,162689.953125,687235.4375,157975.15625,-0.047607421875,1.005859375,-0.1064453125,-2.197265386581421,0.3051757514476776,0.4272460639476776,100.0,225709.0,1.0
15:43:35.331785,174435.078125,168530.90625,157915.703125,199180.25,159780.921875,162668.5,687267.8125,157982.234375,-0.048828125,1.0068359375,-0.10546875,-2.319335699081421,0.2136230319738388,0.3967284858226776,100.0,225710.0,1.0
15:43:35.331823,174461.71875,168535.921875,157918.84375,199179.984375,159781.71875,162674.484375,687238.9375,157980.171875,-0.047607421875,1.005859375,-0.103515625,-2.258300542831421,0.1831054538488388,0.4577636420726776,100.0,225711.0,1.0
15:43:35.334116,174503.203125,168549.953125,157929.75,199176.671875,159789.5,162689.234375,687188.6875,157976.5,-0.04736328125,1.00634765625,-0.106689453125,-2.288818120956421,-0.03051757626235485,0.5187987685203552,100.0,225712.0,1.0
15:43:35.334155,174449.296875,168552.71875,157929.921875,199167.28125,159788.515625,162691.296875,687227.3125,157974.09375,-0.04736328125,1.00732421875,-0.10595703125,-2.227782964706421,-0.0610351525247097,0.4272460639476776,100.0,225713.0,1.0
15:43:35.341109,174442.671875,168536.453125,157921.25,199189.28125,159785.03125,162671.4375,687283.125,157988.21875,-0.047607421875,1.0078125,-0.10498046875,-2.288818120956421,-0.0610351525247097,0.6103515028953552,100.0,225714.0,1.0
15:43:35.351722,174445.09375,168533.765625,157916.421875,199180.703125,159778.765625,162670.015625,687248.5,157977.9375,-0.048583984375,1.0087890625,-0.103759765625,-2.380370855331421,0.0,0.6713866591453552,100.0,225715.0,1.0
15:43:35.351763,174502.3125,168547.265625,157926.609375,199178.015625,159784.3125,162684.765625,687215.0625,157974.265625,-0.04736328125,1.008056640625,-0.10302734375,-2.380370855331421,-0.1831054538488388,0.7019042372703552,100.0,225716.0,1.0
15:43:35.355448,174448.484375,168549.6875,157924.828125,199158.875,159781.90625,162687.625,687203.3125,157965.6875,-0.0458984375,1.005859375,-0.104736328125,-2.380370855331421,-0.3051757514476776,0.6408690810203552,100.0,225717.0,1.0
15:43:35.355486,174430.15625,168525.359375,157908.46875,199169.078125,159771.53125,162661.703125,687284.8125,157972.75,-0.046142578125,1.00732421875,-0.105712890625,-2.380370855331421,-0.2441406100988388,0.6103515028953552,100.0,225718.0,1.0
15:43:35.361245,174423.453125,168519.203125,157902.296875,199170.328125,159766.078125,162657.046875,687257.875,157970.78125,-0.046142578125,1.007080078125,-0.1064453125,-2.410888433456421,-0.2441406100988388,0.6408690810203552,100.0,225719.0,1.0
15:43:35.380362,174490.15625,168534.484375,157914.8125,199168.71875,159774.5625,162673.40625,687230.1875,157967.390625,-0.0458984375,1.006103515625,-0.105712890625,-2.380370855331421,-0.3051757514476776,0.6713866591453552,100.0,225720.0,1.0
15:43:35.380381,174449.46875,168543.15625,157918.390625,199154.40625,159775.546875,162681.453125,687195.125,157961.484375,-0.044677734375,1.006103515625,-0.109375,-2.471923589706421,-0.3051757514476776,0.5798339247703552,100.0,225721.0,1.0
15:43:35.383478,174429.984375,168525.90625,157908.203125,199164.6875,159770.1875,162662.6875,687279.25,157971.5,-0.043701171875,1.00634765625,-0.109130859375,-2.441406011581421,-0.2746581733226776,0.4577636420726776,100.0,225722.0,1.0
15:43:35.383527,174416.84375,168516.96875,157901.765625,199166.5625,159766.703125,162655.34375,687262.25,157968.546875,-0.0458984375,1.0078125,-0.107666015625,-2.441406011581421,-0.2746581733226776,0.4882812201976776,100.0,225723.0,1.0
15:43:35.383546,174480.9375,168529.84375,157912.21875,199165.046875,159773.859375,162669.65625,687235.6875,157963.984375,-0.0419921875,1.006591796875,-0.10546875,-2.471923589706421,-0.2136230319738388,0.5187987685203552,100.0,225724.0,1.0
15:43:35.386111,174458.328125,168541.640625,157920.09375,199157.359375,159779.578125,162683.0625,687181.875,157960.5,-0.04052734375,1.005859375,-0.10400390625,-2.441406011581421,-0.1525878757238388,0.5798339247703552,100.0,225725.0,1.0
15:43:35.411199,174434.453125,168533.59375,157915.890625,199170.859375,159779.3125,162674.125,687254.5625,157972.125,-0.04150390625,1.004638671875,-0.103759765625,-2.502441167831421,-0.1220703050494194,0.6408690810203552,100.0,225726.0,1.0
15:43:35.466961,174419.34375,168521.609375,157906.5,199169.515625,159772.6875,162662.0625,687265.125,157969.4375,-0.040771484375,1.00634765625,-0.10595703125,-2.471923589706421,-0.0610351525247097,0.6103515028953552,100.0,225727.0,1.0
15:43:35.466981,174474.953125,168532.875,157914.71875,199166.03125,159778.140625,162674.75,687240.625,157967.296875,-0.041015625,1.006591796875,-0.105712890625,-2.471923589706421,0.03051757626235485,0.7019042372703552,100.0,225728.0,1.0
15:43:35.468476,174478.078125,168549.15625,157927.515625,199161.296875,159787.53125,162691.734375,687186.8125,157967.03125,-0.040283203125,1.007080078125,-0.1064453125,-2.502441167831421,0.1831054538488388,0.6713866591453552,100.0,225729.0,1.0
15:43:35.478301,174440.359375,168545.21875,157926.078125,199166.03125,159788.875,162687.890625,687253.9375,157976.6875,-0.03857421875,1.006591796875,-0.103271484375,-2.471923589706421,0.2136230319738388,0.6713866591453552,100.0,225730.0,1.0
15:43:35.478343,174422.375,168524.109375,157914.28125,199183.203125,159783.328125,162668.21875,687274.0625,157986.515625,-0.037841796875,1.008544921875,-0.105712890625,-2.471923589706421,0.3051757514476776,0.7324218153953552,100.0,225731.0,1.0
15:43:35.478358,174464.5,168532.703125,157921.609375,199185.609375,159787.53125,162679.046875,687233.8125,157985.71875,-0.0390625,1.0087890625,-0.105224609375,-2.624511480331421,0.3051757514476776,0.7019042372703552,100.0,225732.0,1.0
15:43:35.482022,174483.625,168544.59375,157923.484375,199164.421875,159782.4375,162687.265625,687181.875,157967.46875,-0.038818359375,1.0078125,-0.105712890625,-2.655029058456421,0.4577636420726776,0.6713866591453552,100.0,225733.0,1.0
15:43:35.486246,174433.5625,168540.46875,157915.4375,199154.59375,159774.125,162681.015625,687241.1875,157962.46875,-0.038818359375,1.005615234375,-0.107177734375,-2.624511480331421,0.6103515028953552,0.7019042372703552,100.0,225734.0,1.0
15:43:35.488514,174421.40625,168520.359375,157901.84375,199169.515625,159766.25,162659.375,687298.8125,157970.6875,-0.040771484375,1.004150390625,-0.104248046875,-2.563476324081421,0.7629393935203552,0.7019042372703552,100.0,225735.0,1.0
15:43:35.491015,174447.953125,168528.859375,157906.40625,199170.765625,159768.046875,162668.40625,687257.875,157968.640625,-0.03857421875,1.0048828125,-0.102783203125,-2.471923589706421,0.7324218153953552,0.8544921278953552,100.0,225736.0,1.0
15:43:35.495939,174491.9375,168546.203125,157918.296875,199164.25,159775.734375,162684.765625,687203.5,157961.84375,-0.0400390625,1.00390625,-0.1044921875,-2.471923589706421,0.7934569716453552,0.8544921278953552,100.0,225737.0,1.0
15:43:35.496259,174440.71875,168552.09375,157921.25,199153.515625,159777.15625,162689.6875,687220.0625,157960.328125,-0.04052734375,1.00390625,-0.105712890625,-2.410888433456421,0.7934569716453552,0.8544921278953552,100.0,225738.0,1.0
15:43:35.499124,174430.609375,168531.625,157907.125,199167.828125,159767.78125,162666.265625,687267.4375,157968.09375,-0.040283203125,1.005615234375,-0.102783203125,-2.410888433456421,0.9155272841453552,0.7629393935203552,100.0,225739.0,1.0
15:43:35.501120,174436.234375,168531.796875,157904.078125,199166.03125,159764.203125,162667.78125,687251.875,157962.375,-0.038330078125,1.005615234375,-0.102294921875,-2.502441167831421,1.0070799589157104,0.7019042372703552,100.0,225740.0,1.0
15:43:35.503669,174494.265625,168546.5625,157915.4375,199161.109375,159771.4375,162683.421875,687209.25,157957.1875,-0.042236328125,1.00341796875,-0.10400390625,-2.319335699081421,1.0375975370407104,0.7019042372703552,100.0,225741.0,1.0
15:43:35.506130,174445.71875,168555.671875,157920.625,199153.421875,159774.5625,162691.203125,687206.5625,157958.796875,-0.04052734375,1.00537109375,-0.105712890625,-2.441406011581421,1.0070799589157104,0.7324218153953552,100.0,225742.0,1.0
15:43:35.508973,174433.734375,168539.5,157912.40625,199168.71875,159773.40625,162675.015625,687293.75,157973.90625,-0.04296875,1.00537109375,-0.105712890625,-2.410888433456421,1.0681151151657104,0.8239745497703552,100.0,225743.0,1.0
15:43:35.511697,174427.203125,168535.5625,157909.984375,199168.8125,159771.96875,162673.671875,687274.125,157970.25,-0.04345703125,1.005859375,-0.10498046875,-2.380370855331421,1.1291502714157104,0.7324218153953552,100.0,225744.0,1.0
15:43:35.513656,174496.6875,168549.0625,157921.4375,199172.828125,159779.125,162687.0,687233.375,157969.0,-0.046630859375,1.004150390625,-0.103271484375,-2.380370855331421,1.1596678495407104,0.7019042372703552,100.0,225745.0,1.0
15:43:35.516197,174452.515625,168555.671875,157922.328125,199150.296875,159777.78125,162693.796875,687201.1875,157957.734375,-0.044921875,1.00341796875,-0.10302734375,-2.349853277206421,1.1596678495407104,0.6713866591453552,100.0,225746.0,1.0
15:43:35.519283,174428.90625,168537.890625,157909.09375,199155.390625,159770.453125,162674.75,687293.8125,157963.1875,-0.046630859375,1.00537109375,-0.103515625,-2.380370855331421,1.1596678495407104,0.7629393935203552,100.0,225747.0,1.0
15:43:35.522330,174414.875,168528.234375,157900.953125,199161.734375,159764.28125,162664.46875,687266.375,157964.25,-0.047607421875,1.0068359375,-0.101806640625,-2.349853277206421,1.1596678495407104,0.8544921278953552,100.0,225748.0,1.0
15:43:35.522422,174485.140625,168543.15625,157913.5625,199164.15625,159772.515625,162680.65625,687250.8125,157963.1875,-0.049072265625,1.008056640625,-0.10205078125,-2.349853277206421,1.0375975370407104,0.7629393935203552,100.0,225749.0,1.0
15:43:35.522449,174465.03125,168556.21875,157923.21875,199154.859375,159777.96875,162694.421875,687197.8125,157959.25,-0.048828125,1.007080078125,-0.10107421875,-2.319335699081421,1.0070799589157104,0.7324218153953552,100.0,225750.0,1.0
15:43:35.525484,174436.953125,168546.203125,157917.671875,199160.765625,159776.796875,162683.25,687249.0,157967.75,-0.04736328125,1.0048828125,-0.1015625,-2.258300542831421,1.0070799589157104,0.7019042372703552,100.0,225751.0,1.0
15:43:35.529524,174425.25,168534.3125,157909.984375,199174.078125,159773.5,162670.546875,687265.75,157974.625,-0.048095703125,1.00634765625,-0.10400390625,-2.319335699081421,0.9460448622703552,0.6713866591453552,100.0,225752.0,1.0
15:43:35.529624,174482.828125,168547.0,157919.90625,199173.1875,159780.375,162683.96875,687251.25,157973.203125,-0.04736328125,1.005859375,-0.10400390625,-2.319335699081421,0.9460448622703552,0.7629393935203552,100.0,225753.0,1.0
15:43:35.529660,174483.359375,168562.46875,157931.0,199165.5,159787.4375,162699.78125,687201.75,157968.640625,-0.0458984375,1.006591796875,-0.101806640625,-2.349853277206421,0.7934569716453552,0.6103515028953552,100.0,225754.0,1.0
15:43:35.532333,174444.828125,168558.09375,157928.40625,199166.21875,159786.546875,162693.703125,687255.3125,157973.640625,-0.04736328125,1.006591796875,-0.10107421875,-2.227782964706421,0.6408690810203552,0.6713866591453552,100.0,225755.0,1.0
15:43:35.532419,174431.0625,168540.125,157916.0625,199178.015625,159778.59375,162673.671875,687278.6875,157978.296875,-0.048095703125,1.007568359375,-0.1015625,-2.258300542831421,0.6713866591453552,0.6103515028953552,100.0,225756.0,1.0
15:43:35.532447,174468.875,168547.265625,157920.359375,199174.53125,159779.484375,162682.171875,687254.5,157972.21875,-0.047607421875,1.00732421875,-0.103759765625,-2.288818120956421,0.6713866591453552,0.6408690810203552,100.0,225757.0,1.0
15:43:35.535510,174491.21875,168558.890625,157929.296875,199167.90625,159782.609375,162693.703125,687199.4375,157965.6875,-0.048583984375,1.006591796875,-0.103271484375,-2.410888433456421,0.6103515028953552,0.7629393935203552,100.0,225758.0,1.0
15:43:35.535595,174440.890625,168558.09375,157926.265625,199157.890625,159780.640625,162692.71875,687232.0625,157964.53125,-0.048095703125,1.00732421875,-0.10302734375,-2.441406011581421,0.5493163466453552,0.7934569716453552,100.0,225759.0,1.0
15:43:35.546717,174432.484375,168542.265625,157916.6875,199172.46875,159777.515625,162676.984375,687287.75,157973.46875,-0.04638671875,1.00634765625,-0.10546875,-2.380370855331421,0.4882812201976776,0.7934569716453552,100.0,225760.0,1.0
15:43:35.546739,174460.828125,168550.84375,157924.5625,199180.609375,159783.59375,162687.09375,687257.375,157980.625,-0.04541015625,1.0068359375,-0.1064453125,-2.471923589706421,0.3662109076976776,0.8239745497703552,100.0,225761.0,1.0
15:43:35.548550,174507.59375,168566.671875,157937.796875,199177.125,159792.453125,162703.8125,687212.125,157977.125,-0.04443359375,1.00732421875,-0.10595703125,-2.410888433456421,0.2441406100988388,0.7629393935203552,100.0,225762.0,1.0
15:43:35.551070,174453.234375,168568.734375,157936.8125,199160.21875,159790.75,162706.9375,687219.375,157967.65625,-0.045166015625,1.005615234375,-0.10302734375,-2.410888433456421,0.2136230319738388,0.8239745497703552,100.0,225763.0,1.0
15:43:35.553559,174439.734375,168546.5625,157921.703125,199173.625,159782.890625,162682.53125,687263.9375,157974.8125,-0.046142578125,1.005615234375,-0.099365234375,-2.471923589706421,0.2441406100988388,0.7019042372703552,100.0,225764.0,1.0
15:43:35.556015,174444.90625,168545.84375,157921.078125,199173.625,159782.34375,162684.40625,687251.625,157972.65625,-0.045654296875,1.0048828125,-0.098876953125,-2.380370855331421,0.2136230319738388,0.9155272841453552,100.0,225765.0,1.0
15:43:35.558513,174504.015625,168560.140625,157934.21875,199172.828125,159793.171875,162701.75,687225.6875,157973.109375,-0.044677734375,1.005126953125,-0.101806640625,-2.410888433456421,0.2746581733226776,0.9155272841453552,100.0,225766.0,1.0
15:43:35.561125,174450.8125,168565.515625,157936.359375,199164.78125,159794.5,162706.765625,687201.3125,157972.65625,-0.042724609375,1.005859375,-0.103271484375,-2.441406011581421,0.2746581733226776,0.9155272841453552,100.0,225767.0,1.0
15:43:35.564143,174443.578125,168548.609375,157925.28125,199180.875,159786.28125,162683.875,687284.5,157982.859375,-0.044189453125,1.00732421875,-0.101806640625,-2.410888433456421,0.2136230319738388,0.9460448622703552,100.0,225768.0,1.0
15:43:35.564192,174440.71875,168545.84375,157925.0,199185.96875,159784.84375,162681.640625,687255.75,157985.0,-0.0419921875,1.0078125,-0.102294921875,-2.380370855331421,0.2441406100988388,0.7629393935203552,100.0,225769.0,1.0
15:43:35.566059,174510.09375,168561.046875,157938.15625,199191.0625,159795.671875,162697.109375,687208.375,157986.96875,-0.041259765625,1.007080078125,-0.102783203125,-2.410888433456421,0.2746581733226776,0.8850097060203552,100.0,225770.0,1.0
15:43:35.575376,174471.375,168571.59375,157944.5,199184.984375,159799.609375,162707.5625,687178.6875,157985.890625,-0.04150390625,1.006591796875,-0.102294921875,-2.410888433456421,0.3051757514476776,0.8850097060203552,100.0,225771.0,1.0
15:43:35.575392,174444.46875,168551.734375,157927.6875,199176.5,159788.96875,162686.546875,687286.0625,157984.734375,-0.043701171875,1.006591796875,-0.100341796875,-2.380370855331421,0.3051757514476776,0.8544921278953552,100.0,225772.0,1.0
15:43:35.586658,174431.953125,168541.453125,157919.640625,199183.109375,159783.78125,162676.546875,687269.5,157985.625,-0.04296875,1.005615234375,-0.102783203125,-2.380370855331421,0.3051757514476776,0.8239745497703552,100.0,225773.0,1.0
15:43:35.586685,174499.0,168553.53125,157930.640625,199187.671875,159790.484375,162689.6875,687224.625,157985.171875,-0.0439453125,1.005615234375,-0.100830078125,-2.349853277206421,0.2746581733226776,0.7629393935203552,100.0,225774.0,1.0
15:43:35.589176,174479.78125,168566.40625,157941.640625,199182.484375,159796.65625,162703.453125,687186.8125,157983.84375,-0.0419921875,1.005126953125,-0.102294921875,-2.441406011581421,0.3356933295726776,0.7324218153953552,100.0,225775.0,1.0
15:43:35.589190,174447.140625,168553.265625,157931.171875,199181.59375,159790.75,162690.3125,687276.8125,157985.359375,-0.04345703125,1.0048828125,-0.1005859375,-2.441406011581421,0.3662109076976776,0.7019042372703552,100.0,225776.0,1.0
15:43:35.598530,174428.546875,168535.375,157915.078125,199183.015625,159778.59375,162671.890625,687274.9375,157980.53125,-0.043212890625,1.0029296875,-0.100341796875,-2.288818120956421,0.4577636420726776,0.6408690810203552,100.0,225777.0,1.0
15:43:35.602883,174484.703125,168548.34375,157924.828125,199188.921875,159784.40625,162685.921875,687235.0625,157980.4375,-0.040771484375,1.00244140625,-0.1015625,-2.349853277206421,0.4272460639476776,0.7019042372703552,100.0,225778.0,1.0
15:43:35.602901,174480.5,168558.796875,157931.984375,199175.515625,159787.796875,162697.546875,687177.25,157972.21875,-0.039794921875,1.00146484375,-0.101318359375,-2.258300542831421,0.5493163466453552,0.7324218153953552,100.0,225779.0,1.0
15:43:35.612896,174442.59375,168554.609375,157929.484375,199178.734375,159787.171875,162692.0,687260.1875,157984.109375,-0.0400390625,1.000244140625,-0.10498046875,-2.258300542831421,0.5798339247703552,0.6408690810203552,100.0,225780.0,1.0
15:43:35.612920,174432.484375,168539.578125,157919.375,199191.609375,159782.171875,162676.0,687275.5,157991.609375,-0.038818359375,1.001953125,-0.1064453125,-2.197265386581421,0.6103515028953552,0.6408690810203552,100.0,225781.0,1.0
15:43:35.615391,174474.234375,168548.703125,157927.953125,199192.140625,159788.15625,162686.546875,687245.375,157988.484375,-0.041748046875,1.003173828125,-0.107177734375,-2.105712652206421,0.5493163466453552,0.5798339247703552,100.0,225782.0,1.0
15:43:35.615406,174495.875,168559.515625,157935.375,199183.640625,159792.265625,162697.375,687188.0625,157982.046875,-0.0400390625,1.00439453125,-0.10107421875,-2.136230230331421,0.6408690810203552,0.5187987685203552,100.0,225783.0,1.0
15:43:35.624877,174449.5625,168561.3125,157936.0,199179.4375,159792.890625,162698.4375,687234.75,157984.90625,-0.041259765625,1.006591796875,-0.099365234375,-2.258300542831421,0.7019042372703552,0.6103515028953552,100.0,225784.0,1.0
15:43:35.629314,174439.640625,168544.140625,157925.71875,199196.15625,159788.609375,162680.296875,687287.0,157994.296875,-0.041015625,1.00830078125,-0.097412109375,-2.197265386581421,0.7324218153953552,0.5798339247703552,100.0,225785.0,1.0
15:43:35.629325,174462.609375,168548.609375,157929.03125,199197.140625,159788.515625,162684.859375,687259.0625,157991.4375,-0.041259765625,1.007568359375,-0.103271484375,-2.197265386581421,0.7934569716453552,0.4882812201976776,100.0,225786.0,1.0
15:43:35.638535,174509.375,168563.984375,157941.546875,199196.4375,159794.953125,162699.15625,687215.4375,157988.3125,-0.04150390625,1.008544921875,-0.1025390625,-2.197265386581421,0.8239745497703552,0.4577636420726776,100.0,225787.0,1.0
15:43:35.642910,174454.125,168566.578125,157940.5625,199185.25,159794.59375,162702.015625,687214.5,157986.96875,-0.042236328125,1.010009765625,-0.1025390625,-2.197265386581421,0.8544921278953552,0.5493163466453552,100.0,225788.0,1.0
15:43:35.642963,174437.84375,168542.4375,157922.328125,199194.109375,159783.15625,162676.984375,687300.875,157992.0625,-0.043701171875,1.00927734375,-0.1025390625,-2.136230230331421,0.8239745497703552,0.4577636420726776,100.0,225789.0,1.0
15:43:35.645392,174443.578125,168542.53125,157920.171875,199195.453125,159780.015625,162678.421875,687267.0625,157989.640625,-0.042724609375,1.00830078125,-0.105712890625,-2.075195074081421,0.8544921278953552,0.5493163466453552,100.0,225790.0,1.0
15:43:35.645451,174500.875,168556.390625,157928.765625,199184.265625,159785.46875,162693.96875,687241.25,157979.8125,-0.043212890625,1.01025390625,-0.102783203125,-2.044677495956421,0.8239745497703552,0.5187987685203552,100.0,225791.0,1.0
15:43:35.662321,174450.015625,168563.359375,157930.375,199165.046875,159785.296875,162702.203125,687193.5,157971.046875,-0.045654296875,1.00927734375,-0.103515625,-1.9531248807907104,0.9155272841453552,0.4882812201976776,100.0,225792.0,1.0
15:43:35.669326,174440.71875,168548.34375,157922.859375,199186.78125,159783.953125,162686.203125,687251.875,157987.40625,-0.0439453125,1.009521484375,-0.10302734375,-1.9836424589157104,0.9460448622703552,0.4577636420726776,100.0,225793.0,1.0
15:43:35.669352,174436.421875,168546.828125,157922.765625,199193.75,159784.40625,162685.921875,687245.375,157990.984375,-0.04443359375,1.01220703125,-0.098876953125,-2.014159917831421,0.8544921278953552,0.3356933295726776,100.0,225794.0,1.0
15:43:35.669359,174505.359375,168561.9375,157936.09375,199192.140625,159794.0625,162702.46875,687221.9375,157988.390625,-0.04638671875,1.01123046875,-0.099365234375,-2.166747808456421,0.6713866591453552,0.2441406100988388,100.0,225795.0,1.0
15:43:35.669365,174468.703125,168574.09375,157943.6875,199180.0625,159797.375,162714.8125,687203.4375,157984.109375,-0.049072265625,1.012451171875,-0.099365234375,-2.288818120956421,0.7629393935203552,0.1831054538488388,100.0,225796.0,1.0
15:43:35.685380,174448.046875,168558.171875,157932.6875,199187.84375,159791.375,162696.75,687301.0625,157991.34375,-0.04931640625,1.01416015625,-0.096923828125,-2.288818120956421,0.7324218153953552,0.1525878757238388,100.0,225797.0,1.0
15:43:35.689691,174433.921875,168548.4375,157924.5625,199193.296875,159785.921875,162687.265625,687274.75,157993.21875,-0.04833984375,1.009521484375,-0.099853515625,-2.380370855331421,0.6408690810203552,0.1831054538488388,100.0,225798.0,1.0
15:43:35.689729,174498.5625,168559.96875,157934.125,199195.453125,159791.640625,162699.15625,687246.375,157994.03125,-0.048095703125,1.01123046875,-0.09814453125,-2.471923589706421,0.5187987685203552,0.2136230319738388,100.0,225799.0,1.0
15:43:35.689734,174476.296875,168569.890625,157938.234375,199177.203125,159791.375,162708.8125,687189.75,157981.59375,-0.046630859375,1.00927734375,-0.098876953125,-2.441406011581421,0.3662109076976776,0.1220703050494194,100.0,225800.0,1.0
15:43:35.700246,174443.21875,168556.75,157927.421875,199179.0,159783.59375,162693.53125,687271.8125,157984.1875,-0.047119140625,1.009765625,-0.09765625,-2.502441167831421,0.4272460639476776,0.2746581733226776,100.0,225801.0,1.0
15:43:35.700279,174423.28125,168538.78125,157911.59375,199181.59375,159772.0625,162675.28125,687278.875,157981.6875,-0.046630859375,1.0087890625,-0.099365234375,-2.563476324081421,0.4272460639476776,0.3051757514476776,100.0,225802.0,1.0
15:43:35.700286,174477.28125,168547.890625,157918.125,199180.515625,159775.46875,162685.921875,687231.625,157977.578125,-0.045654296875,1.009521484375,-0.1005859375,-2.655029058456421,0.3356933295726776,0.4577636420726776,100.0,225803.0,1.0
15:43:35.706148,174480.671875,168561.9375,157929.484375,199172.828125,159781.984375,162700.40625,687180.125,157972.65625,-0.043701171875,1.0087890625,-0.100830078125,-2.655029058456421,0.3356933295726776,0.5187987685203552,100.0,225804.0,1.0
15:43:35.710453,174441.421875,168557.828125,157927.421875,199173.09375,159782.609375,162696.390625,687263.25,157978.03125,-0.04443359375,1.00732421875,-0.1025390625,-2.685546636581421,0.2441406100988388,0.5798339247703552,100.0,225805.0,1.0
15:43:35.710474,174428.90625,168539.140625,157915.078125,199185.25,159775.90625,162677.796875,687271.5625,157984.90625,-0.04296875,1.00732421875,-0.10009765625,-2.716064214706421,0.3662109076976776,0.7629393935203552,100.0,225806.0,1.0
15:43:35.720661,174468.34375,168546.734375,157920.453125,199182.9375,159778.765625,162686.375,687248.9375,157980.890625,-0.0439453125,1.010009765625,-0.097412109375,-2.777099370956421,0.3967284858226776,0.7934569716453552,100.0,225807.0,1.0
15:43:35.720675,174492.296875,168560.0625,157931.171875,199179.625,159784.84375,162699.78125,687198.8125,157977.578125,-0.04296875,1.00927734375,-0.096923828125,-2.929687261581421,0.4577636420726776,0.7934569716453552,100.0,225808.0,1.0
15:43:35.730869,174445.625,168562.109375,157931.265625,199175.875,159785.296875,162700.40625,687245.375,157980.4375,-0.04296875,1.00927734375,-0.095947265625,-2.838134527206421,0.5187987685203552,0.8544921278953552,100.0,225809.0,1.0
15:43:35.730894,174432.671875,168542.359375,157917.234375,199188.203125,159777.875,162679.3125,687283.875,157987.40625,-0.044189453125,1.007568359375,-0.09716796875,-2.807616949081421,0.6103515028953552,0.9765624403953552,100.0,225810.0,1.0
15:43:35.730901,174451.0,168543.6875,157915.0,199178.453125,159774.5625,162682.078125,687257.875,157977.125,-0.0439453125,1.00537109375,-0.09912109375,-2.838134527206421,0.6408690810203552,1.0070799589157104,100.0,225811.0,1.0
15:43:35.742578,174496.6875,168558.796875,157926.4375,199176.21875,159782.25,162696.828125,687213.4375,157974.359375,-0.043212890625,1.003662109375,-0.09765625,-2.807616949081421,0.7019042372703552,1.0681151151657104,100.0,225812.0,1.0
15:43:35.742591,174442.953125,168561.125,157927.515625,199168.0,159781.90625,162699.25,687222.1875,157973.28125,-0.04150390625,1.0029296875,-0.097900390625,-2.807616949081421,0.7629393935203552,0.9765624403953552,100.0,225813.0,1.0
15:43:35.745608,174432.671875,168540.46875,157914.90625,199186.0625,159774.484375,162676.265625,687271.375,157984.015625,-0.041015625,1.002197265625,-0.099365234375,-2.838134527206421,0.6408690810203552,1.0986326932907104,100.0,225814.0,1.0
15:43:35.745627,174435.890625,168537.4375,157911.140625,199181.59375,159768.578125,162674.75,687259.375,157977.3125,-0.04052734375,1.002685546875,-0.09814453125,-2.685546636581421,0.6408690810203552,1.0070799589157104,100.0,225815.0,1.0
15:43:35.759513,174494.796875,168549.15625,157920.265625,199176.9375,159773.578125,162687.0,687236.6875,157969.625,-0.038818359375,1.001220703125,-0.097412109375,-2.655029058456421,0.6713866591453552,0.9460448622703552,100.0,225816.0,1.0
15:43:35.798068,174447.78125,168559.515625,157927.59375,199168.09375,159779.390625,162697.90625,687204.5,157971.5,-0.0400390625,1.00341796875,-0.095703125,-2.563476324081421,0.7324218153953552,0.7934569716453552,100.0,225817.0,1.0
15:43:35.798311,174435.890625,168543.6875,157917.859375,199179.890625,159775.8125,162679.84375,687260.75,157981.953125,-0.0390625,1.001220703125,-0.0966796875,-2.624511480331421,0.7629393935203552,0.7324218153953552,100.0,225818.0,1.0
15:43:35.806898,174431.140625,168539.140625,157913.65625,199181.59375,159772.59375,162675.640625,687246.0625,157977.3125,-0.036865234375,1.001220703125,-0.09716796875,-2.471923589706421,0.8850097060203552,0.6713866591453552,100.0,225819.0,1.0
15:43:35.807100,174497.578125,168551.296875,157923.9375,199181.140625,159778.59375,162689.328125,687223.5625,157973.734375,-0.0380859375,1.0009765625,-0.09912109375,-2.410888433456421,1.0375975370407104,0.6713866591453552,100.0,225820.0,1.0
15:43:35.808614,174458.859375,168562.203125,157930.109375,199170.40625,159781.71875,162701.3125,687196.0,157969.0,-0.03955078125,1.00146484375,-0.098388671875,-2.380370855331421,0.9765624403953552,0.7324218153953552,100.0,225821.0,1.0
15:43:35.811261,174436.234375,168546.109375,157918.5625,199177.125,159775.46875,162683.421875,687288.375,157976.140625,-0.03759765625,1.001708984375,-0.096923828125,-2.227782964706421,1.0681151151657104,0.7324218153953552,100.0,225822.0,1.0
15:43:35.813652,174422.828125,168535.5625,157910.703125,199182.125,159769.65625,162672.78125,687269.5,157976.234375,-0.0390625,1.000732421875,-0.09912109375,-2.105712652206421,1.1901854276657104,0.7019042372703552,100.0,225823.0,1.0
15:43:35.816429,174492.203125,168550.046875,157924.109375,199187.671875,159779.578125,162688.15625,687227.9375,157978.03125,-0.039306640625,1.001220703125,-0.097412109375,-1.9836424589157104,1.3122557401657104,0.7629393935203552,100.0,225824.0,1.0
15:43:35.820128,174475.125,168564.171875,157934.296875,199180.25,159786.90625,162704.796875,687183.875,157978.03125,-0.039794921875,1.001708984375,-0.0986328125,-1.9531248807907104,1.3427733182907104,0.6408690810203552,100.0,225825.0,1.0
15:43:35.821087,174443.921875,168554.421875,157927.0625,199179.984375,159784.046875,162693.703125,687283.0,157983.296875,-0.041015625,1.00244140625,-0.100830078125,-1.8920897245407104,1.2817381620407104,0.7324218153953552,100.0,225826.0,1.0
15:43:35.823592,174423.546875,168536.09375,157913.03125,199184.546875,159776.0,162674.125,687282.4375,157982.859375,-0.0419921875,1.002197265625,-0.099365234375,-1.7395018339157104,1.3122557401657104,0.7019042372703552,100.0,225827.0,1.0
15:43:35.826141,174478.53125,168544.953125,157920.625,199182.9375,159781.546875,162684.5,687241.1875,157979.546875,-0.04296875,1.003173828125,-0.098876953125,-1.7089842557907104,1.3122557401657104,0.8239745497703552,100.0,225828.0,1.0
15:43:35.828604,174481.921875,168559.78125,157933.046875,199175.15625,159788.875,162699.78125,687183.75,157974.890625,-0.042724609375,1.004150390625,-0.09765625,-1.5869139432907104,1.3732908964157104,0.8239745497703552,100.0,225829.0,1.0
15:43:35.830997,174443.578125,168557.90625,157931.265625,199175.421875,159788.875,162697.375,687244.375,157979.8125,-0.0419921875,1.00390625,-0.0966796875,-1.5258787870407104,1.3732908964157104,0.7934569716453552,100.0,225830.0,1.0
15:43:35.833534,174431.0625,168542.359375,157920.265625,199187.40625,159782.25,162679.765625,687261.5625,157984.90625,-0.043212890625,1.00634765625,-0.096435546875,-1.4343260526657104,1.3732908964157104,0.7934569716453552,100.0,225831.0,1.0
15:43:35.836757,174472.09375,168552.71875,157927.515625,199189.015625,159786.1875,162690.75,687244.3125,157984.28125,-0.044189453125,1.0068359375,-0.097412109375,-1.4343260526657104,1.3122557401657104,0.7019042372703552,100.0,225832.0,1.0
15:43:35.836783,174499.984375,168568.109375,157939.484375,199185.078125,159793.609375,162705.859375,687193.75,157980.4375,-0.0458984375,1.005859375,-0.097412109375,-1.2817381620407104,1.2817381620407104,0.8850097060203552,100.0,225833.0,1.0
15:43:35.839130,174448.21875,168565.234375,157936.984375,199180.515625,159791.109375,162701.578125,687243.125,157982.5,-0.04638671875,1.006103515625,-0.10009765625,-1.3427733182907104,1.2207030057907104,0.7324218153953552,100.0,225834.0,1.0
15:43:35.839142,174433.375,168542.265625,157919.828125,199186.328125,159781.28125,162677.4375,687292.125,157986.078125,-0.04736328125,1.005615234375,-0.098876953125,-1.2512205839157104,1.1291502714157104,0.6408690810203552,100.0,225835.0,1.0
15:43:35.841774,174455.640625,168546.828125,157923.84375,199189.640625,159783.15625,162683.421875,687256.0625,157987.765625,-0.048583984375,1.0087890625,-0.0966796875,-1.2512205839157104,1.1901854276657104,0.6713866591453552,100.0,225836.0,1.0
15:43:35.841803,174508.65625,168565.78125,157941.375,199197.859375,159796.734375,162702.734375,687211.3125,157994.75,-0.04931640625,1.009765625,-0.097412109375,-1.1901854276657104,1.0681151151657104,0.7019042372703552,100.0,225837.0,1.0
15:43:35.843799,174455.546875,168572.03125,157943.0625,199182.484375,159796.734375,162709.171875,687217.125,157986.421875,-0.0478515625,1.01025390625,-0.0966796875,-1.2207030057907104,0.9765624403953552,0.6713866591453552,100.0,225838.0,1.0
15:43:35.846041,174447.140625,168555.234375,157932.78125,199196.96875,159792.265625,162691.46875,687278.375,157995.8125,-0.04736328125,1.00927734375,-0.094970703125,-1.2512205839157104,0.8544921278953552,0.5493163466453552,100.0,225839.0,1.0
15:43:35.850427,174450.71875,168555.234375,157931.71875,199199.03125,159790.9375,162692.8125,687249.5,157995.375,-0.04931640625,1.008056640625,-0.095703125,-1.1596678495407104,0.7934569716453552,0.5798339247703552,100.0,225840.0,1.0
15:43:35.850463,174512.421875,168568.640625,157943.328125,199202.0625,159798.625,162706.578125,687203.8125,157995.09375,-0.0498046875,1.007080078125,-0.097900390625,-1.1596678495407104,0.6408690810203552,0.5493163466453552,100.0,225841.0,1.0
15:43:35.860459,174464.765625,168578.5625,157947.8125,199186.328125,159800.3125,162716.859375,687197.625,157988.3125,-0.04541015625,1.006103515625,-0.09765625,-1.2512205839157104,0.6713866591453552,0.7324218153953552,100.0,225842.0,1.0
15:43:35.860472,174453.046875,168563.09375,157939.3125,199201.078125,159797.375,162700.5,687296.75,158001.53125,-0.04345703125,1.005615234375,-0.09765625,-1.2207030057907104,0.7019042372703552,0.6713866591453552,100.0,225843.0,1.0
15:43:35.862875,174445.359375,168555.765625,157932.609375,199203.671875,159791.90625,162693.078125,687264.6875,158000.90625,-0.043701171875,1.00537109375,-0.099609375,-1.2207030057907104,0.6103515028953552,0.6713866591453552,100.0,225844.0,1.0
15:43:35.862885,174514.375,168568.640625,157944.3125,199204.484375,159799.6875,162706.84375,687220.75,157999.921875,-0.044189453125,1.00390625,-0.1005859375,-1.1291502714157104,0.4882812201976776,0.7629393935203552,100.0,225845.0,1.0
15:43:35.874754,174474.6875,168576.15625,157946.203125,199188.921875,159798.4375,162714.984375,687190.0,157990.90625,-0.04345703125,1.00537109375,-0.099853515625,-1.0375975370407104,0.4882812201976776,0.8544921278953552,100.0,225846.0,1.0
15:43:35.877876,174451.703125,168559.96875,157934.84375,199197.6875,159792.8125,162696.921875,687291.4375,157999.296875,-0.043701171875,1.004638671875,-0.099365234375,-1.0986326932907104,0.4577636420726776,0.8239745497703552,100.0,225847.0,1.0
15:43:35.877893,174438.75,168551.390625,157928.9375,199209.03125,159788.25,162687.453125,687283.625,158004.3125,-0.04345703125,1.005615234375,-0.09765625,-1.0375975370407104,0.4272460639476776,0.7629393935203552,100.0,225848.0,1.0
15:43:35.879756,174508.84375,168567.296875,157942.0,199211.8125,159796.921875,162703.984375,687258.875,158005.296875,-0.045166015625,1.005126953125,-0.099609375,-1.0375975370407104,0.3967284858226776,0.7934569716453552,100.0,225849.0,1.0
15:43:35.889827,174488.1875,168578.296875,157947.53125,199194.28125,159799.6875,162716.6875,687193.625,157995.453125,-0.044921875,1.004638671875,-0.098388671875,-0.9765624403953552,0.3356933295726776,0.9765624403953552,100.0,225850.0,1.0
15:43:35.894127,174455.1875,168567.484375,157939.84375,199195.984375,159796.46875,162705.234375,687246.6875,158000.828125,-0.044189453125,1.00341796875,-0.100341796875,-0.9155272841453552,0.3356933295726776,0.9765624403953552,100.0,225851.0,1.0
15:43:35.894138,174440.796875,168553.4375,157930.90625,199207.515625,159791.5625,162690.390625,687255.5625,158006.8125,-0.04443359375,1.004638671875,-0.098876953125,-0.9155272841453552,0.2136230319738388,0.9155272841453552,100.0,225852.0,1.0
15:43:35.899785,174498.109375,168566.9375,157941.015625,199211.0,159797.90625,162703.71875,687244.0,158005.390625,-0.042724609375,1.004150390625,-0.100341796875,-0.8850097060203552,0.3662109076976776,0.9155272841453552,100.0,225853.0,1.0
15:43:35.902852,174500.53125,168580.703125,157949.859375,199200.984375,159801.65625,162718.828125,687190.5625,157997.34375,-0.043212890625,1.0048828125,-0.099609375,-0.8239745497703552,0.3356933295726776,0.8239745497703552,100.0,225854.0,1.0
15:43:35.902875,174457.078125,168574.71875,157944.671875,199195.625,159797.8125,162714.359375,687248.5,157998.5,-0.046142578125,1.0048828125,-0.099609375,-0.9460448622703552,0.2746581733226776,0.7019042372703552,100.0,225855.0,1.0
15:43:35.912441,174443.484375,168557.28125,157932.34375,199209.84375,159790.390625,162694.875,687271.3125,158004.125,-0.043701171875,1.003662109375,-0.098876953125,-1.0070799589157104,0.2746581733226776,0.7324218153953552,100.0,225856.0,1.0
15:43:35.915340,174483.359375,168566.40625,157938.234375,199208.765625,159794.0625,162705.328125,687245.375,158000.28125,-0.044677734375,1.004150390625,-0.0986328125,-0.9460448622703552,0.2441406100988388,0.5798339247703552,100.0,225857.0,1.0
15:43:35.915360,174508.03125,168578.75,157947.0,199199.5625,159799.609375,162719.71875,687188.9375,157994.03125,-0.0439453125,1.004150390625,-0.095947265625,-0.9765624403953552,0.2441406100988388,0.5187987685203552,100.0,225858.0,1.0
15:43:35.918682,174456.625,168576.0625,157942.265625,199189.71875,159796.46875,162717.40625,687238.125,157991.875,-0.0400390625,1.007080078125,-0.09912109375,-0.9460448622703552,0.3662109076976776,0.5187987685203552,100.0,225859.0,1.0
15:43:35.934169,174440.890625,168551.5625,157925.546875,199201.890625,159784.578125,162690.9375,687287.625,157998.046875,-0.0400390625,1.00732421875,-0.09912109375,-0.9460448622703552,0.2746581733226776,0.4272460639476776,100.0,225860.0,1.0
15:43:35.934180,174461.8125,168554.25,157928.140625,199205.109375,159784.5,162696.125,687249.9375,157999.484375,-0.040283203125,1.008544921875,-0.102783203125,-0.9155272841453552,0.3356933295726776,0.5187987685203552,100.0,225861.0,1.0
15:43:35.936066,174508.75,168567.203125,157938.234375,199198.84375,159790.65625,162709.4375,687201.0,157992.515625,-0.0390625,1.00830078125,-0.099365234375,-0.8850097060203552,0.2746581733226776,0.6408690810203552,100.0,225862.0,1.0
15:43:35.938577,174453.5,168568.90625,157936.71875,199181.234375,159788.0625,162712.03125,687217.1875,157982.40625,-0.03955078125,1.0087890625,-0.097412109375,-0.9765624403953552,0.3967284858226776,0.6103515028953552,100.0,225863.0,1.0
15:43:35.940990,174445.1875,168553.265625,157927.6875,199198.21875,159787.171875,162695.3125,687274.0625,157994.828125,-0.040283203125,1.00830078125,-0.098388671875,-1.0375975370407104,0.5187987685203552,0.7324218153953552,100.0,225864.0,1.0
15:43:35.947260,174449.828125,168555.40625,157927.234375,199197.6875,159786.28125,162696.921875,687251.625,157993.578125,-0.040283203125,1.0107421875,-0.10009765625,-1.0986326932907104,0.5493163466453552,0.7629393935203552,100.0,225865.0,1.0
15:43:35.955491,174512.6875,168569.984375,157939.9375,199197.328125,159794.5,162710.78125,687218.125,157992.515625,-0.0400390625,1.012451171875,-0.09912109375,-1.1291502714157104,0.5798339247703552,0.7934569716453552,100.0,225866.0,1.0
15:43:35.955506,174466.546875,168579.546875,157945.75,199185.25,159798.53125,162720.34375,687206.9375,157988.84375,-0.04150390625,1.01025390625,-0.099853515625,-1.1596678495407104,0.6408690810203552,0.7629393935203552,100.0,225867.0,1.0
15:43:35.962926,174453.40625,168562.46875,157936.71875,199205.28125,159795.125,162701.390625,687283.1875,158004.578125,-0.040283203125,1.009521484375,-0.10107421875,-1.2207030057907104,0.6713866591453552,0.8850097060203552,100.0,225868.0,1.0
15:43:35.962972,174445.625,168556.5625,157931.625,199203.765625,159790.84375,162695.5,687252.5,158000.828125,-0.042236328125,1.01123046875,-0.099365234375,-1.2512205839157104,0.7324218153953552,0.8239745497703552,100.0,225869.0,1.0
15:43:35.965443,174514.03125,168569.796875,157944.40625,199204.484375,159798.265625,162709.265625,687211.125,157999.21875,-0.044189453125,1.00927734375,-0.099853515625,-1.3122557401657104,0.8239745497703552,0.8544921278953552,100.0,225870.0,1.0
15:43:35.965453,174474.859375,168578.296875,157950.3125,199191.515625,159799.953125,162718.203125,687190.625,157992.59375,-0.04443359375,1.00927734375,-0.1015625,-1.3427733182907104,0.7629393935203552,0.7934569716453552,100.0,225871.0,1.0
15:43:35.980397,174453.859375,168563.28125,157939.3125,199199.296875,159795.578125,162702.46875,687304.375,158000.203125,-0.044189453125,1.01171875,-0.099609375,-1.4343260526657104,0.7324218153953552,0.7019042372703552,100.0,225872.0,1.0
15:43:35.980417,174438.921875,168553.171875,157929.828125,199205.28125,159789.234375,162692.8125,687281.375,158001.453125,-0.04443359375,1.011474609375,-0.10107421875,-1.4038084745407104,0.8850097060203552,0.7629393935203552,100.0,225873.0,1.0
15:43:35.986162,174502.40625,168565.15625,157938.421875,199203.5,159793.875,162705.421875,687248.5,157997.15625,-0.044677734375,1.010009765625,-0.099365234375,-1.4953612089157104,0.7934569716453552,0.6713866591453552,100.0,225874.0,1.0
15:43:35.988704,174484.78125,168577.84375,157946.46875,199191.96875,159798.078125,162718.203125,687191.125,157989.5625,-0.04345703125,1.00927734375,-0.100341796875,-1.5563963651657104,0.8850097060203552,0.7324218153953552,100.0,225875.0,1.0
15:43:36.002973,174452.15625,168567.5625,157937.078125,199194.203125,159793.875,162706.21875,687259.375,157995.90625,-0.042724609375,1.01025390625,-0.100341796875,-1.6479490995407104,0.8544921278953552,0.5493163466453552,100.0,225876.0,1.0
15:43:36.003049,174433.734375,168548.796875,157923.125,199200.453125,159783.59375,162687.71875,687259.5625,157996.703125,-0.042724609375,1.0087890625,-0.100341796875,-1.7395018339157104,0.8544921278953552,0.5798339247703552,100.0,225877.0,1.0
15:43:36.004644,174489.796875,168561.21875,157934.03125,199206.09375,159790.9375,162701.578125,687251.6875,157997.515625,-0.0439453125,1.008056640625,-0.10302734375,-1.8310545682907104,0.8239745497703552,0.6408690810203552,100.0,225878.0,1.0
15:43:36.004663,174492.484375,168572.75,157941.375,199190.890625,159793.34375,162713.640625,687201.375,157985.625,-0.04248046875,1.00830078125,-0.101318359375,-1.8615721464157104,0.8544921278953552,0.6713866591453552,100.0,225879.0,1.0
15:43:36.006622,174450.90625,168567.5625,157937.609375,199190.625,159791.203125,162706.484375,687263.3125,157991.609375,-0.042236328125,1.00830078125,-0.101318359375,-1.7089842557907104,0.9460448622703552,0.6713866591453552,100.0,225880.0,1.0
15:43:36.006631,174440.53125,168550.9375,157927.15625,199207.609375,159787.359375,162688.15625,687266.375,158001.8125,-0.039794921875,1.00927734375,-0.103515625,-1.8310545682907104,1.0375975370407104,0.7629393935203552,100.0,225881.0,1.0
15:43:36.018554,174473.796875,168555.046875,157928.3125,199201.265625,159786.015625,162694.15625,687248.75,157992.0625,-0.04296875,1.009033203125,-0.101806640625,-1.8005369901657104,0.9155272841453552,0.7934569716453552,100.0,225882.0,1.0
15:43:36.021786,174500.4375,168568.28125,157937.875,199194.828125,159791.828125,162707.828125,687201.625,157986.34375,-0.04296875,1.0078125,-0.097900390625,-1.7395018339157104,0.9460448622703552,0.8239745497703552,100.0,225883.0,1.0
15:43:36.021835,174452.15625,168571.234375,157940.46875,199191.421875,159794.59375,162710.609375,687243.125,157990.71875,-0.044189453125,1.007080078125,-0.098876953125,-1.8005369901657104,1.0070799589157104,0.7629393935203552,100.0,225884.0,1.0
15:43:36.024767,174441.875,168551.734375,157928.3125,199206.890625,159787.359375,162688.703125,687276.6875,158000.203125,-0.0439453125,1.008056640625,-0.099609375,-1.7700194120407104,1.1596678495407104,0.9155272841453552,100.0,225885.0,1.0
15:43:36.035516,174462.796875,168557.109375,157931.078125,199208.140625,159788.0625,162694.6875,687247.875,157998.234375,-0.044189453125,1.0078125,-0.10302734375,-1.8615721464157104,1.3122557401657104,1.0070799589157104,100.0,225886.0,1.0
15:43:36.035592,174511.078125,168571.328125,157943.609375,199206.0,159796.46875,162709.796875,687192.375,157994.75,-0.04345703125,1.005859375,-0.10107421875,-1.8310545682907104,1.1596678495407104,1.0986326932907104,100.0,225887.0,1.0
15:43:36.042947,174458.765625,168577.21875,157945.390625,199194.640625,159797.1875,162715.25,687214.1875,157991.875,-0.04345703125,1.00390625,-0.099853515625,-1.8920897245407104,1.1901854276657104,1.1291502714157104,100.0,225888.0,1.0
15:43:36.042961,174446.703125,168556.125,157931.4375,199208.140625,159789.765625,162693.171875,687303.5,158000.828125,-0.042724609375,1.005615234375,-0.103759765625,-1.7700194120407104,1.2817381620407104,1.0986326932907104,100.0,225889.0,1.0
15:43:36.049317,174450.90625,168553.703125,157928.765625,199204.03125,159786.1875,162692.546875,687264.5625,157995.453125,-0.041748046875,1.004638671875,-0.099853515625,-1.8615721464157104,1.4648436307907104,1.0986326932907104,100.0,225890.0,1.0
15:43:36.049393,174514.5625,168568.015625,157940.65625,199206.09375,159794.78125,162707.828125,687234.125,157994.921875,-0.04296875,1.00390625,-0.098388671875,-1.8310545682907104,1.3732908964157104,1.0986326932907104,100.0,225891.0,1.0
15:43:36.059123,174465.828125,168575.703125,157943.15625,199191.421875,159795.578125,162715.703125,687192.25,157988.3125,-0.04248046875,1.001220703125,-0.098388671875,-1.7700194120407104,1.3122557401657104,1.2207030057907104,100.0,225892.0,1.0
15:43:36.059132,174450.640625,168558.0,157932.421875,199208.40625,159790.296875,162697.546875,687268.3125,157999.21875,-0.042724609375,1.0029296875,-0.098876953125,-1.7395018339157104,1.3122557401657104,1.1901854276657104,100.0,225893.0,1.0
15:43:36.061707,174444.015625,168554.15625,157929.03125,199211.359375,159788.34375,162695.21875,687265.125,158000.109375,-0.042724609375,1.00390625,-0.101318359375,-1.6479490995407104,1.3732908964157104,1.2512205839157104,100.0,225894.0,1.0
15:43:36.061735,174509.640625,168567.125,157938.234375,199203.859375,159794.234375,162709.0,687239.375,157991.796875,-0.04345703125,1.00439453125,-0.101806640625,-1.6784666776657104,1.5258787870407104,1.2512205839157104,100.0,225895.0,1.0
15:43:36.092376,174472.0,168576.953125,157943.328125,199188.03125,159794.78125,162717.671875,687198.875,157983.125,-0.04248046875,1.00341796875,-0.099853515625,-1.6479490995407104,1.4343260526657104,1.2207030057907104,100.0,225896.0,1.0
15:43:36.096022,174450.09375,168561.84375,157934.578125,199197.5,159790.296875,162699.96875,687274.125,157993.40625,-0.042724609375,1.004150390625,-0.09765625,-1.6174315214157104,1.4343260526657104,1.2512205839157104,100.0,225897.0,1.0
15:43:36.096035,174436.0625,168548.515625,157924.734375,199201.890625,159781.8125,162686.375,687269.9375,157992.515625,-0.04345703125,1.004150390625,-0.098388671875,-1.4953612089157104,1.4038084745407104,1.2817381620407104,100.0,225898.0,1.0
15:43:36.096036,174499.453125,168558.984375,157932.78125,199201.078125,159785.828125,162697.28125,687254.5,157988.03125,-0.04296875,1.001708984375,-0.10009765625,-1.5563963651657104,1.5258787870407104,1.2207030057907104,100.0,225899.0,1.0
15:43:36.100497,174484.078125,168572.3125,157941.1875,199193.21875,159791.734375,162710.6875,687199.875,157984.015625,-0.044677734375,1.004638671875,-0.09814453125,-1.5258787870407104,1.4648436307907104,1.2207030057907104,100.0,225900.0,1.0
15:43:36.100544,174448.484375,168561.671875,157933.328125,199195.890625,159786.90625,162698.890625,687272.5625,157989.375,-0.0439453125,1.004150390625,-0.09765625,-1.4343260526657104,1.4343260526657104,1.2817381620407104,100.0,225901.0,1.0
15:43:36.100555,174433.640625,168547.890625,157922.6875,199206.359375,159779.484375,162683.96875,687288.5625,157994.65625,-0.04296875,1.005859375,-0.099609375,-1.3427733182907104,1.4343260526657104,1.2512205839157104,100.0,225902.0,1.0
15:43:36.100567,174489.4375,168560.234375,157931.265625,199206.171875,159784.9375,162697.90625,687248.5,157993.765625,-0.042724609375,1.006591796875,-0.097900390625,-1.4343260526657104,1.4648436307907104,1.1901854276657104,100.0,225903.0,1.0
15:43:36.102358,174496.5,168577.046875,157941.8125,199192.59375,159792.265625,162714.453125,687187.875,157984.015625,-0.043212890625,1.005859375,-0.0986328125,-1.3732908964157104,1.3732908964157104,1.2817381620407104,100.0,225904.0,1.0
15:43:36.107337,174454.125,168571.859375,157937.703125,199188.921875,159789.765625,162709.0,687252.0,157986.078125,-0.04443359375,1.006591796875,-0.099365234375,-1.3732908964157104,1.2817381620407104,1.1901854276657104,100.0,225905.0,1.0
15:43:36.109841,174439.734375,168552.71875,157925.28125,199203.140625,159783.515625,162687.8125,687280.3125,157993.40625,-0.045654296875,1.005859375,-0.099365234375,-1.4038084745407104,1.2817381620407104,1.2207030057907104,100.0,225906.0,1.0
15:43:36.120453,174475.9375,168560.765625,157930.546875,199202.25,159786.015625,162696.65625,687249.9375,157991.609375,-0.044189453125,1.0068359375,-0.099609375,-1.4038084745407104,1.2817381620407104,1.3122557401657104,100.0,225907.0,1.0
15:43:36.120461,174505.703125,168574.453125,157941.1875,199196.25,159791.5625,162710.34375,687193.9375,157986.421875,-0.046142578125,1.0087890625,-0.099609375,-1.4343260526657104,1.2817381620407104,1.2817381620407104,100.0,225908.0,1.0
15:43:36.184147,174456.890625,168575.078125,157939.484375,199187.9375,159791.203125,162710.609375,687245.4375,157986.25,-0.046630859375,1.0048828125,-0.096923828125,-1.3427733182907104,1.1596678495407104,1.2207030057907104,100.0,225909.0,1.0
15:43:36.184172,174445.8125,168555.765625,157927.515625,199203.046875,159785.5625,162690.484375,687279.4375,157996.265625,-0.047607421875,1.004150390625,-0.099365234375,-1.3122557401657104,1.1596678495407104,1.0986326932907104,100.0,225910.0,1.0
15:43:36.186277,174464.671875,168558.984375,157928.765625,199201.609375,159783.859375,162694.0625,687245.4375,157991.796875,-0.044189453125,1.006103515625,-0.09814453125,-1.2512205839157104,1.1291502714157104,1.1291502714157104,100.0,225911.0,1.0
15:43:36.188559,174511.796875,168572.3125,157937.96875,199197.5,159789.5,162707.75,687187.6875,157986.34375,-0.045654296875,1.0068359375,-0.097412109375,-1.2512205839157104,0.9765624403953552,1.2512205839157104,100.0,225912.0,1.0
15:43:36.191107,174458.859375,168576.15625,157937.96875,199183.921875,159788.96875,162711.765625,687227.6875,157981.953125,-0.044677734375,1.007568359375,-0.098876953125,-1.3122557401657104,0.9460448622703552,1.1901854276657104,100.0,225913.0,1.0
15:43:36.193571,174447.859375,168555.671875,157926.34375,199199.734375,159782.890625,162689.6875,687290.9375,157992.6875,-0.046630859375,1.008056640625,-0.098388671875,-1.2817381620407104,0.8850097060203552,1.1291502714157104,100.0,225914.0,1.0
15:43:36.196045,174453.40625,168556.390625,157927.15625,199205.640625,159782.796875,162691.03125,687257.6875,157994.125,-0.045654296875,1.009033203125,-0.098876953125,-1.3122557401657104,0.7934569716453552,1.2512205839157104,100.0,225915.0,1.0
15:43:36.198753,174516.703125,168571.328125,157938.421875,199205.28125,159791.109375,162706.765625,687227.125,157990.984375,-0.04638671875,1.00537109375,-0.098388671875,-1.2817381620407104,0.7019042372703552,1.3122557401657104,100.0,225916.0,1.0
15:43:36.206963,174466.1875,168577.046875,157940.203125,199190.359375,159791.109375,162713.109375,687207.375,157985.71875,-0.047119140625,1.005859375,-0.095947265625,-1.3732908964157104,0.5798339247703552,1.1901854276657104,100.0,225917.0,1.0
15:43:36.207052,174449.203125,168556.390625,157925.625,199197.328125,159783.0625,162691.46875,687303.75,157993.046875,-0.04443359375,1.006103515625,-0.097412109375,-1.4343260526657104,0.5187987685203552,1.0986326932907104,100.0,225918.0,1.0
15:43:36.207082,174441.0625,168550.40625,157920.984375,199201.703125,159777.96875,162685.578125,687269.9375,157991.609375,-0.0439453125,1.007080078125,-0.097412109375,-1.3732908964157104,0.5798339247703552,1.1901854276657104,100.0,225919.0,1.0
15:43:36.208737,174509.28125,168563.28125,157931.359375,199200.453125,159783.234375,162699.078125,687253.5625,157984.90625,-0.044921875,1.00732421875,-0.0986328125,-1.4038084745407104,0.4577636420726776,0.9765624403953552,100.0,225920.0,1.0
15:43:36.213693,174471.203125,168572.65625,157936.09375,199187.140625,159783.421875,162708.015625,687203.0625,157976.59375,-0.04443359375,1.00732421875,-0.097900390625,-1.3732908964157104,0.4272460639476776,1.0681151151657104,100.0,225921.0,1.0
15:43:36.216064,174445.453125,168557.546875,157925.09375,199189.28125,159776.796875,162691.296875,687273.0,157981.328125,-0.0439453125,1.00732421875,-0.102294921875,-1.4038084745407104,0.3356933295726776,1.0986326932907104,100.0,225922.0,1.0
15:43:36.218490,174430.515625,168544.140625,157915.0,199194.90625,159769.65625,162679.21875,687273.0,157982.140625,-0.04296875,1.006591796875,-0.100341796875,-1.4038084745407104,0.2441406100988388,1.0986326932907104,100.0,225923.0,1.0
15:43:36.221002,174491.40625,168551.734375,157920.796875,199189.90625,159772.59375,162687.890625,687242.25,157976.421875,-0.0419921875,1.008056640625,-0.1015625,-1.4038084745407104,0.3051757514476776,1.0986326932907104,100.0,225924.0,1.0
15:43:36.223666,174478.078125,168567.03125,157932.34375,199180.875,159780.375,162703.09375,687191.75,157972.484375,-0.042724609375,1.00537109375,-0.100830078125,-1.4343260526657104,0.1831054538488388,1.0070799589157104,100.0,225925.0,1.0
15:43:36.225996,174447.234375,168560.234375,157929.203125,199189.640625,159780.5625,162695.3125,687269.9375,157983.296875,-0.04150390625,1.005859375,-0.100830078125,-1.3732908964157104,0.1831054538488388,1.0681151151657104,100.0,225926.0,1.0
15:43:36.228705,174433.828125,168545.484375,157920.359375,199203.046875,159776.796875,162681.453125,687266.8125,157990.546875,-0.04150390625,1.00439453125,-0.101318359375,-1.3427733182907104,0.1525878757238388,1.0986326932907104,100.0,225927.0,1.0
15:43:36.232305,174490.328125,168557.46875,157931.0,199207.96875,159783.953125,162694.15625,687246.8125,157994.46875,-0.041015625,1.006103515625,-0.1025390625,-1.3732908964157104,0.0610351525247097,1.0986326932907104,100.0,225928.0,1.0
15:43:36.232311,174494.09375,168568.28125,157937.96875,199194.28125,159786.015625,162704.796875,687187.25,157983.921875,-0.041259765625,1.00537109375,-0.099609375,-1.3427733182907104,0.0,1.0375975370407104,100.0,225929.0,1.0
15:43:36.232313,174448.578125,168562.109375,157931.890625,199187.3125,159782.34375,162698.71875,687262.375,157981.78125,-0.040283203125,1.0078125,-0.100830078125,-1.3732908964157104,-0.03051757626235485,1.0375975370407104,100.0,225930.0,1.0
15:43:36.235971,174432.390625,168543.25,157916.78125,199197.765625,159773.9375,162679.40625,687293.1875,157987.328125,-0.039306640625,1.0068359375,-0.099609375,-1.3732908964157104,0.0610351525247097,1.1596678495407104,100.0,225931.0,1.0
15:43:36.235985,174470.484375,168551.65625,157922.765625,199199.46875,159777.34375,162690.3125,687261.75,157984.90625,-0.04150390625,1.007080078125,-0.1015625,-1.4648436307907104,0.0915527269244194,1.0681151151657104,100.0,225932.0,1.0
15:43:36.235988,174498.46875,168564.703125,157931.984375,199192.765625,159781.8125,162702.734375,687210.125,157978.03125,-0.0400390625,1.00537109375,-0.10009765625,-1.3427733182907104,0.1220703050494194,1.0375975370407104,100.0,225933.0,1.0
15:43:36.238668,174448.046875,168565.59375,157930.546875,199184.0,159780.375,162702.203125,687219.0,157977.21875,-0.0380859375,1.00439453125,-0.10205078125,-1.3122557401657104,0.1525878757238388,1.0681151151657104,100.0,225934.0,1.0
15:43:36.241681,174435.796875,168544.59375,157917.671875,199199.5625,159773.140625,162679.671875,687269.0625,157985.625,-0.037353515625,1.005615234375,-0.100830078125,-1.3122557401657104,0.0610351525247097,1.0681151151657104,100.0,225935.0,1.0
15:43:36.245290,174452.15625,168547.71875,157919.46875,199197.328125,159771.703125,162684.9375,687248.5625,157981.515625,-0.038818359375,1.005615234375,-0.09912109375,-1.3122557401657104,0.1525878757238388,1.0375975370407104,100.0,225936.0,1.0
15:43:36.245368,174501.953125,168561.21875,157929.5625,199193.21875,159778.234375,162699.078125,687205.25,157976.59375,-0.039306640625,1.005615234375,-0.099609375,-1.2207030057907104,0.0915527269244194,1.0375975370407104,100.0,225937.0,1.0
15:43:36.246066,174445.359375,168562.203125,157927.515625,199178.453125,159775.734375,162699.78125,687214.625,157971.9375,-0.03759765625,1.005126953125,-0.098388671875,-1.2817381620407104,0.0610351525247097,1.0681151151657104,100.0,225938.0,1.0
15:43:36.248650,174434.28125,168541.546875,157915.703125,199194.203125,159769.390625,162677.4375,687279.1875,157983.296875,-0.0380859375,1.007080078125,-0.097900390625,-1.2817381620407104,0.1220703050494194,1.0070799589157104,100.0,225939.0,1.0
15:43:36.251158,174437.9375,168539.9375,157914.546875,199196.515625,159767.59375,162677.25,687257.0625,157982.578125,-0.037353515625,1.005615234375,-0.10205078125,-1.2817381620407104,0.3051757514476776,1.0681151151657104,100.0,225940.0,1.0
15:43:36.253607,174500.96875,168553.96875,157925.1875,199194.109375,159774.84375,162692.09375,687248.9375,157978.65625,-0.038330078125,1.005615234375,-0.10205078125,-1.1901854276657104,0.3051757514476776,0.9765624403953552,100.0,225941.0,1.0
15:43:36.256670,174453.671875,168564.609375,157928.9375,199180.25,159776.796875,162703.09375,687204.6875,157971.5,-0.035400390625,1.005615234375,-0.099853515625,-1.2207030057907104,0.2746581733226776,1.0986326932907104,100.0,225942.0,1.0
15:43:36.256681,174436.328125,168546.46875,157915.171875,199191.25,159769.296875,162683.15625,687275.0625,157979.640625,-0.035400390625,1.006103515625,-0.0986328125,-1.1901854276657104,0.3051757514476776,1.0070799589157104,100.0,225943.0,1.0
15:43:36.262288,174427.125,168538.953125,157906.59375,199191.15625,159762.5,162676.09375,687264.6875,157976.5,-0.036865234375,1.00634765625,-0.096435546875,-1.1901854276657104,0.3662109076976776,1.0070799589157104,100.0,225944.0,1.0
15:43:36.269102,174497.03125,168554.609375,157919.640625,199192.3125,159771.0,162692.453125,687228.0,157974.359375,-0.036865234375,1.00634765625,-0.0986328125,-1.1901854276657104,0.3662109076976776,1.0375975370407104,100.0,225945.0,1.0
15:43:36.269112,174463.0625,168566.84375,157927.515625,199181.765625,159774.921875,162704.4375,687187.5,157969.703125,-0.03515625,1.007568359375,-0.097900390625,-1.1291502714157104,0.4577636420726776,1.0070799589157104,100.0,225946.0,1.0
15:43:36.275383,174439.546875,168551.46875,157917.671875,199190.53125,159770.28125,162688.15625,687287.1875,157979.71875,-0.033203125,1.007568359375,-0.100341796875,-1.0986326932907104,0.4577636420726776,1.0375975370407104,100.0,225947.0,1.0
15:43:36.275395,174424.4375,168540.296875,157908.734375,199192.3125,159763.65625,162677.609375,687279.3125,157977.9375,-0.03515625,1.00830078125,-0.101806640625,-1.2207030057907104,0.4577636420726776,1.0070799589157104,100.0,225948.0,1.0
15:43:36.281114,174491.9375,168555.140625,157922.6875,199197.234375,159772.515625,162693.34375,687247.6875,157979.359375,-0.03662109375,1.008056640625,-0.100341796875,-1.1901854276657104,0.4882812201976776,0.9765624403953552,100.0,225949.0,1.0
15:43:36.289163,174478.0,168569.625,157932.421875,199186.953125,159778.859375,162708.09375,687194.6875,157974.0,-0.037109375,1.007568359375,-0.100341796875,-1.1596678495407104,0.4272460639476776,1.0375975370407104,100.0,225950.0,1.0
15:43:36.289185,174446.25,168563.453125,157928.578125,199191.421875,159779.125,162701.3125,687266.1875,157982.578125,-0.0380859375,1.00830078125,-0.099853515625,-1.0986326932907104,0.4577636420726776,1.0375975370407104,100.0,225951.0,1.0
15:43:36.294823,174428.734375,168545.65625,157915.171875,199199.296875,159770.71875,162682.53125,687277.8125,157986.515625,-0.03857421875,1.010009765625,-0.0986328125,-1.1291502714157104,0.5798339247703552,1.0986326932907104,100.0,225952.0,1.0
15:43:36.301947,174478.890625,168552.640625,157920.796875,199196.078125,159773.140625,162690.578125,687238.3125,157980.703125,-0.0380859375,1.00830078125,-0.098388671875,-1.2207030057907104,0.5798339247703552,0.9155272841453552,100.0,225953.0,1.0
15:43:36.301996,174483.71875,168563.546875,157928.140625,199186.328125,159776.71875,162701.578125,687186.4375,157973.015625,-0.038818359375,1.009033203125,-0.0986328125,-1.2817381620407104,0.5187987685203552,0.8850097060203552,100.0,225954.0,1.0
15:43:36.307383,174438.828125,168557.828125,157923.9375,199182.9375,159773.765625,162694.59375,687273.375,157976.234375,-0.037353515625,1.010009765625,-0.100830078125,-1.2512205839157104,0.4882812201976776,0.9155272841453552,100.0,225955.0,1.0
15:43:36.314152,174426.234375,168539.140625,157911.59375,199195.0,159767.140625,162674.75,687284.6875,157983.125,-0.036376953125,1.008056640625,-0.10107421875,-1.3122557401657104,0.4272460639476776,0.8850097060203552,100.0,225956.0,1.0
15:43:36.314165,174463.0625,168546.375,157917.5,199196.796875,159770.546875,162683.6875,687243.875,157982.40625,-0.037841796875,1.0068359375,-0.10205078125,-1.3427733182907104,0.5187987685203552,0.8544921278953552,100.0,225957.0,1.0
15:43:36.319096,174492.125,168560.140625,157926.609375,199188.5625,159775.375,162697.109375,687185.5625,157974.625,-0.03857421875,1.0078125,-0.101806640625,-1.3122557401657104,0.5187987685203552,0.8544921278953552,100.0,225958.0,1.0
15:43:36.319105,174442.953125,168563.546875,157928.5,199184.09375,159778.40625,162700.859375,687228.9375,157978.296875,-0.040283203125,1.00732421875,-0.10205078125,-1.3732908964157104,0.5493163466453552,0.7934569716453552,100.0,225959.0,1.0
15:43:36.326113,174432.03125,168545.65625,157916.78125,199199.109375,159773.3125,162681.09375,687291.875,157987.59375,-0.037353515625,1.007568359375,-0.1005859375,-1.3427733182907104,0.5187987685203552,0.8239745497703552,100.0,225960.0,1.0
15:43:36.336811,174448.75,168548.34375,157918.03125,199197.421875,159772.15625,162684.859375,687256.1875,157982.9375,-0.0361328125,1.0087890625,-0.097900390625,-1.3427733182907104,0.5187987685203552,0.7629393935203552,100.0,225961.0,1.0
15:43:36.336823,174501.59375,168563.8125,157931.890625,199195.625,159780.828125,162699.96875,687211.6875,157980.171875,-0.037109375,1.009033203125,-0.098388671875,-1.3732908964157104,0.3967284858226776,0.7629393935203552,100.0,225962.0,1.0
15:43:36.338761,174450.09375,168567.390625,157932.609375,199182.21875,159779.9375,162704.609375,687218.875,157974.890625,-0.036865234375,1.007568359375,-0.10205078125,-1.3732908964157104,0.4577636420726776,0.7934569716453552,100.0,225963.0,1.0
15:43:36.342432,174436.515625,168547.625,157920.0,199196.34375,159773.578125,162683.421875,687283.25,157984.734375,-0.03759765625,1.00830078125,-0.100341796875,-1.4648436307907104,0.3662109076976776,0.7019042372703552,100.0,225964.0,1.0
15:43:36.352973,174440.71875,168547.890625,157919.640625,199198.21875,159772.328125,162684.234375,687260.0,157983.484375,-0.03662109375,1.007080078125,-0.0986328125,-1.4038084745407104,0.3967284858226776,0.7629393935203552,100.0,225965.0,1.0
15:43:36.352997,174504.28125,168559.703125,157930.734375,199198.390625,159778.140625,162697.375,687221.3125,157979.984375,-0.03857421875,1.007568359375,-0.100341796875,-1.4648436307907104,0.2746581733226776,0.7019042372703552,100.0,225966.0,1.0
15:43:36.355458,174457.4375,168568.1875,157934.390625,199188.296875,159780.375,162705.15625,687198.0625,157977.9375,-0.0390625,1.00537109375,-0.101318359375,-1.3427733182907104,0.1220703050494194,0.6713866591453552,100.0,225967.0,1.0
15:43:36.355468,174441.609375,168551.46875,157922.765625,199197.328125,159775.109375,162685.75,687269.6875,157986.25,-0.04248046875,1.004150390625,-0.099853515625,-1.3732908964157104,0.1831054538488388,0.5798339247703552,100.0,225968.0,1.0
15:43:36.364850,174434.71875,168546.015625,157919.109375,199202.78125,159772.515625,162681.015625,687255.8125,157988.03125,-0.041748046875,1.005126953125,-0.099609375,-1.4038084745407104,0.1831054538488388,0.5187987685203552,100.0,225969.0,1.0
15:43:36.369141,174508.125,168563.0,157935.109375,199205.375,159783.515625,162697.640625,687232.875,157987.234375,-0.03955078125,1.0068359375,-0.1005859375,-1.3732908964157104,0.03051757626235485,0.4272460639476776,100.0,225970.0,1.0
15:43:36.369189,174477.015625,168575.796875,157943.953125,199193.03125,159788.6875,162709.703125,687192.1875,157981.515625,-0.0390625,1.00439453125,-0.099853515625,-1.3427733182907104,-0.0610351525247097,0.3356933295726776,100.0,225971.0,1.0
15:43:36.381700,174454.75,168563.359375,157936.71875,199203.859375,159786.1875,162696.03125,687283.375,157991.796875,-0.038330078125,1.00390625,-0.099853515625,-1.3427733182907104,-0.0610351525247097,0.3051757514476776,100.0,225972.0,1.0
15:43:36.381849,174440.078125,168552.015625,157927.234375,199210.734375,159780.109375,162686.203125,687272.375,157994.203125,-0.040283203125,1.002685546875,-0.098876953125,-1.2512205839157104,-0.0915527269244194,0.2441406100988388,100.0,225973.0,1.0
15:43:36.381878,174501.6875,168563.8125,157935.734375,199209.390625,159784.21875,162698.71875,687235.875,157991.171875,-0.0390625,1.00390625,-0.1005859375,-1.2207030057907104,-0.1831054538488388,0.3356933295726776,100.0,225974.0,1.0
15:43:36.387480,174488.359375,168577.3125,157945.296875,199200.09375,159789.953125,162712.578125,687186.8125,157985.890625,-0.036865234375,1.003662109375,-0.09912109375,-1.1596678495407104,-0.1525878757238388,0.3662109076976776,100.0,225975.0,1.0
15:43:36.394114,174454.125,168566.671875,157937.796875,199199.734375,159786.546875,162701.390625,687266.1875,157990.265625,-0.0380859375,1.00634765625,-0.100341796875,-1.2817381620407104,-0.1220703050494194,0.3967284858226776,100.0,225976.0,1.0
15:43:36.394126,174433.015625,168546.28125,157920.796875,199204.296875,159773.578125,162679.84375,687279.875,157989.640625,-0.037353515625,1.004638671875,-0.102294921875,-1.2207030057907104,-0.1220703050494194,0.4272460639476776,100.0,225977.0,1.0
15:43:36.404155,174485.140625,168556.125,157927.234375,199205.546875,159776.0,162690.125,687254.3125,157986.875,-0.03759765625,1.0048828125,-0.102294921875,-1.1901854276657104,-0.2746581733226776,0.4272460639476776,100.0,225978.0,1.0
15:43:36.404167,174494.625,168572.21875,157939.765625,199199.203125,159784.3125,162706.9375,687196.875,157984.015625,-0.03857421875,1.00390625,-0.1015625,-1.1901854276657104,-0.2441406100988388,0.3662109076976776,100.0,225979.0,1.0
15:43:36.406152,174452.25,168570.703125,157938.15625,199197.328125,159785.125,162705.59375,687243.6875,157988.125,-0.039794921875,1.00634765625,-0.10205078125,-1.1901854276657104,-0.2746581733226776,0.4577636420726776,100.0,225980.0,1.0
15:43:36.409839,174439.8125,168552.640625,157926.609375,199212.875,159779.578125,162687.09375,687283.0,157996.703125,-0.040283203125,1.007568359375,-0.10302734375,-1.3122557401657104,-0.3356933295726776,0.4272460639476776,100.0,225981.0,1.0
15:43:36.416665,174476.921875,168561.671875,157933.234375,199215.921875,159783.328125,162696.203125,687250.125,157996.265625,-0.04052734375,1.00537109375,-0.100341796875,-1.3122557401657104,-0.3356933295726776,0.3662109076976776,100.0,225982.0,1.0
15:43:36.416674,174510.71875,168576.6875,157944.234375,199207.96875,159789.765625,162709.890625,687192.625,157989.296875,-0.04296875,1.0078125,-0.10107421875,-1.1901854276657104,-0.3967284858226776,0.3662109076976776,100.0,225983.0,1.0
15:43:36.427395,174463.0625,168580.796875,157946.828125,199206.71875,159792.265625,162712.921875,687243.6875,157996.703125,-0.040771484375,1.00634765625,-0.10595703125,-1.1596678495407104,-0.4272460639476776,0.2136230319738388,100.0,225984.0,1.0
15:43:36.435442,174446.171875,168555.5,157929.296875,199216.734375,159781.90625,162687.0,687306.6875,158003.140625,-0.040283203125,1.007080078125,-0.10400390625,-1.2207030057907104,-0.4577636420726776,0.2441406100988388,100.0,225985.0,1.0
15:43:36.435457,174460.734375,168555.234375,157926.796875,199215.5625,159778.859375,162688.796875,687257.25,157997.15625,-0.039306640625,1.0078125,-0.103759765625,-1.0681151151657104,-0.5187987685203552,0.2136230319738388,100.0,225986.0,1.0
15:43:36.448162,174510.890625,168570.421875,157938.234375,199208.6875,159785.296875,162704.25,687198.9375,157988.3125,-0.0380859375,1.007080078125,-0.10302734375,-1.0070799589157104,-0.5493163466453552,0.1220703050494194,100.0,225987.0,1.0
15:43:36.448184,174461.0,168577.046875,157942.171875,199197.234375,159786.640625,162710.96875,687223.5625,157985.09375,-0.040771484375,1.00732421875,-0.101318359375,-1.0070799589157104,-0.6103515028953552,0.03051757626235485,100.0,225988.0,1.0
15:43:36.448188,174449.734375,168559.34375,157931.4375,199213.421875,159782.609375,162690.9375,687293.75,157996.171875,-0.043212890625,1.009521484375,-0.099365234375,-0.9765624403953552,-0.6713866591453552,-0.0610351525247097,100.0,225989.0,1.0
15:43:36.448191,174451.34375,168557.46875,157929.203125,199212.53125,159780.015625,162690.84375,687264.25,157993.578125,-0.04248046875,1.008544921875,-0.101318359375,-1.0070799589157104,-0.7629393935203552,-0.03051757626235485,100.0,225990.0,1.0
15:43:36.460416,174512.6875,168567.390625,157937.171875,199209.84375,159783.59375,162700.234375,687218.0,157988.578125,-0.04248046875,1.008056640625,-0.101318359375,-1.0681151151657104,-0.7629393935203552,-0.1831054538488388,100.0,225991.0,1.0
15:43:36.460429,174468.15625,168577.046875,157941.71875,199196.609375,159785.65625,162709.078125,687196.625,157983.5625,-0.0439453125,1.009033203125,-0.10009765625,-1.1596678495407104,-0.8850097060203552,-0.2746581733226776,100.0,225992.0,1.0
15:43:36.489090,174453.046875,168562.203125,157932.78125,199210.015625,159783.15625,162693.171875,687288.0,157995.8125,-0.043212890625,1.009521484375,-0.09765625,-1.1901854276657104,-0.9155272841453552,-0.3356933295726776,100.0,225993.0,1.0
15:43:36.489113,174444.375,168555.765625,157927.59375,199214.140625,159778.234375,162688.609375,687267.8125,157995.375,-0.043701171875,1.010498046875,-0.098876953125,-1.2207030057907104,-1.0375975370407104,-0.4272460639476776,100.0,225994.0,1.0
15:43:36.489117,174510.71875,168569.0,157937.609375,199213.15625,159784.3125,162701.84375,687221.9375,157992.15625,-0.04248046875,1.010986328125,-0.099853515625,-1.2207030057907104,-1.1291502714157104,-0.4577636420726776,100.0,225995.0,1.0
15:43:36.489120,174476.65625,168580.0,157943.15625,199197.234375,159787.359375,162712.296875,687193.25,157985.359375,-0.04296875,1.009521484375,-0.100341796875,-1.3732908964157104,-1.0986326932907104,-0.5187987685203552,100.0,225996.0,1.0
15:43:36.512273,174451.53125,168565.59375,157933.234375,199204.296875,159781.984375,162695.578125,687286.25,157993.140625,-0.042236328125,1.01123046875,-0.10205078125,-1.4648436307907104,-1.0986326932907104,-0.5798339247703552,100.0,225997.0,1.0
15:43:36.538490,174439.375,168555.234375,157925.1875,199212.796875,159776.171875,162685.125,687264.4375,157995.015625,-0.0390625,1.010009765625,-0.10107421875,-1.4953612089157104,-1.1596678495407104,-0.5187987685203552,100.0,225998.0,1.0
15:43:36.538504,174504.1875,168569.796875,157935.828125,199211.625,159782.703125,162700.046875,687252.8125,157991.703125,-0.037841796875,1.012451171875,-0.1005859375,-1.4953612089157104,-1.2207030057907104,-0.4882812201976776,100.0,225999.0,1.0
15:43:36.538506,174487.65625,168580.078125,157941.015625,199197.6875,159783.78125,162710.421875,687194.875,157982.671875,-0.039306640625,1.0107421875,-0.099853515625,-1.6174315214157104,-1.2817381620407104,-0.4272460639476776,100.0,226000.0,1.0
15:43:36.554174,174448.9375,168569.265625,157931.53125,199198.484375,159778.140625,162699.875,687278.0,157987.328125,-0.03955078125,1.01220703125,-0.0986328125,-1.6174315214157104,-1.3122557401657104,-0.1831054538488388,100.0,226001.0,1.0
15:43:36.554188,174432.125,168552.640625,157919.546875,199206.71875,159770.546875,162682.796875,687288.25,157990.359375,-0.039306640625,1.0107421875,-0.10107421875,-1.7700194120407104,-1.2817381620407104,-0.1525878757238388,100.0,226002.0,1.0
15:43:36.556647,174484.515625,168563.09375,157927.515625,199206.265625,159775.90625,162694.15625,687259.0625,157987.6875,-0.0400390625,1.010009765625,-0.10009765625,-1.7395018339157104,-1.3732908964157104,-0.2441406100988388,100.0,226003.0,1.0
15:43:36.556658,174494.53125,168576.5,157937.96875,199196.34375,159782.078125,162708.640625,687201.8125,157980.96875,-0.039794921875,1.0107421875,-0.099609375,-1.7089842557907104,-1.3122557401657104,0.0,100.0,226004.0,1.0
15:43:36.559744,174454.296875,168576.234375,157938.0625,199195.453125,159783.953125,162708.90625,687256.1875,157985.09375,-0.038818359375,1.0107421875,-0.099853515625,-1.7700194120407104,-1.2207030057907104,0.0610351525247097,100.0,226005.0,1.0
15:43:36.559754,174438.125,168556.296875,157924.375,199208.140625,159776.359375,162688.96875,687281.125,157994.125,-0.038818359375,1.0087890625,-0.096923828125,-1.9531248807907104,-1.1291502714157104,0.1220703050494194,100.0,226006.0,1.0
15:43:36.559757,174470.484375,168561.578125,157926.96875,199205.28125,159776.265625,162694.875,687262.4375,157989.828125,-0.0390625,1.00927734375,-0.099609375,-1.8615721464157104,-1.0070799589157104,0.2136230319738388,100.0,226007.0,1.0
15:43:36.562259,174505.4375,168577.140625,157938.6875,199200.453125,159783.59375,162709.171875,687214.9375,157983.84375,-0.03955078125,1.00732421875,-0.098388671875,-2.014159917831421,-1.0070799589157104,0.2136230319738388,100.0,226008.0,1.0
15:43:36.564819,174451.625,168574.890625,157935.375,199186.421875,159780.46875,162708.640625,687219.625,157978.921875,-0.03955078125,1.009033203125,-0.099365234375,-2.075195074081421,-1.0375975370407104,0.2746581733226776,100.0,226009.0,1.0
15:43:36.567281,174439.546875,168555.859375,157922.328125,199200.09375,159773.765625,162686.828125,687294.0625,157986.875,-0.038330078125,1.005859375,-0.100830078125,-2.166747808456421,-0.9460448622703552,0.2746581733226776,100.0,226010.0,1.0
15:43:36.569828,174456.265625,168559.34375,157924.375,199203.578125,159773.9375,162690.125,687262.0,157985.453125,-0.037353515625,1.005615234375,-0.1005859375,-2.197265386581421,-0.9155272841453552,0.2441406100988388,100.0,226011.0,1.0
15:43:36.572274,174508.921875,168574.453125,157937.4375,199202.421875,159782.703125,162706.3125,687203.0,157983.5625,-0.038330078125,1.0048828125,-0.09912109375,-2.166747808456421,-0.8239745497703552,0.1525878757238388,100.0,226012.0,1.0
15:43:36.574741,174458.234375,168581.609375,157940.921875,199191.421875,159785.65625,162713.109375,687226.4375,157982.234375,-0.039794921875,1.005126953125,-0.09619140625,-2.227782964706421,-0.8239745497703552,0.2136230319738388,100.0,226013.0,1.0
15:43:36.577303,174449.203125,168564.703125,157931.625,199206.265625,159782.25,162694.25,687286.375,157992.515625,-0.04052734375,1.003173828125,-0.0986328125,-2.197265386581421,-0.7934569716453552,0.0610351525247097,100.0,226014.0,1.0
15:43:36.579768,174451.171875,168563.453125,157930.640625,199209.390625,159780.46875,162693.171875,687259.75,157991.53125,-0.041015625,1.000244140625,-0.097412109375,-2.105712652206421,-0.7324218153953552,0.0610351525247097,100.0,226015.0,1.0
15:43:36.582270,174517.0625,168577.046875,157942.703125,199211.09375,159788.34375,162708.09375,687226.25,157990.09375,-0.038818359375,1.002685546875,-0.09912109375,-2.105712652206421,-0.7629393935203552,-0.03051757626235485,100.0,226016.0,1.0
15:43:36.584750,174467.265625,168582.140625,157943.515625,199192.671875,159786.375,162714.359375,687206.0,157980.53125,-0.037109375,1.002685546875,-0.097900390625,-1.9531248807907104,-0.7019042372703552,0.0610351525247097,100.0,226017.0,1.0
15:43:36.587255,174451.078125,168565.15625,157932.609375,199205.640625,159780.828125,162694.328125,687293.375,157990.8125,-0.037353515625,1.003173828125,-0.098876953125,-1.8615721464157104,-0.6103515028953552,-0.0610351525247097,100.0,226018.0,1.0
15:43:36.589767,174441.609375,168557.28125,157926.171875,199210.015625,159776.265625,162687.0,687267.8125,157992.234375,-0.036376953125,1.0029296875,-0.10009765625,-1.8920897245407104,-0.5493163466453552,-0.0610351525247097,100.0,226019.0,1.0
15:43:36.592978,174511.515625,168570.78125,157938.5,199211.546875,159784.40625,162702.015625,687228.1875,157991.34375,-0.03662109375,1.00048828125,-0.1005859375,-1.7700194120407104,-0.4272460639476776,-0.0915527269244194,100.0,226020.0,1.0
15:43:36.593015,174480.765625,168584.734375,157947.09375,199199.921875,159789.59375,162716.140625,687186.6875,157985.796875,-0.03662109375,1.002197265625,-0.099609375,-1.7089842557907104,-0.3967284858226776,0.0,100.0,226021.0,1.0
15:43:36.595679,174456.625,168570.515625,157937.703125,199205.8125,159785.75,162700.859375,687284.25,157992.859375,-0.037109375,1.003173828125,-0.101318359375,-1.6479490995407104,-0.2746581733226776,0.0610351525247097,100.0,226022.0,1.0
15:43:36.595694,174438.03125,168555.234375,157925.28125,199209.484375,159776.265625,162685.578125,687284.4375,157991.96875,-0.037353515625,1.001708984375,-0.09912109375,-1.6479490995407104,-0.1525878757238388,0.0610351525247097,100.0,226023.0,1.0
15:43:36.598007,174498.203125,168565.515625,157932.25,199207.15625,159779.75,162697.28125,687236.9375,157987.234375,-0.039794921875,1.00390625,-0.101806640625,-1.4953612089157104,-0.1831054538488388,0.1525878757238388,100.0,226024.0,1.0
15:43:36.598023,174482.90625,168575.703125,157938.15625,199194.015625,159782.171875,162707.921875,687185.9375,157978.65625,-0.0390625,1.004638671875,-0.10107421875,-1.4953612089157104,-0.1525878757238388,0.1525878757238388,100.0,226025.0,1.0
15:43:36.599815,174447.328125,168565.328125,157929.75,199195.8125,159777.34375,162695.765625,687262.375,157983.5625,-0.0390625,1.005615234375,-0.10400390625,-1.4343260526657104,-0.1831054538488388,0.03051757626235485,100.0,226026.0,1.0
15:43:36.602888,174430.875,168548.171875,157917.3125,199206.171875,159769.46875,162678.5,687254.125,157987.765625,-0.038818359375,1.00439453125,-0.100341796875,-1.4343260526657104,-0.1831054538488388,0.0,100.0,226027.0,1.0
15:43:36.602898,174482.90625,168559.96875,157926.703125,199208.859375,159775.640625,162691.46875,687247.4375,157987.234375,-0.042724609375,1.006103515625,-0.09814453125,-1.4648436307907104,-0.1831054538488388,-0.03051757626235485,100.0,226028.0,1.0
15:43:36.605122,174493.109375,168574.453125,157937.25,199200.359375,159781.359375,162705.421875,687192.875,157980.171875,-0.0458984375,1.005126953125,-0.099365234375,-1.4343260526657104,-0.2441406100988388,0.0915527269244194,100.0,226029.0,1.0
15:43:36.607859,174445.625,168569.796875,157933.234375,199189.453125,159777.96875,162700.40625,687268.0625,157975.609375,-0.0458984375,1.0048828125,-0.09912109375,-1.3427733182907104,-0.2746581733226776,0.03051757626235485,100.0,226030.0,1.0
15:43:36.607869,174435.078125,168553.265625,157923.671875,199207.96875,159773.046875,162682.625,687305.375,157986.078125,-0.04736328125,1.00732421875,-0.09619140625,-1.2817381620407104,-0.3356933295726776,0.0610351525247097,100.0,226031.0,1.0
15:43:36.609772,174472.984375,168562.828125,157930.015625,199212.25,159778.859375,162693.96875,687262.875,157989.203125,-0.047119140625,1.01025390625,-0.09912109375,-1.3427733182907104,-0.3051757514476776,0.0610351525247097,100.0,226032.0,1.0
15:43:36.624843,174505.265625,168577.671875,157940.03125,199201.703125,159784.9375,162708.734375,687206.125,157981.78125,-0.04736328125,1.011474609375,-0.09716796875,-1.3732908964157104,-0.3662109076976776,0.0610351525247097,100.0,226033.0,1.0
15:43:36.627960,174454.390625,168580.625,157941.1875,199191.421875,159785.65625,162711.140625,687223.75,157978.828125,-0.048828125,1.010498046875,-0.09765625,-1.4343260526657104,-0.4882812201976776,-0.0610351525247097,100.0,226034.0,1.0
15:43:36.627971,174447.234375,168563.625,157931.890625,199210.015625,159782.34375,162692.453125,687265.0625,157990.984375,-0.04736328125,1.01123046875,-0.094970703125,-1.4038084745407104,-0.5798339247703552,-0.03051757626235485,100.0,226035.0,1.0
15:43:36.629822,174465.125,168567.296875,157933.859375,199211.265625,159783.234375,162697.375,687253.5625,157989.109375,-0.04833984375,1.010498046875,-0.095458984375,-1.3732908964157104,-0.7629393935203552,-0.03051757626235485,100.0,226036.0,1.0
15:43:36.632270,174517.15625,168580.984375,157944.3125,199209.65625,159790.578125,162712.03125,687213.25,157986.34375,-0.05078125,1.008544921875,-0.09765625,-1.4648436307907104,-0.8544921278953552,0.03051757626235485,100.0,226037.0,1.0
15:43:36.641063,174462.796875,168585.8125,157944.9375,199196.078125,159789.859375,162716.0625,687215.4375,157982.046875,-0.050537109375,1.0068359375,-0.098876953125,-1.4648436307907104,-0.9155272841453552,0.0,100.0,226038.0,1.0
15:43:36.645360,174450.71875,168566.21875,157933.046875,199208.59375,159783.421875,162694.421875,687273.1875,157990.90625,-0.04931640625,1.00830078125,-0.099853515625,-1.5869139432907104,-1.0070799589157104,0.0610351525247097,100.0,226039.0,1.0
15:43:36.645373,174449.46875,168561.578125,157928.578125,199207.96875,159778.140625,162690.75,687252.1875,157986.875,-0.046630859375,1.007080078125,-0.10205078125,-1.6174315214157104,-1.0681151151657104,0.0915527269244194,100.0,226040.0,1.0
15:43:36.647322,174512.953125,168574.265625,157939.3125,199206.4375,159784.40625,162704.703125,687220.125,157982.5,-0.046142578125,1.007568359375,-0.096923828125,-1.7089842557907104,-1.0681151151657104,0.1831054538488388,100.0,226041.0,1.0
