Timestamp,Fz,FC3,FCz,FC4,Cz,C3,C4
15:42:19.394154,175270.234375,169031.328125,159071.203125,198934.015625,161066.40625,163175.15625,687013.8125,158996.640625,-0.07373046875,1.000732421875,-0.145263671875,-1.5563963651657104,-0.2441406100988388,0.5493163466453552,100.0,206704.0,1.0
15:42:19.396623,175235.546875,169010.75,159057.796875,198950.296875,161058.8125,163153.703125,687082.1875,159008.265625,-0.075439453125,1.001708984375,-0.14208984375,-1.5563963651657104,-0.3051757514476776,0.5798339247703552,100.0,206705.0,1.0
15:42:19.401630,175245.734375,169014.6875,159059.140625,198951.28125,161059.171875,163159.78125,687007.1875,159009.25,-0.0732421875,1.00146484375,-0.13916015625,-1.4953612089157104,-0.3356933295726776,0.5493163466453552,100.0,206706.0,1.0
15:42:19.404119,175333.171875,169037.9375,159081.03125,198963.34375,161077.234375,163184.46875,687034.4375,159013.984375,-0.072998046875,1.0,-0.140625,-1.6174315214157104,-0.3051757514476776,0.6713866591453552,100.0,206707.0,1.0
15:42:19.406598,175292.140625,169046.078125,159085.78125,198946.984375,161079.828125,163194.125,687020.9375,159005.3125,-0.072265625,0.999267578125,-0.14111328125,-1.6174315214157104,-0.3967284858226776,0.7629393935203552,100.0,206708.0,1.0
15:42:19.409139,175248.40625,169024.34375,159069.953125,198953.15625,161069.8125,163170.25,687076.0,159013.71875,-0.072021484375,1.0009765625,-0.140869140625,-1.5563963651657104,-0.4272460639476776,0.7324218153953552,100.0,206709.0,1.0
15:42:19.411623,175232.5,169009.59375,159056.90625,198956.015625,161056.671875,163155.765625,687018.4375,159011.921875,-0.06884765625,1.000732421875,-0.143798828125,-1.4953612089157104,-0.4882812201976776,0.7934569716453552,100.0,206710.0,1.0
15:42:19.414150,175316.28125,169019.34375,159063.0625,198946.0,161058.984375,163165.328125,687010.5625,158997.359375,-0.068359375,1.001708984375,-0.14453125,-1.5563963651657104,-0.4882812201976776,0.7324218153953552,100.0,206711.0,1.0
15:42:19.417245,175290.078125,169031.40625,159070.40625,198931.78125,161063.8125,163177.9375,687015.25,158988.6875,-0.068359375,1.000732421875,-0.1435546875,-1.5869139432907104,-0.5187987685203552,0.7019042372703552,100.0,206712.0,1.0
15:42:19.417279,175241.96875,169017.734375,159060.296875,198938.21875,161059.96875,163163.8125,687072.875,158999.140625,-0.067626953125,1.000732421875,-0.141845703125,-1.5869139432907104,-0.5493163466453552,0.6713866591453552,100.0,206713.0,1.0
15:42:19.419673,175221.953125,169006.28125,159053.140625,198948.6875,161054.15625,163152.359375,687043.75,159004.421875,-0.068603515625,0.99951171875,-0.143798828125,-1.5869139432907104,-0.5493163466453552,0.7324218153953552,100.0,206714.0,1.0
15:42:19.419677,175304.828125,169017.90625,159064.234375,198955.921875,161059.53125,163163.09375,687002.875,159002.625,-0.066162109375,1.002685546875,-0.142822265625,-1.5869139432907104,-0.4882812201976776,0.7019042372703552,100.0,206715.0,1.0
15:42:19.425019,175300.1875,169026.40625,159068.25,198938.84375,161060.234375,163172.296875,687019.5,158989.84375,-0.06591796875,0.998779296875,-0.143310546875,-1.5869139432907104,-0.3051757514476776,0.7019042372703552,100.0,206716.0,1.0
15:42:19.425026,175245.734375,169014.875,159061.09375,198941.625,161057.5625,163161.65625,687066.8125,158999.046875,-0.06640625,0.999267578125,-0.1474609375,-1.5258787870407104,-0.3356933295726776,0.7324218153953552,100.0,206717.0,1.0
15:42:19.425027,175215.25,169000.125,159050.640625,198953.15625,161052.015625,163147.53125,687080.9375,159007.546875,-0.065185546875,0.998046875,-0.14599609375,-1.6174315214157104,-0.2441406100988388,0.5798339247703552,100.0,206718.0,1.0
15:42:19.425028,175280.6875,169009.6875,159055.828125,198943.3125,161054.15625,163158.4375,687006.1875,158997.0,-0.0634765625,0.99853515625,-0.14599609375,-1.5869139432907104,-0.2441406100988388,0.6408690810203552,100.0,206719.0,1.0
15:42:19.425030,175304.375,169023.1875,159064.5,198935.984375,161057.375,163171.234375,687040.6875,158991.1875,-0.0654296875,0.99853515625,-0.142578125,-1.6174315214157104,-0.2441406100988388,0.6408690810203552,100.0,206720.0,1.0
15:42:19.426601,175243.40625,169015.578125,159056.71875,198927.765625,161052.28125,163162.921875,687040.875,158991.90625,-0.065185546875,0.997802734375,-0.14453125,-1.5869139432907104,-0.2441406100988388,0.6713866591453552,100.0,206721.0,1.0
15:42:19.429688,175207.640625,168992.96875,159040.171875,198936.609375,161041.5625,163140.390625,687093.375,158996.734375,-0.06591796875,0.998291015625,-0.143310546875,-1.5869139432907104,-0.2136230319738388,0.5493163466453552,100.0,206722.0,1.0
15:42:19.429703,175260.65625,169002.265625,159048.578125,198945.015625,161046.65625,163151.015625,687003.625,158999.765625,-0.064697265625,0.998291015625,-0.144287109375,-1.6174315214157104,-0.0610351525247097,0.7019042372703552,100.0,206723.0,1.0
15:42:19.431626,175316.28125,169023.546875,159067.890625,198949.21875,161061.3125,163171.40625,687049.1875,159000.578125,-0.064697265625,0.997802734375,-0.14111328125,-1.6784666776657104,-0.0610351525247097,0.6103515028953552,100.0,206724.0,1.0
15:42:19.436687,175262.984375,169026.140625,159070.125,198944.390625,161064.0,163173.90625,687023.75,159003.96875,-0.064697265625,0.99755859375,-0.14453125,-1.6174315214157104,0.0915527269244194,0.6408690810203552,100.0,206725.0,1.0
15:42:19.439659,175226.859375,169004.765625,159056.453125,198958.34375,161056.484375,163152.1875,687092.125,159014.34375,-0.064697265625,0.997802734375,-0.144287109375,-1.5563963651657104,0.1525878757238388,0.5798339247703552,100.0,206726.0,1.0
15:42:19.445248,175255.125,169009.234375,159060.65625,198961.734375,161059.796875,163159.15625,686993.3125,159018.546875,-0.06494140625,0.995361328125,-0.145263671875,-1.5563963651657104,0.3051757514476776,0.6408690810203552,100.0,206727.0,1.0
15:42:19.445270,175322.984375,169026.5,159072.71875,198953.421875,161068.734375,163176.6875,687045.8125,159011.125,-0.067626953125,0.995849609375,-0.148193359375,-1.4038084745407104,0.3051757514476776,0.7324218153953552,100.0,206728.0,1.0
15:42:19.447279,175272.734375,169033.375,159072.71875,198936.609375,161066.765625,163181.0625,687021.5,158995.828125,-0.06884765625,0.998779296875,-0.144287109375,-1.3732908964157104,0.3967284858226776,0.6713866591453552,100.0,206729.0,1.0
15:42:19.447304,175237.234375,169016.03125,159062.0,198953.25,161062.5625,163162.015625,687097.5,159009.78125,-0.0693359375,0.99853515625,-0.143798828125,-1.3122557401657104,0.4272460639476776,0.6713866591453552,100.0,206730.0,1.0
15:42:19.449128,175241.796875,169016.203125,159062.078125,198957.265625,161062.921875,163164.796875,687013.8125,159011.484375,-0.0673828125,0.999267578125,-0.144775390625,-1.3427733182907104,0.5187987685203552,0.6408690810203552,100.0,206731.0,1.0
15:42:19.456146,175321.453125,169027.828125,159072.015625,198958.515625,161067.9375,163175.96875,687045.875,159008.890625,-0.06884765625,0.99951171875,-0.143798828125,-1.2817381620407104,0.4882812201976776,0.7019042372703552,100.0,206732.0,1.0
15:42:19.471090,175274.609375,169027.125,159067.453125,198935.8125,161058.90625,163173.203125,687023.25,158993.78125,-0.067138671875,0.9990234375,-0.145751953125,-1.2512205839157104,0.5187987685203552,0.5493163466453552,100.0,206733.0,1.0
15:42:19.471162,175235.359375,169008.609375,159055.296875,198948.5,161053.796875,163153.703125,687089.1875,159004.328125,-0.067138671875,0.9990234375,-0.145263671875,-1.2207030057907104,0.5493163466453552,0.6408690810203552,100.0,206734.0,1.0
15:42:19.473591,175227.21875,169005.75,159052.421875,198949.046875,161052.46875,163152.984375,687037.5625,159005.21875,-0.071044921875,0.9990234375,-0.1484375,-1.1596678495407104,0.6408690810203552,0.7629393935203552,100.0,206735.0,1.0
15:42:19.473658,175312.875,169018.890625,159064.671875,198955.296875,161060.15625,163166.9375,687040.6875,159006.390625,-0.071044921875,0.998046875,-0.145263671875,-1.1596678495407104,0.6408690810203552,0.7629393935203552,100.0,206736.0,1.0
15:42:19.478556,175283.015625,169023.984375,159065.484375,198934.015625,161056.484375,163172.484375,687036.9375,158989.21875,-0.070556640625,1.0,-0.14404296875,-1.2207030057907104,0.6103515028953552,0.7324218153953552,100.0,206737.0,1.0
15:42:19.478626,175233.578125,169007.359375,159053.59375,198937.0625,161051.125,163155.3125,687052.3125,158994.5,-0.06982421875,1.00048828125,-0.1416015625,-1.2512205839157104,0.5798339247703552,0.7019042372703552,100.0,206738.0,1.0
15:42:19.484177,175213.015625,168998.328125,159046.609375,198947.515625,161047.71875,163147.09375,687043.5,159000.296875,-0.070556640625,1.00048828125,-0.143798828125,-1.2207030057907104,0.7019042372703552,0.5798339247703552,100.0,206739.0,1.0
15:42:19.497207,175293.921875,169011.921875,159057.96875,198946.8125,161056.3125,163163.0,687020.875,158999.5,-0.070556640625,1.0,-0.146728515625,-1.0986326932907104,0.5798339247703552,0.7324218153953552,100.0,206740.0,1.0
15:42:19.497310,175294.8125,169025.953125,159066.546875,198935.28125,161060.953125,163176.0625,687040.0625,158991.1875,-0.071533203125,1.000244140625,-0.146240234375,-1.1901854276657104,0.4272460639476776,0.8239745497703552,100.0,206741.0,1.0
15:42:19.497338,175243.671875,169017.90625,159058.859375,198936.96875,161055.859375,163166.671875,687049.9375,158995.125,-0.071044921875,0.998046875,-0.143310546875,-1.0681151151657104,0.4577636420726776,0.8544921278953552,100.0,206742.0,1.0
15:42:19.497360,175215.0625,169004.3125,159047.875,198943.765625,161048.625,163153.609375,687080.3125,158997.71875,-0.072265625,0.998779296875,-0.144775390625,-1.0681151151657104,0.3967284858226776,0.8239745497703552,100.0,206743.0,1.0
15:42:19.501635,175280.15625,169013.96875,159055.640625,198946.0,161053.53125,163165.859375,687016.8125,158999.59375,-0.072021484375,1.0,-0.14697265625,-1.0375975370407104,0.3967284858226776,0.7934569716453552,100.0,206744.0,1.0
15:42:19.517409,175298.84375,169022.015625,159061.640625,198936.171875,161055.59375,163174.8125,687042.0625,158989.9375,-0.072509765625,0.99951171875,-0.1435546875,-1.1291502714157104,0.4577636420726776,0.7629393935203552,100.0,206745.0,1.0
15:42:19.517419,175243.765625,169014.15625,159055.375,198932.234375,161050.40625,163164.53125,687046.6875,158990.734375,-0.071044921875,1.002197265625,-0.144287109375,-1.1291502714157104,0.5493163466453552,0.7934569716453552,100.0,206746.0,1.0
15:42:19.519710,175209.96875,168993.40625,159042.0625,198940.90625,161041.015625,163143.0625,687099.8125,158997.171875,-0.070556640625,1.0009765625,-0.14453125,-1.2207030057907104,0.4577636420726776,0.8544921278953552,100.0,206747.0,1.0
15:42:19.519730,175260.390625,169007.265625,159052.703125,198945.375,161051.296875,163159.34375,687003.5,158998.6875,-0.0693359375,1.002197265625,-0.142333984375,-1.2512205839157104,0.3967284858226776,0.9155272841453552,100.0,206748.0,1.0
15:42:19.530456,175314.3125,169028.453125,159069.765625,198949.578125,161065.421875,163179.8125,687050.1875,158998.421875,-0.071533203125,1.00146484375,-0.142333984375,-1.2817381620407104,0.2441406100988388,0.8239745497703552,100.0,206749.0,1.0
15:42:19.533509,175261.28125,169032.03125,159069.953125,198937.15625,161064.796875,163182.5,687023.875,158994.765625,-0.073486328125,0.9990234375,-0.143310546875,-1.2512205839157104,0.3356933295726776,0.8544921278953552,100.0,206750.0,1.0
15:42:19.533515,175227.671875,169013.796875,159058.234375,198950.109375,161059.171875,163163.453125,687087.375,159005.671875,-0.07470703125,1.000244140625,-0.143798828125,-1.3122557401657104,0.2441406100988388,0.8239745497703552,100.0,206751.0,1.0
15:42:19.535488,175259.859375,169021.21875,159066.734375,198956.109375,161067.75,163175.078125,686996.75,159011.921875,-0.072021484375,0.999755859375,-0.142578125,-1.2817381620407104,0.2441406100988388,0.9155272841453552,100.0,206752.0,1.0
15:42:19.541699,175337.28125,169040.53125,159088.1875,198970.234375,161084.828125,163195.640625,687025.125,159019.796875,-0.06982421875,0.996826171875,-0.143310546875,-1.2207030057907104,0.3051757514476776,0.8850097060203552,100.0,206753.0,1.0
15:42:19.549724,175286.765625,169046.96875,159090.15625,198957.796875,161084.46875,163200.546875,687021.125,159014.78125,-0.070068359375,0.997314453125,-0.145263671875,-1.2512205839157104,0.2136230319738388,0.9155272841453552,100.0,206754.0,1.0
15:42:19.549733,175248.0625,169024.25,159071.5625,198961.46875,161071.0625,163174.09375,687108.6875,159016.671875,-0.069580078125,0.998779296875,-0.146728515625,-1.1901854276657104,0.1220703050494194,0.8544921278953552,100.0,206755.0,1.0
15:42:19.552459,175256.453125,169025.328125,159073.96875,198964.953125,161072.40625,163177.9375,687016.1875,159017.375,-0.06982421875,0.9990234375,-0.147705078125,-1.2512205839157104,0.0915527269244194,0.8239745497703552,100.0,206756.0,1.0
15:42:19.552506,175331.65625,169033.828125,159081.671875,198958.78125,161075.0,163188.125,687040.4375,159009.25,-0.07080078125,0.998046875,-0.14404296875,-1.2207030057907104,0.0,0.8544921278953552,100.0,206757.0,1.0
15:42:19.562871,175284.265625,169033.734375,159077.734375,198941.71875,161066.765625,163185.71875,687020.9375,158996.546875,-0.070556640625,1.0009765625,-0.1435546875,-1.2207030057907104,0.03051757626235485,0.8850097060203552,100.0,206758.0,1.0
15:42:19.567187,175235.359375,169008.15625,159056.453125,198942.515625,161052.28125,163157.734375,687092.125,158997.796875,-0.069580078125,0.998779296875,-0.145263671875,-1.2512205839157104,0.03051757626235485,0.9155272841453552,100.0,206759.0,1.0
15:42:19.567195,175223.375,169002.171875,159050.46875,198945.375,161048.96875,163153.890625,687029.8125,159000.03125,-0.069091796875,0.99853515625,-0.146484375,-1.2512205839157104,0.1220703050494194,0.7629393935203552,100.0,206760.0,1.0
15:42:19.569128,175308.40625,169013.96875,159062.078125,198948.140625,161057.015625,163166.84375,687041.8125,158999.59375,-0.06982421875,1.002197265625,-0.14697265625,-1.1596678495407104,0.1525878757238388,0.7629393935203552,100.0,206761.0,1.0
15:42:19.582306,175279.34375,169018.09375,159061.453125,198926.59375,161052.1875,163169.890625,687034.75,158983.234375,-0.069580078125,1.000244140625,-0.14306640625,-1.1901854276657104,0.0610351525247097,0.7324218153953552,100.0,206762.0,1.0
15:42:19.582325,175234.46875,169003.15625,159052.515625,198936.890625,161048.171875,163153.890625,687057.6875,158994.046875,-0.06982421875,0.99951171875,-0.141845703125,-1.2512205839157104,0.0915527269244194,0.7019042372703552,100.0,206763.0,1.0
15:42:19.588511,175213.015625,168992.78125,159045.71875,198949.3125,161044.421875,163144.859375,687044.3125,159002.546875,-0.06982421875,1.0,-0.143310546875,-1.2512205839157104,-0.03051757626235485,0.6408690810203552,100.0,206764.0,1.0
15:42:19.588521,175295.53125,169004.9375,159059.3125,198960.21875,161053.359375,163159.78125,687028.4375,159009.515625,-0.06689453125,0.9990234375,-0.143798828125,-1.2207030057907104,0.1220703050494194,0.6103515028953552,100.0,206765.0,1.0
15:42:19.590986,175288.46875,169012.90625,159061.546875,198934.734375,161052.640625,163167.65625,687045.4375,158987.703125,-0.06787109375,1.000244140625,-0.143310546875,-1.2817381620407104,0.1220703050494194,0.6408690810203552,100.0,206766.0,1.0
15:42:19.590993,175235.359375,169004.9375,159053.859375,198935.09375,161050.40625,163156.921875,687065.8125,158994.21875,-0.067626953125,0.9990234375,-0.1455078125,-1.3732908964157104,0.0915527269244194,0.5798339247703552,100.0,206767.0,1.0
15:42:19.615461,175207.828125,168989.203125,159041.25,198941.625,161041.734375,163140.734375,687078.1875,158999.59375,-0.066650390625,0.997314453125,-0.145263671875,-1.3732908964157104,0.03051757626235485,0.5798339247703552,100.0,206768.0,1.0
15:42:19.619066,175273.0,169000.203125,159050.109375,198941.796875,161047.28125,163153.53125,687007.0,158993.6875,-0.067626953125,0.9970703125,-0.14453125,-1.2817381620407104,0.0,0.5493163466453552,100.0,206769.0,1.0
15:42:19.619093,175297.046875,169013.34375,159061.1875,198931.703125,161054.96875,163168.90625,687036.625,158986.09375,-0.069091796875,0.995361328125,-0.14599609375,-1.2512205839157104,0.0915527269244194,0.5187987685203552,100.0,206770.0,1.0
15:42:19.619101,175241.96875,169009.140625,159057.96875,198933.03125,161053.984375,163165.15625,687031.125,158992.703125,-0.0693359375,0.992919921875,-0.14306640625,-1.2512205839157104,0.0915527269244194,0.5187987685203552,100.0,206771.0,1.0
15:42:19.621625,175212.65625,168994.3125,159047.0625,198946.625,161047.546875,163148.25,687095.6875,159001.015625,-0.068603515625,0.992919921875,-0.146728515625,-1.3732908964157104,0.0,0.4577636420726776,100.0,206772.0,1.0
15:42:19.626729,175268.625,169009.859375,159058.859375,198949.125,161056.21875,163164.875,687010.125,159002.09375,-0.06982421875,0.9951171875,-0.142578125,-1.3427733182907104,0.0610351525247097,0.4577636420726776,100.0,206773.0,1.0
15:42:19.629150,175323.0625,169028.28125,159075.9375,198951.015625,161068.28125,163183.03125,687047.6875,159001.203125,-0.06884765625,0.997314453125,-0.144287109375,-1.3122557401657104,0.0,0.4577636420726776,100.0,206774.0,1.0
15:42:19.631719,175264.953125,169025.953125,159073.265625,198942.96875,161064.890625,163178.203125,687030.0,158999.40625,-0.068115234375,0.99853515625,-0.148681640625,-1.3122557401657104,0.0915527269244194,0.3967284858226776,100.0,206775.0,1.0
15:42:19.634179,175229.109375,169003.421875,159055.734375,198954.3125,161053.71875,163153.078125,687104.5625,159005.765625,-0.06884765625,0.998779296875,-0.145751953125,-1.2817381620407104,0.03051757626235485,0.3356933295726776,100.0,206776.0,1.0
15:42:19.641755,175250.734375,169004.765625,159055.375,198949.21875,161053.53125,163158.4375,686997.0625,159001.28125,-0.068359375,1.0,-0.145751953125,-1.2512205839157104,0.0610351525247097,0.2746581733226776,100.0,206777.0,1.0
15:42:19.644780,175320.296875,169020.859375,159070.125,198953.0625,161063.28125,163174.625,687037.0625,159001.828125,-0.0703125,0.9990234375,-0.144287109375,-1.1901854276657104,-0.0610351525247097,0.3356933295726776,100.0,206778.0,1.0
15:42:19.644817,175261.375,169021.3125,159065.03125,198929.8125,161056.75,163174.09375,687021.6875,158987.421875,-0.069580078125,0.999267578125,-0.145751953125,-1.1596678495407104,0.03051757626235485,0.2746581733226776,100.0,206779.0,1.0
15:42:19.646669,175225.53125,169000.828125,159050.1875,198946.984375,161049.328125,163152.28125,687114.8125,158998.0625,-0.071044921875,0.998291015625,-0.147216796875,-1.0375975370407104,0.0915527269244194,0.2441406100988388,100.0,206780.0,1.0
15:42:19.650396,175228.03125,168996.71875,159044.5625,198941.796875,161044.6875,163149.6875,687017.75,158992.703125,-0.07177734375,1.000732421875,-0.145263671875,-0.9155272841453552,0.03051757626235485,0.2441406100988388,100.0,206781.0,1.0
15:42:19.666048,175306.4375,169008.078125,159053.59375,198935.1875,161049.25,163161.75,687048.375,158983.5,-0.072265625,1.001708984375,-0.14794921875,-0.8850097060203552,-0.0610351525247097,0.2746581733226776,100.0,206782.0,1.0
15:42:19.666068,175262.359375,169012.09375,159053.328125,198918.375,161044.6875,163164.25,687035.875,158972.953125,-0.072021484375,1.0009765625,-0.145751953125,-0.9155272841453552,-0.1220703050494194,0.2136230319738388,100.0,206783.0,1.0
15:42:19.668605,175222.84375,168994.484375,159041.703125,198933.671875,161038.15625,163144.40625,687078.0,158986.453125,-0.072509765625,0.99951171875,-0.14599609375,-0.9155272841453552,-0.1831054538488388,0.2746581733226776,100.0,206784.0,1.0
15:42:19.668617,175213.1875,168987.59375,159037.046875,198942.15625,161033.78125,163138.421875,687024.0625,158990.828125,-0.073486328125,1.001708984375,-0.14306640625,-1.0375975370407104,-0.2441406100988388,0.1525878757238388,100.0,206785.0,1.0
15:42:19.670403,175298.125,168997.609375,159045.0,198937.515625,161037.0,163148.515625,687028.5625,158982.6875,-0.0732421875,1.001708984375,-0.144287109375,-1.0681151151657104,-0.2746581733226776,0.1220703050494194,100.0,206786.0,1.0
15:42:19.673374,175275.0625,169008.34375,159054.65625,198930.171875,161044.140625,163159.78125,687028.5625,158982.15625,-0.076171875,1.001953125,-0.1416015625,-1.1291502714157104,-0.3967284858226776,0.1525878757238388,100.0,206787.0,1.0
15:42:19.706702,175227.3125,168995.203125,159047.78125,198941.359375,161043.96875,163147.796875,687063.75,158997.4375,-0.0771484375,1.001953125,-0.144775390625,-1.1291502714157104,-0.4882812201976776,0.1525878757238388,100.0,206788.0,1.0
15:42:19.760978,175200.671875,168982.765625,159034.09375,198939.125,161033.328125,163136.546875,687052.875,158989.578125,-0.074951171875,1.001953125,-0.14501953125,-1.1901854276657104,-0.5493163466453552,0.03051757626235485,100.0,206789.0,1.0
15:42:19.761003,175284.265625,168999.046875,159046.265625,198943.859375,161039.046875,163152.0,687024.0625,158988.328125,-0.074462890625,1.001953125,-0.143798828125,-1.1901854276657104,-0.5798339247703552,0.1220703050494194,100.0,206790.0,1.0
15:42:19.767865,175289.625,169016.203125,159060.296875,198935.28125,161048.4375,163168.71875,687043.1875,158984.125,-0.073974609375,1.00244140625,-0.144287109375,-1.2512205839157104,-0.6713866591453552,0.1525878757238388,100.0,206791.0,1.0
15:42:19.770398,175233.21875,169002.171875,159050.015625,198933.03125,161043.703125,163155.140625,687054.0625,158989.671875,-0.071533203125,1.002685546875,-0.142822265625,-1.1901854276657104,-0.6103515028953552,0.3051757514476776,100.0,206792.0,1.0
15:42:19.772900,175206.578125,168988.9375,159039.640625,198945.828125,161038.15625,163140.828125,687084.3125,158997.4375,-0.071533203125,1.002685546875,-0.142333984375,-1.2817381620407104,-0.7019042372703552,0.3051757514476776,100.0,206793.0,1.0
15:42:19.775404,175278.28125,169006.109375,159053.234375,198953.6875,161047.8125,163158.625,687024.5,158998.78125,-0.070556640625,1.001953125,-0.143310546875,-1.4038084745407104,-0.7324218153953552,0.4272460639476776,100.0,206794.0,1.0
15:42:19.777907,175304.296875,169021.84375,159064.765625,198941.796875,161056.578125,163175.4375,687058.0625,158993.15625,-0.068115234375,1.002685546875,-0.144775390625,-1.4038084745407104,-0.6713866591453552,0.6408690810203552,100.0,206795.0,1.0
15:42:19.780572,175248.0625,169016.203125,159060.203125,198939.828125,161054.515625,163168.453125,687049.375,158996.1875,-0.06689453125,1.00439453125,-0.14453125,-1.4953612089157104,-0.6408690810203552,0.7324218153953552,100.0,206796.0,1.0
15:42:19.784042,175216.765625,168998.0625,159048.859375,198954.140625,161048.625,163149.859375,687110.1875,159003.25,-0.0654296875,1.005126953125,-0.146728515625,-1.4648436307907104,-0.7019042372703552,0.8544921278953552,100.0,206797.0,1.0
15:42:19.785804,175261.734375,169006.015625,159055.296875,198948.234375,161053.890625,163162.375,687012.0,158997.984375,-0.06591796875,1.003173828125,-0.14453125,-1.4953612089157104,-0.6408690810203552,0.9765624403953552,100.0,206798.0,1.0
15:42:19.789889,175311.71875,169021.03125,159067.890625,198942.875,161063.015625,163179.71875,687054.3125,158992.34375,-0.065673828125,1.0,-0.144775390625,-1.5563963651657104,-0.5187987685203552,1.0681151151657104,100.0,206799.0,1.0
15:42:19.789958,175254.140625,169019.875,159062.984375,198933.3125,161056.75,163175.78125,687033.5,158989.390625,-0.0654296875,0.99951171875,-0.145263671875,-1.6174315214157104,-0.5493163466453552,1.0681151151657104,100.0,206800.0,1.0
15:42:19.789986,175219.0,168997.53125,159044.203125,198943.765625,161041.90625,163150.125,687107.9375,158993.234375,-0.067138671875,0.998046875,-0.14794921875,-1.7089842557907104,-0.3967284858226776,1.1901854276657104,100.0,206801.0,1.0
15:42:19.792553,175246.265625,169003.6875,159050.375,198948.953125,161046.375,163158.625,687013.8125,158994.765625,-0.06689453125,0.997802734375,-0.148193359375,-1.7395018339157104,-0.3356933295726776,1.1291502714157104,100.0,206802.0,1.0
15:42:19.792629,175312.875,169016.65625,159063.25,198943.59375,161056.9375,163172.84375,687058.5,158988.953125,-0.066650390625,0.997802734375,-0.143310546875,-1.7089842557907104,-0.3051757514476776,1.1901854276657104,100.0,206803.0,1.0
15:42:19.794181,175255.921875,169018.265625,159062.890625,198925.703125,161055.328125,163174.890625,687034.625,158982.78125,-0.067626953125,1.0,-0.14697265625,-1.8310545682907104,-0.1525878757238388,1.1291502714157104,100.0,206804.0,1.0
15:42:19.798858,175223.46875,168998.6875,159048.859375,198946.359375,161044.953125,163151.015625,687110.4375,158997.4375,-0.0673828125,0.999755859375,-0.146728515625,-1.8310545682907104,-0.1220703050494194,1.1596678495407104,100.0,206805.0,1.0
15:42:19.798931,175220.34375,168990.015625,159036.953125,198934.5625,161032.96875,163143.953125,687023.0,158983.40625,-0.06640625,0.999755859375,-0.144287109375,-1.8310545682907104,-0.1220703050494194,1.2207030057907104,100.0,206806.0,1.0
15:42:19.799773,175303.484375,169005.03125,159047.953125,198934.109375,161039.5,163158.0,687049.75,158978.046875,-0.064697265625,0.997802734375,-0.14306640625,-1.8615721464157104,0.0610351525247097,0.8850097060203552,100.0,206807.0,1.0
15:42:19.799782,175263.703125,169014.59375,159053.046875,198923.296875,161042.1875,163166.9375,687038.0,158972.3125,-0.0625,0.997314453125,-0.1455078125,-1.8920897245407104,0.2441406100988388,0.8544921278953552,100.0,206808.0,1.0
15:42:19.801637,175221.0625,168995.46875,159040.359375,198934.640625,161037.0,163147.984375,687094.4375,158984.65625,-0.064208984375,0.99755859375,-0.145263671875,-1.8920897245407104,0.2746581733226776,0.7629393935203552,100.0,206809.0,1.0
15:42:19.804187,175213.015625,168992.25,159037.5,198944.296875,161035.203125,163146.828125,687041.625,158990.375,-0.062744140625,0.99658203125,-0.14208984375,-1.9531248807907104,0.4272460639476776,0.7019042372703552,100.0,206810.0,1.0
15:42:19.806689,175296.328125,169003.78125,159047.328125,198939.828125,161040.390625,163160.59375,687025.9375,158983.3125,-0.063232421875,0.99755859375,-0.14306640625,-1.8920897245407104,0.5493163466453552,0.5798339247703552,100.0,206811.0,1.0
15:42:19.809242,175275.0625,169015.3125,159053.5,198921.953125,161042.1875,163170.6875,687029.5625,158973.21875,-0.063232421875,0.996337890625,-0.145263671875,-1.8005369901657104,0.6408690810203552,0.5493163466453552,100.0,206812.0,1.0
15:42:19.811773,175232.671875,169003.78125,159047.15625,198936.609375,161041.015625,163156.921875,687074.25,158988.5,-0.0634765625,0.99853515625,-0.146484375,-1.7700194120407104,0.6103515028953552,0.5493163466453552,100.0,206813.0,1.0
15:42:19.826250,175214.890625,168998.421875,159043.75,198946.984375,161040.484375,163150.578125,687063.9375,158995.296875,-0.064208984375,0.996337890625,-0.143798828125,-1.8005369901657104,0.7324218153953552,0.5493163466453552,100.0,206814.0,1.0
15:42:19.826275,175299.015625,169015.046875,159057.609375,198949.21875,161049.78125,163167.65625,687014.875,158992.96875,-0.064697265625,0.996826171875,-0.146728515625,-1.7700194120407104,0.9460448622703552,0.6103515028953552,100.0,206815.0,1.0
15:42:19.826277,175306.078125,169031.59375,159070.84375,198946.0,161058.0,163183.921875,687035.625,158991.453125,-0.0634765625,0.99609375,-0.146484375,-1.7089842557907104,0.9155272841453552,0.5798339247703552,100.0,206816.0,1.0
15:42:19.826280,175247.875,169018.171875,159058.234375,198938.3125,161051.125,163170.875,687063.25,158989.125,-0.065185546875,0.99609375,-0.145263671875,-1.7089842557907104,1.0375975370407104,0.4882812201976776,100.0,206817.0,1.0
15:42:19.826282,175213.359375,168999.578125,159042.140625,198943.140625,161040.296875,163152.8125,687084.6875,158989.484375,-0.066650390625,0.99755859375,-0.1435546875,-1.5258787870407104,1.0375975370407104,0.5493163466453552,100.0,206818.0,1.0
15:42:19.828010,175281.40625,169012.546875,159052.78125,198945.375,161048.078125,163167.109375,687007.125,158989.75,-0.0673828125,0.998046875,-0.143310546875,-1.4343260526657104,1.0986326932907104,0.6408690810203552,100.0,206819.0,1.0
15:42:19.834909,175306.53125,169027.03125,159062.796875,198934.640625,161053.625,163180.34375,687038.1875,158981.96875,-0.0693359375,0.9970703125,-0.144775390625,-1.4648436307907104,1.2207030057907104,0.6713866591453552,100.0,206820.0,1.0
15:42:19.834934,175251.359375,169024.25,159059.484375,198932.6875,161051.125,163176.0625,687043.3125,158985.1875,-0.06982421875,0.9970703125,-0.140380859375,-1.4038084745407104,1.1901854276657104,0.7324218153953552,100.0,206821.0,1.0
15:42:19.836818,175215.6875,169003.6875,159045.359375,198942.875,161042.890625,163156.03125,687098.375,158992.34375,-0.07275390625,0.9970703125,-0.1416015625,-1.4343260526657104,1.1901854276657104,0.8239745497703552,100.0,206822.0,1.0
15:42:19.841740,175264.59375,169011.828125,159051.796875,198944.21875,161047.015625,163165.859375,686999.5625,158991.625,-0.072265625,0.9970703125,-0.146484375,-1.3732908964157104,1.1291502714157104,0.8850097060203552,100.0,206823.0,1.0
15:42:19.844306,175319.84375,169028.1875,159067.625,198950.5625,161058.1875,163181.421875,687040.375,158993.6875,-0.07177734375,0.998291015625,-0.142578125,-1.2817381620407104,1.0375975370407104,0.8544921278953552,100.0,206824.0,1.0
15:42:19.846874,175256.375,169023.1875,159061.1875,198928.65625,161051.65625,163176.328125,687025.0,158983.859375,-0.0732421875,0.998291015625,-0.1455078125,-1.2817381620407104,1.0070799589157104,0.7934569716453552,100.0,206825.0,1.0
15:42:19.852953,175219.453125,169002.53125,159045.359375,198940.453125,161042.359375,163153.53125,687109.0,158991.625,-0.07568359375,0.99951171875,-0.1416015625,-1.2817381620407104,0.9155272841453552,0.8239745497703552,100.0,206826.0,1.0
15:42:19.855432,175244.296875,169006.640625,159046.4375,198940.734375,161041.375,163158.09375,687007.5625,158990.46875,-0.0751953125,0.999755859375,-0.14599609375,-1.3732908964157104,0.7629393935203552,0.8239745497703552,100.0,206827.0,1.0
15:42:19.857870,175314.671875,169020.328125,159060.203125,198943.671875,161051.5625,163172.5625,687043.6875,158987.34375,-0.074462890625,1.001220703125,-0.143798828125,-1.3427733182907104,0.6408690810203552,0.7019042372703552,100.0,206828.0,1.0
15:42:19.860404,175256.8125,169019.515625,159056.625,198930.796875,161048.625,163171.671875,687029.25,158982.59375,-0.074951171875,1.00146484375,-0.144287109375,-1.2512205839157104,0.5493163466453552,0.5798339247703552,100.0,206829.0,1.0
15:42:19.863662,175212.03125,168993.328125,159035.4375,198932.59375,161032.609375,163144.140625,687110.25,158983.234375,-0.07666015625,0.998779296875,-0.143798828125,-1.3122557401657104,0.3967284858226776,0.6103515028953552,100.0,206830.0,1.0
15:42:19.863714,175214.703125,168991.796875,159030.4375,198930.625,161026.625,163142.96875,687014.8125,158978.84375,-0.075439453125,0.998046875,-0.146240234375,-1.4648436307907104,0.2441406100988388,0.5493163466453552,100.0,206831.0,1.0
15:42:19.865455,175298.75,169007.265625,159042.59375,198930.171875,161035.296875,163158.265625,687031.3125,158977.0625,-0.074462890625,0.998291015625,-0.14599609375,-1.5258787870407104,0.1831054538488388,0.5187987685203552,100.0,206832.0,1.0
15:42:19.867957,175259.59375,169014.421875,159050.46875,198921.421875,161041.203125,163166.765625,687023.4375,158975.625,-0.073974609375,0.998291015625,-0.14453125,-1.4038084745407104,0.0915527269244194,0.7019042372703552,100.0,206833.0,1.0
15:42:19.871002,175216.046875,168993.234375,159037.3125,198926.78125,161035.828125,163146.90625,687089.375,158981.53125,-0.0732421875,0.99951171875,-0.145751953125,-1.4038084745407104,0.0,0.7324218153953552,100.0,206834.0,1.0
15:42:19.871065,175209.15625,168992.78125,159035.265625,198935.546875,161034.765625,163145.84375,687033.3125,158984.65625,-0.074462890625,0.99951171875,-0.14599609375,-1.4038084745407104,0.0,0.7019042372703552,100.0,206835.0,1.0
15:42:19.873039,175302.859375,169015.3125,159054.578125,198944.296875,161049.421875,163167.109375,687025.25,158987.609375,-0.072509765625,0.9990234375,-0.1455078125,-1.3122557401657104,-0.2746581733226776,0.8239745497703552,100.0,206836.0,1.0
15:42:19.875377,175282.203125,169026.9375,159063.875,198937.15625,161055.6875,163179.8125,687028.4375,158984.921875,-0.07177734375,0.9990234375,-0.1474609375,-1.3732908964157104,-0.2746581733226776,0.8544921278953552,100.0,206837.0,1.0
15:42:19.891014,175238.578125,169015.5,159057.53125,198945.203125,161054.078125,163167.03125,687090.25,158996.90625,-0.0703125,0.99951171875,-0.147216796875,-1.4038084745407104,-0.3662109076976776,0.8544921278953552,100.0,206838.0,1.0
15:42:19.891064,175212.296875,169004.234375,159046.96875,198940.734375,161047.453125,163157.375,687063.4375,158993.59375,-0.0693359375,0.99853515625,-0.14697265625,-1.3122557401657104,-0.4577636420726776,0.9765624403953552,100.0,206839.0,1.0
15:42:19.892904,175295.265625,169019.96875,159061.546875,198947.34375,161056.75,163175.15625,687025.125,158995.203125,-0.0703125,0.996826171875,-0.146728515625,-1.2512205839157104,-0.4882812201976776,0.9460448622703552,100.0,206840.0,1.0
15:42:19.896950,175300.1875,169035.171875,159072.359375,198940.546875,161063.375,163190.453125,687046.625,158991.0,-0.069091796875,0.99560546875,-0.14794921875,-1.3122557401657104,-0.3967284858226776,0.8850097060203552,100.0,206841.0,1.0
15:42:19.896995,175248.40625,169025.328125,159065.65625,198942.875,161062.296875,163180.53125,687055.625,158997.4375,-0.06787109375,0.996337890625,-0.146484375,-1.3122557401657104,-0.5187987685203552,0.9155272841453552,100.0,206842.0,1.0
15:42:19.901696,175221.6875,169010.84375,159058.6875,198957.453125,161060.15625,163167.390625,687085.625,159007.8125,-0.069580078125,0.999267578125,-0.1455078125,-1.2817381620407104,-0.5798339247703552,0.7629393935203552,100.0,206843.0,1.0
15:42:19.932273,175282.484375,169020.0625,159063.0625,198948.6875,161061.9375,163177.9375,687004.75,158998.78125,-0.0703125,0.998779296875,-0.146240234375,-1.3732908964157104,-0.4272460639476776,0.7019042372703552,100.0,206844.0,1.0
15:42:19.932296,175309.921875,169032.484375,159072.09375,198942.0625,161065.609375,163189.640625,687033.125,158990.921875,-0.070068359375,1.000244140625,-0.149169921875,-1.3122557401657104,-0.4882812201976776,0.5493163466453552,100.0,206845.0,1.0
15:42:19.934808,175256.28125,169029.0,159068.34375,198941.265625,161063.015625,163183.921875,687041.0,158994.5,-0.071533203125,1.000244140625,-0.14697265625,-1.3427733182907104,-0.4882812201976776,0.3662109076976776,100.0,206846.0,1.0
15:42:19.934851,175222.3125,169010.125,159052.609375,198950.109375,161052.46875,163163.8125,687106.1875,158998.515625,-0.06982421875,0.998779296875,-0.14501953125,-1.3732908964157104,-0.6103515028953552,0.4577636420726776,100.0,206847.0,1.0
15:42:19.936778,175267.71875,169017.90625,159056.265625,198949.21875,161053.53125,163172.75,687010.6875,158998.0625,-0.0693359375,1.0009765625,-0.14599609375,-1.5563963651657104,-0.5798339247703552,0.2746581733226776,100.0,206848.0,1.0
15:42:19.939180,175319.84375,169031.859375,159067.890625,198945.109375,161060.953125,163187.328125,687054.6875,158987.96875,-0.06591796875,1.001220703125,-0.14697265625,-1.5258787870407104,-0.5493163466453552,0.1831054538488388,100.0,206849.0,1.0
15:42:19.944153,175257.0,169029.4375,159063.78125,198929.375,161057.828125,163184.640625,687040.6875,158981.890625,-0.064208984375,1.00390625,-0.14453125,-1.6784666776657104,-0.4272460639476776,0.1831054538488388,100.0,206850.0,1.0
15:42:19.946700,175220.515625,169008.703125,159049.921875,198947.4375,161049.953125,163162.28125,687122.6875,158998.0625,-0.065673828125,1.002685546875,-0.1455078125,-1.6479490995407104,-0.3662109076976776,0.3662109076976776,100.0,206851.0,1.0
15:42:19.949181,175243.3125,169008.15625,159049.390625,198950.03125,161046.65625,163163.09375,687013.625,158995.828125,-0.065185546875,1.00048828125,-0.146728515625,-1.7395018339157104,-0.3967284858226776,0.2746581733226776,100.0,206852.0,1.0
15:42:19.951722,175315.828125,169021.484375,159059.765625,198950.296875,161051.75,163174.265625,687042.75,158988.0625,-0.0654296875,1.001708984375,-0.14697265625,-1.8310545682907104,-0.2746581733226776,0.2746581733226776,100.0,206853.0,1.0
15:42:19.954725,175260.9375,169023.8125,159057.96875,198926.875,161048.171875,163174.8125,687027.3125,158976.703125,-0.0654296875,1.001220703125,-0.1474609375,-1.7700194120407104,-0.2441406100988388,0.4272460639476776,100.0,206854.0,1.0
15:42:19.954735,175219.265625,169000.296875,159041.703125,198936.890625,161040.296875,163151.828125,687106.875,158986.984375,-0.064697265625,1.0009765625,-0.148681640625,-1.7395018339157104,-0.2441406100988388,0.4882812201976776,100.0,206855.0,1.0
15:42:19.960526,175220.15625,169000.5625,159040.171875,198935.984375,161039.5,163154.78125,687022.75,158986.71875,-0.06640625,1.001708984375,-0.14453125,-1.8615721464157104,-0.03051757626235485,0.6408690810203552,100.0,206856.0,1.0
15:42:19.962948,175303.578125,169014.59375,159052.96875,198935.625,161047.984375,163169.359375,687044.75,158981.96875,-0.064208984375,1.001708984375,-0.145263671875,-1.8615721464157104,0.03051757626235485,0.7934569716453552,100.0,206857.0,1.0
15:42:19.965971,175265.046875,169023.28125,159058.859375,198926.0625,161052.46875,163178.65625,687036.75,158978.3125,-0.06640625,1.00048828125,-0.14794921875,-1.8920897245407104,0.2136230319738388,0.6713866591453552,100.0,206858.0,1.0
15:42:19.965981,175219.890625,169001.640625,159043.9375,198940.109375,161043.796875,163156.03125,687103.125,158990.5625,-0.06884765625,1.00146484375,-0.142822265625,-1.9836424589157104,0.1525878757238388,0.6713866591453552,100.0,206859.0,1.0
15:42:19.970445,175207.5625,168995.640625,159034.71875,198936.25,161035.5625,163149.234375,687047.3125,158984.484375,-0.069091796875,1.000732421875,-0.143798828125,-1.9836424589157104,0.1220703050494194,0.6103515028953552,100.0,206860.0,1.0
15:42:19.973503,175298.84375,169014.875,159050.375,198940.015625,161046.296875,163167.75,687033.9375,158984.03125,-0.068115234375,1.001953125,-0.14501953125,-2.014159917831421,0.2136230319738388,0.5798339247703552,100.0,206861.0,1.0
15:42:19.973516,175282.65625,169029.078125,159062.796875,198933.484375,161057.015625,163183.484375,687036.0,158983.5,-0.067138671875,1.000732421875,-0.145751953125,-2.014159917831421,0.3051757514476776,0.6713866591453552,100.0,206862.0,1.0
15:42:19.975393,175236.078125,169017.8125,159056.0,198938.671875,161056.578125,163172.125,687065.5,158994.5,-0.06884765625,1.0009765625,-0.144775390625,-2.014159917831421,0.3662109076976776,0.6408690810203552,100.0,206863.0,1.0
15:42:19.985429,175212.65625,169005.484375,159048.140625,198945.90625,161051.296875,163162.28125,687054.6875,158998.96875,-0.068359375,1.002197265625,-0.143310546875,-2.075195074081421,0.3662109076976776,0.6713866591453552,100.0,206864.0,1.0
15:42:19.989733,175293.46875,169016.75,159059.21875,198949.578125,161057.640625,163174.71875,687025.0,158996.546875,-0.068603515625,1.00244140625,-0.142822265625,-2.136230230331421,0.3051757514476776,0.7019042372703552,100.0,206865.0,1.0
15:42:19.989744,175297.234375,169026.5,159067.09375,198944.65625,161060.6875,163184.640625,687045.375,158989.75,-0.068603515625,1.003173828125,-0.1435546875,-2.288818120956421,0.3662109076976776,0.6408690810203552,100.0,206866.0,1.0
15:42:19.997972,175241.625,169014.328125,159057.703125,198941.0,161054.96875,163171.5,687068.4375,158991.1875,-0.06884765625,1.00341796875,-0.144287109375,-2.349853277206421,0.3967284858226776,0.7324218153953552,100.0,206867.0,1.0
15:42:20.004761,175209.796875,168998.0625,159045.28125,198950.46875,161047.8125,163154.6875,687091.25,158997.265625,-0.069091796875,1.000732421875,-0.144287109375,-2.441406011581421,0.4272460639476776,0.6713866591453552,100.0,206868.0,1.0
15:42:20.004772,175275.234375,169009.953125,159053.40625,198947.34375,161051.484375,163167.5625,687023.875,158992.96875,-0.06884765625,1.003173828125,-0.1474609375,-2.441406011581421,0.4882812201976776,0.6713866591453552,100.0,206869.0,1.0
15:42:20.007306,175304.375,169023.28125,159062.078125,198939.921875,161054.78125,163179.640625,687067.5625,158984.484375,-0.06787109375,1.0009765625,-0.142333984375,-2.380370855331421,0.5187987685203552,0.6713866591453552,100.0,206870.0,1.0
15:42:20.007313,175249.21875,169019.609375,159058.953125,198936.25,161052.46875,163175.15625,687044.3125,158984.390625,-0.06787109375,1.0,-0.14306640625,-2.410888433456421,0.4272460639476776,0.6713866591453552,100.0,206871.0,1.0
15:42:20.016786,175213.359375,169000.296875,159045.546875,198942.875,161045.3125,163156.203125,687095.3125,158985.640625,-0.066162109375,1.00048828125,-0.14404296875,-2.532958745956421,0.4272460639476776,0.7019042372703552,100.0,206872.0,1.0
15:42:20.020992,175258.609375,169008.34375,159053.765625,198946.453125,161052.015625,163167.109375,687011.5625,158989.21875,-0.065185546875,0.999267578125,-0.14208984375,-2.532958745956421,0.5187987685203552,0.6103515028953552,100.0,206873.0,1.0
15:42:20.021002,175309.125,169020.765625,159065.484375,198947.875,161059.53125,163180.078125,687052.5,158987.78125,-0.06640625,0.999755859375,-0.144287109375,-2.502441167831421,0.6713866591453552,0.5493163466453552,100.0,206874.0,1.0
15:42:20.027885,175252.609375,169019.703125,159060.75,198938.84375,161053.890625,163176.6875,687027.5,158984.484375,-0.0654296875,0.9970703125,-0.14404296875,-2.532958745956421,0.7324218153953552,0.6408690810203552,100.0,206875.0,1.0
15:42:20.036000,175211.9375,168993.953125,159036.515625,198938.140625,161034.765625,163147.453125,687099.75,158980.28125,-0.0654296875,0.995849609375,-0.143310546875,-2.441406011581421,0.6408690810203552,0.5493163466453552,100.0,206876.0,1.0
15:42:20.036012,175234.828125,168996.8125,159037.5,198937.515625,161033.59375,163151.921875,687005.8125,158979.109375,-0.068359375,0.99462890625,-0.140625,-2.471923589706421,0.7324218153953552,0.5187987685203552,100.0,206877.0,1.0
15:42:20.038485,175304.5625,169010.84375,159050.1875,198933.9375,161042.625,163166.765625,687031.5625,158973.921875,-0.0673828125,0.99609375,-0.142822265625,-2.349853277206421,0.6103515028953552,0.4882812201976776,100.0,206878.0,1.0
15:42:20.038490,175248.6875,169013.078125,159051.4375,198920.25,161042.71875,163168.90625,687021.75,158969.90625,-0.067626953125,0.99658203125,-0.144775390625,-2.288818120956421,0.6408690810203552,0.5798339247703552,100.0,206879.0,1.0
15:42:20.066660,175214.96875,168995.640625,159040.09375,198934.015625,161037.890625,163148.34375,687110.875,158982.59375,-0.068115234375,0.995849609375,-0.145751953125,-2.319335699081421,0.7019042372703552,0.5798339247703552,100.0,206880.0,1.0
15:42:20.094199,175219.09375,168996.984375,159039.109375,198936.4375,161038.25,163152.90625,687019.0625,158983.046875,-0.0693359375,0.9951171875,-0.144775390625,-2.258300542831421,0.5798339247703552,0.4882812201976776,100.0,206881.0,1.0
15:42:20.094221,175304.828125,169014.15625,159054.125,198940.1875,161049.59375,163171.859375,687047.125,158982.421875,-0.070556640625,0.994873046875,-0.14404296875,-2.136230230331421,0.5493163466453552,0.4882812201976776,100.0,206882.0,1.0
15:42:20.094226,175267.28125,169022.203125,159059.40625,198930.625,161052.46875,163179.09375,687034.875,158977.953125,-0.06982421875,0.99609375,-0.144775390625,-2.044677495956421,0.6103515028953552,0.3967284858226776,100.0,206883.0,1.0
15:42:20.104098,175230.796875,169004.9375,159049.296875,198947.25,161046.828125,163158.890625,687082.3125,158991.359375,-0.070068359375,0.997314453125,-0.14453125,-2.014159917831421,0.5798339247703552,0.4577636420726776,100.0,206884.0,1.0
15:42:20.104108,175222.21875,169001.453125,159048.671875,198956.1875,161048.265625,163157.546875,687033.5,158997.0,-0.070556640625,0.9970703125,-0.14306640625,-1.9226073026657104,0.4882812201976776,0.4882812201976776,100.0,206885.0,1.0
15:42:20.104110,175305.8125,169018.453125,159064.234375,198956.734375,161062.390625,163177.84375,687036.0,158998.515625,-0.071044921875,0.9990234375,-0.139892578125,-1.8615721464157104,0.6103515028953552,0.4577636420726776,100.0,206886.0,1.0
15:42:20.107501,175283.109375,169029.625,159067.8125,198937.234375,161063.1875,163188.65625,687032.875,158985.1875,-0.071533203125,0.996337890625,-0.140380859375,-1.7700194120407104,0.4577636420726776,0.4577636420726776,100.0,206887.0,1.0
15:42:20.107512,175242.609375,169020.859375,159060.921875,198949.84375,161060.234375,163176.765625,687074.625,158999.046875,-0.072265625,0.997314453125,-0.143310546875,-1.8310545682907104,0.3662109076976776,0.4272460639476776,100.0,206888.0,1.0
15:42:20.110448,175217.84375,169010.578125,159055.109375,198956.28125,161057.640625,163168.453125,687064.3125,159004.78125,-0.072265625,0.998779296875,-0.142578125,-1.7700194120407104,0.3051757514476776,0.4272460639476776,100.0,206889.0,1.0
15:42:20.110505,175294.640625,169021.84375,159064.9375,198959.40625,161064.078125,163181.515625,687023.375,159001.5625,-0.07275390625,0.998779296875,-0.142333984375,-1.7395018339157104,0.2746581733226776,0.3662109076976776,100.0,206890.0,1.0
15:42:20.110529,175299.015625,169031.234375,159070.75,198950.734375,161063.8125,163187.953125,687041.625,158990.46875,-0.072265625,0.999267578125,-0.1416015625,-1.5869139432907104,0.2441406100988388,0.3662109076976776,100.0,206891.0,1.0
15:42:20.112898,175240.640625,169014.59375,159055.203125,198937.59375,161050.046875,163168.640625,687056.875,158981.4375,-0.070556640625,0.998291015625,-0.142578125,-1.6479490995407104,0.1525878757238388,0.4272460639476776,100.0,206892.0,1.0
15:42:20.115395,175209.4375,168997.078125,159043.21875,198949.9375,161042.53125,163152.625,687084.0,158988.234375,-0.07177734375,0.998291015625,-0.144287109375,-1.5563963651657104,0.0610351525247097,0.3662109076976776,100.0,206893.0,1.0
15:42:20.118812,175276.578125,169010.484375,159054.21875,198956.1875,161051.75,163168.09375,687009.4375,158991.09375,-0.07373046875,1.001220703125,-0.14306640625,-1.5869139432907104,0.1220703050494194,0.3356933295726776,100.0,206894.0,1.0
15:42:20.120411,175305.8125,169023.09375,159065.125,198954.9375,161058.71875,163181.421875,687043.3125,158988.140625,-0.0751953125,1.000244140625,-0.143798828125,-1.5258787870407104,-0.03051757626235485,0.5187987685203552,100.0,206895.0,1.0
15:42:20.124069,175242.0625,169014.953125,159054.65625,198939.125,161050.40625,163171.859375,687041.8125,158983.046875,-0.073974609375,1.0,-0.143310546875,-1.5869139432907104,-0.03051757626235485,0.4577636420726776,100.0,206896.0,1.0
15:42:20.125414,175204.34375,168993.140625,159035.625,198940.1875,161036.1875,163148.4375,687106.0625,158982.6875,-0.073486328125,1.000732421875,-0.1416015625,-1.4648436307907104,-0.2136230319738388,0.3662109076976776,100.0,206897.0,1.0
15:42:20.131780,175250.109375,169000.828125,159041.609375,198946.265625,161038.0625,163156.203125,687004.75,158983.40625,-0.073486328125,1.002197265625,-0.143798828125,-1.5563963651657104,-0.2441406100988388,0.4272460639476776,100.0,206898.0,1.0
15:42:20.134139,175302.6875,169012.015625,159050.8125,198944.484375,161041.5625,163166.484375,687039.25,158977.78125,-0.073974609375,1.002685546875,-0.1455078125,-1.5869139432907104,-0.3051757514476776,0.4272460639476776,100.0,206899.0,1.0
15:42:20.136762,175240.90625,169005.84375,159044.375,198931.421875,161034.3125,163160.40625,687023.25,158972.671875,-0.0732421875,1.00146484375,-0.1435546875,-1.5563963651657104,-0.3662109076976776,0.5187987685203552,100.0,206900.0,1.0
15:42:20.139127,175201.65625,168981.15625,159026.328125,198939.125,161023.140625,163134.75,687098.625,158978.9375,-0.072998046875,0.998779296875,-0.14599609375,-1.5563963651657104,-0.3662109076976776,0.4882812201976776,100.0,206901.0,1.0
15:42:20.142429,175225.078125,168985.640625,159029.625,198935.71875,161025.90625,163140.828125,687002.6875,158976.703125,-0.072265625,1.0,-0.142578125,-1.6174315214157104,-0.4272460639476776,0.5493163466453552,100.0,206902.0,1.0
15:42:20.142441,175299.28125,169000.5625,159044.921875,198941.265625,161037.0,163156.484375,687048.3125,158977.328125,-0.07080078125,1.00048828125,-0.142333984375,-1.6479490995407104,-0.4882812201976776,0.5187987685203552,100.0,206903.0,1.0
15:42:20.144099,175245.90625,169002.078125,159044.375,198931.078125,161033.421875,163157.734375,687025.5,158973.390625,-0.069580078125,1.000732421875,-0.14453125,-1.6174315214157104,-0.4882812201976776,0.5493163466453552,100.0,206904.0,1.0
15:42:20.147924,175210.6875,168982.421875,159030.25,198949.3125,161025.28125,163135.203125,687111.875,158988.0625,-0.06884765625,1.00146484375,-0.14404296875,-1.6784666776657104,-0.5187987685203552,0.5187987685203552,100.0,206905.0,1.0
15:42:20.158509,175219.171875,168987.78125,159032.765625,198950.921875,161028.765625,163142.34375,687019.25,158987.515625,-0.06689453125,1.00048828125,-0.140869140625,-1.6784666776657104,-0.5493163466453552,0.5798339247703552,100.0,206906.0,1.0
15:42:20.158519,175305.71875,169005.84375,159049.921875,198953.0625,161043.609375,163163.09375,687047.875,158988.953125,-0.0673828125,1.000732421875,-0.143310546875,-1.6784666776657104,-0.4882812201976776,0.5187987685203552,100.0,206907.0,1.0
15:42:20.160933,175268.625,169014.59375,159055.375,198941.53125,161046.828125,163172.5625,687034.8125,158986.890625,-0.0673828125,1.001708984375,-0.14453125,-1.8005369901657104,-0.5187987685203552,0.5798339247703552,100.0,206908.0,1.0
15:42:20.160941,175226.6875,168997.96875,159043.21875,198948.953125,161039.3125,163154.15625,687077.5625,158990.015625,-0.068603515625,1.00146484375,-0.140869140625,-1.8920897245407104,-0.3967284858226776,0.6713866591453552,100.0,206909.0,1.0
15:42:20.171670,175217.203125,168994.484375,159040.71875,198958.96875,161037.703125,163152.453125,687037.3125,158993.15625,-0.0693359375,1.000732421875,-0.1416015625,-1.8615721464157104,-0.3662109076976776,0.6103515028953552,100.0,206910.0,1.0
15:42:20.174705,175299.640625,169007.453125,159052.078125,198952.96875,161046.03125,163167.75,687030.8125,158989.125,-0.06591796875,1.000244140625,-0.14208984375,-1.8615721464157104,-0.4272460639476776,0.5187987685203552,100.0,206911.0,1.0
15:42:20.174710,175274.609375,169015.578125,159055.640625,198935.546875,161047.1875,163176.421875,687030.0,158976.875,-0.066162109375,0.998291015625,-0.141357421875,-1.9226073026657104,-0.3967284858226776,0.4272460639476776,100.0,206912.0,1.0
15:42:20.180410,175230.71875,169003.421875,159047.78125,198947.078125,161044.234375,163162.828125,687059.0625,158987.15625,-0.063720703125,1.0009765625,-0.1416015625,-1.9836424589157104,-0.3662109076976776,0.5187987685203552,100.0,206913.0,1.0
15:42:20.187223,175203.53125,168989.75,159034.640625,198947.796875,161033.859375,163149.765625,687049.375,158985.109375,-0.066162109375,1.0,-0.142578125,-1.9836424589157104,-0.2441406100988388,0.4882812201976776,100.0,206914.0,1.0
15:42:20.187234,175282.125,169003.421875,159045.8125,198957.625,161041.46875,163165.421875,687012.4375,158986.359375,-0.064453125,0.99951171875,-0.140625,-1.8920897245407104,-0.2441406100988388,0.4272460639476776,100.0,206915.0,1.0
15:42:20.193520,175289.625,169018.0,159056.625,198946.1875,161049.15625,163180.703125,687035.375,158977.859375,-0.065673828125,1.001953125,-0.143798828125,-1.9531248807907104,-0.0915527269244194,0.4882812201976776,100.0,206916.0,1.0
15:42:20.193523,175239.734375,169011.203125,159052.15625,198946.890625,161048.34375,163172.484375,687057.5,158985.015625,-0.06640625,0.99951171875,-0.14306640625,-1.9836424589157104,-0.0915527269244194,0.3967284858226776,100.0,206917.0,1.0
15:42:20.199110,175212.46875,168998.859375,159043.390625,198954.578125,161044.140625,163159.15625,687085.9375,158991.359375,-0.066650390625,0.998046875,-0.14306640625,-1.9836424589157104,0.0,0.3662109076976776,100.0,206918.0,1.0
15:42:20.209821,175275.0625,169008.15625,159053.5,198956.828125,161050.5,163170.25,687005.125,158991.625,-0.066162109375,0.998779296875,-0.14453125,-2.075195074081421,-0.0915527269244194,0.3967284858226776,100.0,206919.0,1.0
15:42:20.209830,175301.078125,169017.46875,159060.921875,198950.296875,161053.625,163179.28125,687036.5,158985.46875,-0.066650390625,0.99951171875,-0.142822265625,-1.9836424589157104,0.03051757626235485,0.5187987685203552,100.0,206920.0,1.0
15:42:20.212263,175240.71875,169009.234375,159051.984375,198942.0625,161045.75,163169.0,687044.5625,158983.859375,-0.067626953125,0.999755859375,-0.1435546875,-1.9531248807907104,0.2441406100988388,0.4577636420726776,100.0,206921.0,1.0
15:42:20.212304,175205.140625,168986.890625,159035.265625,198949.484375,161032.53125,163144.40625,687105.0,158986.171875,-0.065673828125,1.0,-0.14404296875,-2.044677495956421,0.1831054538488388,0.5493163466453552,100.0,206922.0,1.0
15:42:20.223855,175244.65625,168991.171875,159037.59375,198948.234375,161032.078125,163150.21875,687000.375,158984.125,-0.066162109375,0.99853515625,-0.1435546875,-1.9531248807907104,0.2441406100988388,0.3967284858226776,100.0,206923.0,1.0
15:42:20.230303,175300.8125,169008.34375,159052.34375,198948.0625,161042.625,163167.390625,687035.25,158983.859375,-0.06494140625,0.998291015625,-0.1416015625,-1.8615721464157104,0.3356933295726776,0.4272460639476776,100.0,206924.0,1.0
15:42:20.230318,175241.53125,169008.25,159049.484375,198933.390625,161041.828125,163167.390625,687024.8125,158977.5,-0.067138671875,0.998779296875,-0.142822265625,-1.8920897245407104,0.2746581733226776,0.4272460639476776,100.0,206925.0,1.0
15:42:20.231037,175201.296875,168981.34375,159028.46875,198940.1875,161027.25,163139.3125,687102.3125,158979.375,-0.06640625,0.998779296875,-0.144287109375,-1.8920897245407104,0.4272460639476776,0.3662109076976776,100.0,206926.0,1.0
15:42:20.231051,175228.828125,168986.171875,159033.203125,198948.5,161028.140625,163144.765625,687003.9375,158982.421875,-0.068115234375,0.997314453125,-0.145263671875,-1.8310545682907104,0.3662109076976776,0.3662109076976776,100.0,206927.0,1.0
15:42:20.240395,175306.265625,169006.28125,159053.59375,198954.140625,161045.21875,163165.328125,687039.9375,158985.1875,-0.068359375,0.998779296875,-0.143310546875,-1.8005369901657104,0.2746581733226776,0.3356933295726776,100.0,206928.0,1.0
15:42:20.247212,175258.34375,169015.140625,159062.078125,198947.96875,161053.984375,163176.765625,687024.4375,158988.0625,-0.06982421875,0.996337890625,-0.143310546875,-1.6784666776657104,0.4577636420726776,0.3051757514476776,100.0,206929.0,1.0
15:42:20.247221,175219.890625,168995.640625,159046.890625,198956.46875,161044.59375,163155.140625,687099.25,158996.28125,-0.0712890625,0.997802734375,-0.143310546875,-1.7395018339157104,0.3662109076976776,0.2441406100988388,100.0,206930.0,1.0
15:42:20.249116,175226.15625,168998.6875,159043.3125,198952.171875,161038.6875,163154.59375,687020.875,158988.6875,-0.071044921875,0.99755859375,-0.143798828125,-1.8005369901657104,0.3051757514476776,0.2441406100988388,100.0,206931.0,1.0
15:42:20.253013,175317.53125,169018.0,159061.640625,198963.96875,161051.390625,163173.90625,687041.8125,158993.421875,-0.069580078125,0.99609375,-0.141357421875,-1.8005369901657104,0.2441406100988388,0.1525878757238388,100.0,206932.0,1.0
15:42:20.263040,175273.71875,169019.15625,159062.359375,198942.875,161049.15625,163178.109375,687026.3125,158980.28125,-0.071533203125,0.99755859375,-0.141845703125,-1.7395018339157104,0.2136230319738388,0.2441406100988388,100.0,206933.0,1.0
15:42:20.267312,175230.0,169002.796875,159052.875,198956.28125,161047.359375,163162.5625,687107.4375,158994.84375,-0.069091796875,0.999267578125,-0.144287109375,-1.7700194120407104,0.1220703050494194,0.3662109076976776,100.0,206934.0,1.0
15:42:20.267327,175216.046875,168996.546875,159046.078125,198962.625,161043.796875,163157.28125,687049.3125,158997.171875,-0.068603515625,0.999755859375,-0.142578125,-1.7089842557907104,0.1525878757238388,0.3662109076976776,100.0,206935.0,1.0
15:42:20.273014,175299.734375,169008.15625,159052.609375,198956.375,161045.578125,163167.03125,687036.875,158984.921875,-0.070068359375,0.999267578125,-0.14404296875,-1.6479490995407104,0.2136230319738388,0.1525878757238388,100.0,206936.0,1.0
15:42:20.278558,175280.421875,169016.203125,159057.25,198944.484375,161045.671875,163174.0,687036.25,158975.984375,-0.071044921875,1.0009765625,-0.14306640625,-1.7089842557907104,0.1831054538488388,0.2746581733226776,100.0,206937.0,1.0
15:42:20.278620,175231.609375,169002.796875,159047.875,198945.640625,161042.8125,163160.859375,687066.375,158983.40625,-0.072998046875,1.0009765625,-0.143798828125,-1.7700194120407104,0.0610351525247097,0.3662109076976776,100.0,206938.0,1.0
15:42:20.287966,175207.640625,168993.40625,159040.8125,198950.390625,161039.765625,163152.453125,687064.6875,158986.71875,-0.0712890625,1.00146484375,-0.14404296875,-1.6479490995407104,0.0610351525247097,0.3662109076976776,100.0,206939.0,1.0
15:42:20.292096,175292.140625,169012.984375,159058.515625,198959.59375,161053.796875,163172.296875,687019.4375,158993.0625,-0.072021484375,1.001220703125,-0.1435546875,-1.7700194120407104,0.0610351525247097,0.3662109076976776,100.0,206940.0,1.0
15:42:20.292106,175303.3125,169030.25,159072.90625,198958.078125,161063.453125,163187.5,687043.5,158993.6875,-0.07275390625,1.000244140625,-0.140869140625,-1.7700194120407104,-0.03051757626235485,0.3967284858226776,100.0,206941.0,1.0
15:42:20.294734,175245.828125,169016.84375,159063.15625,198951.359375,161057.5625,163172.921875,687057.8125,158991.625,-0.07080078125,1.0009765625,-0.142822265625,-1.8005369901657104,-0.0915527269244194,0.4272460639476776,100.0,206942.0,1.0
15:42:20.294741,175208.53125,168993.765625,159045.453125,198957.171875,161046.03125,163151.109375,687076.5625,158992.96875,-0.070068359375,1.00146484375,-0.142333984375,-1.8005369901657104,-0.2136230319738388,0.5187987685203552,100.0,206943.0,1.0
15:42:20.304107,175270.59375,169004.59375,159051.4375,198961.015625,161047.546875,163162.734375,687001.4375,158991.0,-0.070556640625,1.002197265625,-0.140869140625,-1.8615721464157104,-0.1831054538488388,0.6408690810203552,100.0,206944.0,1.0
15:42:20.307229,175299.546875,169016.5625,159056.0,198947.4375,161045.21875,163171.859375,687031.875,158975.984375,-0.070556640625,1.00048828125,-0.141845703125,-1.8920897245407104,-0.2136230319738388,0.5187987685203552,100.0,206945.0,1.0
15:42:20.307258,175244.296875,169011.65625,159051.984375,198942.421875,161042.625,163166.21875,687035.8125,158977.59375,-0.071533203125,0.999267578125,-0.141357421875,-1.8920897245407104,-0.2746581733226776,0.4577636420726776,100.0,206946.0,1.0
15:42:20.313025,175214.890625,168995.375,159043.3125,198962.546875,161039.765625,163149.59375,687101.9375,158994.671875,-0.0703125,0.998779296875,-0.14208984375,-1.9531248807907104,-0.2441406100988388,0.5187987685203552,100.0,206947.0,1.0
15:42:20.323465,175255.203125,169002.890625,159048.5,198957.09375,161043.796875,163160.765625,686994.75,158990.296875,-0.068359375,1.000244140625,-0.138671875,-1.9531248807907104,-0.3051757514476776,0.4272460639476776,100.0,206948.0,1.0
15:42:20.323481,175309.484375,169017.546875,159059.84375,198954.5,161051.125,163175.078125,687027.5,158983.859375,-0.068359375,0.99951171875,-0.13916015625,-1.9226073026657104,-0.2746581733226776,0.4577636420726776,100.0,206949.0,1.0
15:42:20.325376,175254.578125,169018.984375,159058.15625,198948.953125,161047.984375,163173.828125,687027.9375,158982.15625,-0.06884765625,1.00146484375,-0.142333984375,-1.8310545682907104,-0.3662109076976776,0.4882812201976776,100.0,206950.0,1.0
15:42:20.339801,175217.203125,168998.78125,159042.140625,198951.640625,161037.4375,163152.09375,687120.375,158985.015625,-0.06787109375,0.99951171875,-0.14208984375,-1.9531248807907104,-0.3967284858226776,0.3662109076976776,100.0,206951.0,1.0
15:42:20.339872,175239.390625,169001.546875,159045.1875,198959.234375,161038.78125,163158.0,687014.25,158988.6875,-0.066650390625,0.99853515625,-0.14111328125,-2.044677495956421,-0.4272460639476776,0.3967284858226776,100.0,206952.0,1.0
15:42:20.341692,175313.234375,169016.484375,159057.34375,198956.28125,161047.28125,163172.921875,687057.0,158983.40625,-0.06787109375,1.000244140625,-0.1416015625,-2.075195074081421,-0.3356933295726776,0.3662109076976776,100.0,206953.0,1.0
15:42:20.344106,175258.15625,169016.125,159055.109375,198940.453125,161044.234375,163172.125,687025.9375,158978.578125,-0.068115234375,1.001708984375,-0.1396484375,-2.044677495956421,-0.2746581733226776,0.3356933295726776,100.0,206954.0,1.0
15:42:20.346676,175214.625,168990.015625,159035.4375,198947.796875,161031.453125,163144.234375,687092.3125,158983.40625,-0.066162109375,1.003173828125,-0.1416015625,-2.105712652206421,-0.3662109076976776,0.3356933295726776,100.0,206955.0,1.0
15:42:20.352896,175213.640625,168986.4375,159029.890625,198948.5,161025.90625,163142.53125,687019.1875,158979.828125,-0.066162109375,1.002197265625,-0.14208984375,-2.075195074081421,-0.2746581733226776,0.3356933295726776,100.0,206956.0,1.0
15:42:20.371608,175298.390625,169000.203125,159040.8125,198950.5625,161031.0,163155.578125,687030.3125,158976.703125,-0.06640625,1.003173828125,-0.142578125,-2.136230230331421,-0.3356933295726776,0.3051757514476776,100.0,206957.0,1.0
15:42:20.371620,175257.0,169004.5,159041.25,198928.125,161027.25,163159.0625,687019.8125,158961.328125,-0.06884765625,1.002685546875,-0.142578125,-2.166747808456421,-0.3662109076976776,0.2441406100988388,100.0,206958.0,1.0
15:42:20.371622,175211.21875,168985.71875,159027.75,198934.640625,161020.359375,163139.671875,687086.125,158967.9375,-0.067626953125,1.001708984375,-0.14013671875,-2.258300542831421,-0.3051757514476776,0.2441406100988388,100.0,206959.0,1.0
15:42:20.374112,175197.8125,168980.265625,159020.953125,198936.703125,161015.359375,163134.296875,687039.125,158968.5625,-0.06640625,1.003662109375,-0.140625,-2.166747808456421,-0.3967284858226776,0.2441406100988388,100.0,206960.0,1.0
15:42:20.377221,175286.140625,168999.578125,159037.671875,198944.75,161028.046875,163154.421875,687026.5625,158970.890625,-0.0654296875,1.003662109375,-0.142578125,-2.258300542831421,-0.3051757514476776,0.2136230319738388,100.0,206961.0,1.0
15:42:20.377232,175264.234375,169008.796875,159042.328125,198929.734375,161030.203125,163165.59375,687029.4375,158963.203125,-0.06640625,1.002197265625,-0.146484375,-2.227782964706421,-0.3051757514476776,0.2746581733226776,100.0,206962.0,1.0
15:42:20.379138,175216.046875,168994.9375,159033.203125,198933.671875,161026.0,163150.75,687073.6875,158971.15625,-0.06494140625,1.000244140625,-0.141845703125,-2.197265386581421,-0.3051757514476776,0.1831054538488388,100.0,206963.0,1.0
15:42:20.381670,175192.265625,168982.234375,159024.53125,198940.1875,161019.5625,163137.703125,687066.5625,158975.53125,-0.065673828125,0.998046875,-0.1435546875,-2.258300542831421,-0.2441406100988388,0.03051757626235485,100.0,206964.0,1.0
15:42:20.386662,175269.515625,168993.6875,159034.640625,198944.84375,161025.546875,163149.6875,687028.8125,158973.65625,-0.06689453125,0.995849609375,-0.142578125,-2.288818120956421,-0.1525878757238388,0.0915527269244194,100.0,206965.0,1.0
15:42:20.393000,175279.34375,169009.234375,159046.078125,198933.21875,161033.421875,163165.15625,687054.0625,158967.140625,-0.06689453125,0.99609375,-0.140380859375,-2.288818120956421,-0.1220703050494194,0.1220703050494194,100.0,206966.0,1.0
15:42:20.399746,175228.46875,169003.6875,159042.765625,198935.71875,161033.6875,163158.625,687047.9375,158976.078125,-0.0693359375,0.9951171875,-0.138671875,-2.258300542831421,-0.03051757626235485,0.0,100.0,206967.0,1.0
15:42:20.399759,175199.953125,168987.515625,159031.421875,198946.265625,161027.078125,163142.4375,687083.0625,158982.0625,-0.0703125,0.994873046875,-0.139892578125,-2.197265386581421,-0.0610351525247097,0.03051757626235485,100.0,206968.0,1.0
15:42:20.401701,175260.578125,168997.4375,159037.671875,198940.734375,161029.484375,163153.4375,687020.9375,158975.453125,-0.06982421875,0.994873046875,-0.1396484375,-2.136230230331421,-0.0610351525247097,0.0915527269244194,100.0,206969.0,1.0
15:42:20.409131,175288.296875,169006.734375,159043.484375,198930.625,161031.90625,163163.625,687054.75,158966.859375,-0.068359375,0.993896484375,-0.1416015625,-2.105712652206421,0.0,0.0915527269244194,100.0,206970.0,1.0
15:42:20.456082,175230.984375,169004.140625,159041.25,198928.5625,161031.984375,163159.78125,687028.0,158972.046875,-0.072021484375,0.993896484375,-0.143310546875,-2.136230230331421,0.0,0.03051757626235485,100.0,206971.0,1.0
15:42:20.456118,175199.328125,168987.875,159029.890625,198938.40625,161027.34375,163142.796875,687086.9375,158978.3125,-0.071533203125,0.99658203125,-0.144775390625,-2.166747808456421,-0.0915527269244194,0.03051757626235485,100.0,206972.0,1.0
15:42:20.466051,175248.234375,169001.015625,159040.625,198949.671875,161036.734375,163158.265625,687002.375,158986.09375,-0.072021484375,0.995849609375,-0.142822265625,-2.105712652206421,-0.0610351525247097,0.03051757626235485,100.0,206973.0,1.0
15:42:20.466088,175306.96875,169018.625,159054.21875,198949.21875,161043.703125,163175.15625,687043.3125,158981.703125,-0.06982421875,0.99560546875,-0.1435546875,-1.9836424589157104,-0.1220703050494194,0.0610351525247097,100.0,206974.0,1.0
15:42:20.469162,175250.203125,169017.1875,159051.0,198934.921875,161040.125,163173.375,687020.0,158973.75,-0.06884765625,0.998046875,-0.14404296875,-1.8310545682907104,-0.1220703050494194,0.1220703050494194,100.0,206975.0,1.0
15:42:20.469186,175218.734375,168999.21875,159040.53125,198954.765625,161034.40625,163153.078125,687100.625,158984.296875,-0.07080078125,0.99609375,-0.14404296875,-1.7700194120407104,-0.1220703050494194,0.0915527269244194,100.0,206976.0,1.0
15:42:20.469191,175243.3125,169004.765625,159044.03125,198958.609375,161037.171875,163159.78125,687004.5625,158987.421875,-0.072509765625,0.9951171875,-0.143310546875,-1.6784666776657104,-0.03051757626235485,0.2136230319738388,100.0,206977.0,1.0
15:42:20.473596,175310.640625,169014.6875,159051.265625,198950.296875,161042.1875,163171.59375,687044.3125,158977.78125,-0.07275390625,0.9970703125,-0.143798828125,-1.6174315214157104,-0.1220703050494194,0.1831054538488388,100.0,206978.0,1.0
15:42:20.473661,175255.390625,169016.125,159049.03125,198929.546875,161038.15625,163172.921875,687027.6875,158965.34375,-0.073486328125,0.99853515625,-0.14208984375,-1.5258787870407104,-0.1831054538488388,0.1525878757238388,100.0,206979.0,1.0
15:42:20.473673,175216.3125,168991.890625,159029.71875,198940.734375,161024.296875,163145.390625,687111.25,158971.421875,-0.073486328125,1.001708984375,-0.141357421875,-1.4343260526657104,-0.2136230319738388,0.1831054538488388,100.0,206980.0,1.0
15:42:20.473684,175214.703125,168989.390625,159025.609375,198939.828125,161019.65625,163143.6875,687029.6875,158969.09375,-0.073974609375,1.001953125,-0.140380859375,-1.4038084745407104,-0.2136230319738388,0.0610351525247097,100.0,206981.0,1.0
15:42:20.476012,175296.515625,169003.0625,159037.9375,198940.90625,161028.59375,163158.171875,687054.3125,158965.875,-0.075439453125,1.003173828125,-0.138427734375,-1.4343260526657104,-0.2136230319738388,0.0610351525247097,100.0,206982.0,1.0
15:42:20.476025,175258.96875,169010.046875,159042.859375,198929.46875,161031.90625,163167.203125,687028.75,158962.65625,-0.076416015625,1.001953125,-0.13720703125,-1.5258787870407104,-0.2136230319738388,0.0915527269244194,100.0,206983.0,1.0
15:42:20.477949,175214.796875,168990.640625,159030.53125,198936.609375,161027.078125,163148.15625,687070.9375,158973.921875,-0.075439453125,1.001953125,-0.138916015625,-1.5258787870407104,-0.3967284858226776,-0.0915527269244194,100.0,206984.0,1.0
15:42:20.480435,175197.09375,168981.515625,159022.921875,198941.078125,161023.40625,163140.5625,687034.625,158976.875,-0.076171875,1.00244140625,-0.139404296875,-1.5258787870407104,-0.4272460639476776,-0.0610351525247097,100.0,206985.0,1.0
15:42:20.482873,175285.421875,168998.78125,159037.859375,198952.703125,161034.84375,163158.71875,687024.5,158982.515625,-0.07666015625,1.002197265625,-0.138427734375,-1.6174315214157104,-0.4577636420726776,-0.0610351525247097,100.0,206986.0,1.0
15:42:20.485419,175270.3125,169011.03125,159043.125,198932.234375,161034.765625,163169.4375,687030.0625,158968.75,-0.0751953125,1.001953125,-0.138671875,-1.7089842557907104,-0.4882812201976776,-0.0610351525247097,100.0,206987.0,1.0
15:42:20.490434,175219.796875,168997.34375,159030.796875,198929.546875,161025.8125,163154.0625,687067.0625,158969.90625,-0.074462890625,1.00390625,-0.139892578125,-1.6174315214157104,-0.5798339247703552,-0.1220703050494194,100.0,206988.0,1.0
15:42:20.492951,175195.21875,168986.703125,159022.65625,198938.140625,161021.171875,163144.765625,687058.0625,158974.640625,-0.073974609375,1.00390625,-0.139404296875,-1.6784666776657104,-0.7324218153953552,-0.0915527269244194,100.0,206989.0,1.0
15:42:20.495522,175277.828125,169003.421875,159038.390625,198944.578125,161032.703125,163163.546875,687017.625,158977.328125,-0.072998046875,1.00341796875,-0.1396484375,-1.7700194120407104,-0.7324218153953552,-0.03051757626235485,100.0,206990.0,1.0
15:42:20.497862,175288.734375,169015.9375,159051.359375,198943.40625,161041.828125,163176.953125,687037.125,158979.296875,-0.070556640625,1.004638671875,-0.142822265625,-1.8310545682907104,-0.7324218153953552,0.03051757626235485,100.0,206991.0,1.0
15:42:20.500937,175234.015625,169006.109375,159043.3125,198941.53125,161037.984375,163166.21875,687050.1875,158983.578125,-0.070068359375,1.003173828125,-0.1416015625,-1.8310545682907104,-0.6713866591453552,0.2746581733226776,100.0,206992.0,1.0
15:42:20.500945,175203.984375,168993.140625,159029.265625,198944.75,161027.421875,163151.109375,687090.5,158979.5625,-0.070068359375,1.004150390625,-0.14013671875,-2.014159917831421,-0.6103515028953552,0.2441406100988388,100.0,206993.0,1.0
15:42:20.502892,175271.5625,169007.625,159041.96875,198959.0625,161034.765625,163165.5,687012.25,158988.140625,-0.06884765625,1.003173828125,-0.138427734375,-2.075195074081421,-0.5187987685203552,0.2746581733226776,100.0,206994.0,1.0
15:42:20.506649,175302.5,169020.328125,159052.609375,198952.53125,161041.640625,163178.296875,687044.4375,158983.046875,-0.068115234375,1.001220703125,-0.14013671875,-2.044677495956421,-0.7324218153953552,0.4882812201976776,100.0,206995.0,1.0
15:42:20.516804,175243.3125,169015.671875,159047.59375,198936.25,161039.234375,163173.640625,687039.5625,158976.25,-0.06787109375,1.001953125,-0.141845703125,-2.044677495956421,-0.5187987685203552,0.4882812201976776,100.0,206996.0,1.0
15:42:20.520333,175209.875,168996.359375,159033.46875,198945.828125,161031.453125,163153.890625,687102.5625,158982.515625,-0.067626953125,1.0,-0.141357421875,-2.014159917831421,-0.4272460639476776,0.6103515028953552,100.0,206997.0,1.0
15:42:20.520358,175248.5,169001.015625,159037.9375,198950.109375,161032.96875,163160.046875,687002.0625,158983.578125,-0.069091796875,0.999755859375,-0.141845703125,-2.105712652206421,-0.4272460639476776,0.7324218153953552,100.0,206998.0,1.0
15:42:20.520371,175302.328125,169012.1875,159047.6875,198942.96875,161037.703125,163172.125,687042.25,158975.71875,-0.070556640625,1.000244140625,-0.139892578125,-2.075195074081421,-0.4882812201976776,0.6713866591453552,100.0,206999.0,1.0
15:42:20.522920,175243.9375,169008.609375,159044.5625,198933.125,161033.6875,163168.71875,687027.5,158971.609375,-0.06982421875,0.99853515625,-0.13818359375,-2.166747808456421,-0.3662109076976776,0.6408690810203552,100.0,207000.0,1.0
15:42:20.526637,175209.34375,168987.59375,159031.5,198950.03125,161028.046875,163146.546875,687117.25,158983.3125,-0.06982421875,0.998779296875,-0.13818359375,-2.197265386581421,-0.4272460639476776,0.5798339247703552,100.0,207001.0,1.0
15:42:20.542212,175229.015625,168991.984375,159033.65625,198948.953125,161028.5,163152.8125,687014.5,158980.1875,-0.06982421875,0.9970703125,-0.14208984375,-2.166747808456421,-0.3356933295726776,0.6103515028953552,100.0,207002.0,1.0
15:42:20.542228,175303.9375,169006.546875,159045.1875,198950.5625,161033.515625,163166.765625,687041.9375,158974.46875,-0.0703125,0.997314453125,-0.139892578125,-2.166747808456421,-0.2441406100988388,0.6713866591453552,100.0,207003.0,1.0
15:42:20.544442,175252.890625,169011.03125,159043.578125,198935.359375,161030.640625,163169.984375,687031.6875,158966.78125,-0.071044921875,0.995849609375,-0.140869140625,-2.136230230331421,-0.2136230319738388,0.4882812201976776,100.0,207004.0,1.0
15:42:20.571799,175213.8125,168989.828125,159028.109375,198945.375,161022.6875,163146.546875,687116.25,158977.328125,-0.07080078125,0.996826171875,-0.13916015625,-2.227782964706421,-0.2441406100988388,0.5187987685203552,100.0,207005.0,1.0
15:42:20.574171,175216.3125,168992.34375,159029.890625,198952.625,161025.375,163150.390625,687034.375,158982.421875,-0.068115234375,0.99755859375,-0.141845703125,-2.197265386581421,-0.2136230319738388,0.3662109076976776,100.0,207006.0,1.0
15:42:20.576738,175303.21875,169011.203125,159046.609375,198956.46875,161038.875,163170.6875,687060.5625,158984.203125,-0.068359375,0.998291015625,-0.141357421875,-2.197265386581421,-0.03051757626235485,0.4577636420726776,100.0,207007.0,1.0
15:42:20.579154,175265.671875,169017.734375,159051.625,198949.671875,161041.375,163177.84375,687042.0625,158984.390625,-0.06689453125,0.99951171875,-0.140625,-2.258300542831421,0.0915527269244194,0.3051757514476776,100.0,207008.0,1.0
15:42:20.581711,175218.1875,168992.703125,159031.15625,198947.171875,161027.78125,163150.484375,687089.1875,158984.65625,-0.06640625,0.9990234375,-0.14111328125,-2.136230230331421,0.03051757626235485,0.3662109076976776,100.0,207009.0,1.0
15:42:20.584122,175202.734375,168984.03125,159023.015625,198945.5625,161021.34375,163143.421875,687043.1875,158980.359375,-0.06591796875,0.998291015625,-0.138916015625,-2.044677495956421,-0.03051757626235485,0.3967284858226776,100.0,207010.0,1.0
15:42:20.586732,175292.140625,169003.0625,159040.890625,198953.328125,161036.1875,163163.984375,687038.9375,158983.671875,-0.06689453125,0.998291015625,-0.138671875,-2.105712652206421,0.03051757626235485,0.3662109076976776,100.0,207011.0,1.0
15:42:20.591748,175280.421875,169019.78125,159054.84375,198948.328125,161045.75,163180.34375,687043.375,158980.90625,-0.069091796875,0.99951171875,-0.1396484375,-2.014159917831421,0.2441406100988388,0.3967284858226776,100.0,207012.0,1.0
15:42:20.594187,175233.75,169006.109375,159045.359375,198953.953125,161041.015625,163166.21875,687064.875,158989.671875,-0.06982421875,0.997802734375,-0.14111328125,-1.9531248807907104,0.3662109076976776,0.3662109076976776,100.0,207013.0,1.0
15:42:20.599186,175204.78125,168989.296875,159031.234375,198958.078125,161031.265625,163150.125,687063.0625,158989.75,-0.070068359375,0.997802734375,-0.1396484375,-1.9226073026657104,0.3967284858226776,0.4577636420726776,100.0,207014.0,1.0
15:42:20.601625,175286.5,169006.28125,159048.3125,198971.75,161044.421875,163168.453125,687029.6875,158998.0625,-0.071044921875,0.995361328125,-0.138671875,-1.8005369901657104,0.3662109076976776,0.4577636420726776,100.0,207015.0,1.0
15:42:20.604744,175293.5625,169019.25,159059.140625,198958.96875,161052.734375,163183.03125,687049.75,158992.96875,-0.0703125,0.996337890625,-0.139892578125,-1.6784666776657104,0.4882812201976776,0.3967284858226776,100.0,207016.0,1.0
15:42:20.604754,175241.34375,169009.953125,159051.09375,198956.1875,161049.0625,163171.671875,687053.5,158996.8125,-0.069580078125,0.99658203125,-0.1396484375,-1.6784666776657104,0.3662109076976776,0.4577636420726776,100.0,207017.0,1.0
15:42:20.606673,175213.015625,168993.6875,159039.28125,198968.171875,161039.671875,163152.453125,687090.6875,158998.96875,-0.071044921875,0.997802734375,-0.14111328125,-1.6479490995407104,0.4882812201976776,0.5187987685203552,100.0,207018.0,1.0
15:42:20.609151,175273.8125,169004.671875,159047.78125,198969.15625,161043.34375,163162.921875,687005.3125,158996.8125,-0.070556640625,0.995849609375,-0.14013671875,-1.6784666776657104,0.4882812201976776,0.4882812201976776,100.0,207019.0,1.0
15:42:20.611671,175308.40625,169020.5,159062.4375,198964.515625,161053.09375,163178.5625,687036.875,158993.0625,-0.0732421875,0.997802734375,-0.13916015625,-1.5258787870407104,0.3967284858226776,0.5187987685203552,100.0,207020.0,1.0
15:42:20.614119,175253.953125,169017.90625,159062.265625,198962.984375,161054.078125,163174.359375,687041.9375,158996.734375,-0.07275390625,0.999755859375,-0.13818359375,-1.6174315214157104,0.4272460639476776,0.4272460639476776,100.0,207021.0,1.0
15:42:20.620943,175218.546875,168994.65625,159046.078125,198974.875,161044.421875,163151.46875,687110.8125,159003.078125,-0.073974609375,0.9990234375,-0.1396484375,-1.5563963651657104,0.3051757514476776,0.5187987685203552,100.0,207022.0,1.0
15:42:20.620950,175254.5,168997.96875,159045.90625,198967.90625,161041.828125,163156.203125,687006.9375,158993.0625,-0.075439453125,0.9990234375,-0.139404296875,-1.4953612089157104,0.3051757514476776,0.6103515028953552,100.0,207023.0,1.0
15:42:20.628514,175310.734375,169010.75,159054.75,198961.015625,161045.3125,163168.09375,687051.625,158983.3125,-0.076416015625,1.001220703125,-0.140625,-1.4343260526657104,0.2136230319738388,0.5493163466453552,100.0,207024.0,1.0
15:42:20.628525,175250.015625,169006.734375,159048.578125,198950.921875,161037.4375,163162.203125,687022.5625,158979.03125,-0.07666015625,1.00146484375,-0.139892578125,-1.4038084745407104,0.1525878757238388,0.4577636420726776,100.0,207025.0,1.0
15:42:20.631078,175218.90625,168988.046875,159035.890625,198968.171875,161031.1875,163141.28125,687107.3125,158992.53125,-0.07861328125,0.999267578125,-0.138916015625,-1.4038084745407104,0.1220703050494194,0.4272460639476776,100.0,207026.0,1.0
15:42:20.631081,175232.046875,168986.53125,159032.484375,198956.375,161026.53125,163143.25,687009.875,158981.96875,-0.08056640625,0.99658203125,-0.1396484375,-1.3122557401657104,0.03051757626235485,0.4272460639476776,100.0,207027.0,1.0
15:42:20.640446,175305.640625,169001.28125,159046.96875,198960.21875,161037.0,163161.21875,687046.0,158982.328125,-0.078857421875,0.99462890625,-0.14111328125,-1.3427733182907104,0.0,0.4272460639476776,100.0,207028.0,1.0
15:42:20.643483,175253.328125,169006.109375,159048.3125,198947.875,161038.25,163167.03125,687019.3125,158981.078125,-0.07861328125,0.995849609375,-0.139404296875,-1.3122557401657104,-0.1831054538488388,0.3967284858226776,100.0,207029.0,1.0
15:42:20.643492,175219.265625,168988.5,159035.53125,198961.109375,161031.453125,163144.578125,687092.75,158991.1875,-0.07763671875,0.99560546875,-0.140869140625,-1.3122557401657104,-0.3356933295726776,0.5187987685203552,100.0,207030.0,1.0
15:42:20.645423,175215.875,168982.953125,159026.234375,198954.5,161021.4375,163138.0625,687019.25,158979.734375,-0.07666015625,0.99853515625,-0.1396484375,-1.2817381620407104,-0.4577636420726776,0.5493163466453552,100.0,207031.0,1.0
15:42:20.661313,175298.03125,168996.453125,159039.90625,198958.703125,161030.828125,163153.078125,687042.0625,158978.484375,-0.07666015625,0.996337890625,-0.14013671875,-1.0986326932907104,-0.6103515028953552,0.6103515028953552,100.0,207032.0,1.0
15:42:20.661391,175266.65625,169012.71875,159051.71875,198943.953125,161041.375,163169.890625,687030.625,158974.90625,-0.07568359375,0.99609375,-0.14306640625,-0.9765624403953552,-0.7324218153953552,0.5798339247703552,100.0,207033.0,1.0
15:42:20.663123,175229.640625,168997.34375,159043.578125,198962.8125,161040.21875,163153.96875,687085.25,158991.90625,-0.076904296875,0.99755859375,-0.14111328125,-0.9765624403953552,-0.8239745497703552,0.6103515028953552,100.0,207034.0,1.0
15:42:20.665504,175212.109375,168987.6875,159034.8125,198967.453125,161032.171875,163145.84375,687043.0625,158993.59375,-0.078369140625,0.996337890625,-0.139404296875,-0.8239745497703552,-0.8850097060203552,0.7019042372703552,100.0,207035.0,1.0
15:42:20.674768,175296.328125,169003.6875,159046.4375,198963.265625,161039.765625,163162.734375,687033.0,158987.25,-0.076171875,0.997314453125,-0.13818359375,-0.6713866591453552,-0.9460448622703552,0.6103515028953552,100.0,207036.0,1.0
15:42:20.674851,175278.640625,169016.75,159054.03125,198949.21875,161044.78125,163175.875,687034.0,158979.03125,-0.074462890625,0.996337890625,-0.1396484375,-0.5493163466453552,-1.0681151151657104,0.7019042372703552,100.0,207037.0,1.0
15:42:20.681019,175232.40625,169001.1875,159042.59375,198955.484375,161037.078125,163157.546875,687073.6875,158985.46875,-0.072998046875,0.998046875,-0.13818359375,-0.6103515028953552,-1.1596678495407104,0.7934569716453552,100.0,207038.0,1.0
15:42:20.681098,175206.21875,168984.5625,159030.34375,198961.203125,161026.53125,163140.390625,687067.375,158986.09375,-0.070556640625,1.000244140625,-0.140869140625,-0.6408690810203552,-1.2207030057907104,0.7019042372703552,100.0,207039.0,1.0
15:42:20.687929,175286.140625,169001.546875,159045.8125,198974.25,161037.53125,163158.265625,687013.25,158991.359375,-0.070556640625,1.000732421875,-0.138427734375,-0.5493163466453552,-1.2817381620407104,0.6408690810203552,100.0,207040.0,1.0
15:42:20.694927,175288.015625,169010.125,159049.921875,198951.640625,161037.984375,163167.109375,687025.4375,158973.390625,-0.07177734375,1.00048828125,-0.138671875,-0.5798339247703552,-1.3122557401657104,0.5493163466453552,100.0,207041.0,1.0
15:42:20.694962,175231.515625,168995.734375,159038.125,198942.421875,161030.109375,163152.1875,687046.4375,158972.953125,-0.07470703125,0.99853515625,-0.138671875,-0.6103515028953552,-1.2512205839157104,0.4882812201976776,100.0,207042.0,1.0
15:42:20.702290,175204.25,168980.359375,159027.21875,198956.109375,161024.125,163136.546875,687082.1875,158980.71875,-0.074462890625,0.99951171875,-0.14111328125,-0.6103515028953552,-1.3732908964157104,0.3967284858226776,100.0,207043.0,1.0
15:42:20.702325,175263.875,168991.265625,159035.625,198960.046875,161028.765625,163148.609375,687005.8125,158980.1875,-0.073974609375,1.0009765625,-0.138916015625,-0.6713866591453552,-1.4343260526657104,0.1831054538488388,100.0,207044.0,1.0
15:42:20.708727,175295.625,169002.890625,159045.984375,198956.734375,161032.703125,163159.0625,687034.5625,158977.234375,-0.072509765625,1.001220703125,-0.139404296875,-0.6103515028953552,-1.4648436307907104,0.1220703050494194,100.0,207045.0,1.0
15:42:20.708744,175240.8125,168998.328125,159044.109375,198952.703125,161031.625,163153.703125,687025.3125,158980.71875,-0.069580078125,1.00146484375,-0.139404296875,-0.7324218153953552,-1.4953612089157104,0.03051757626235485,100.0,207046.0,1.0
15:42:20.710449,175209.078125,168980.625,159031.328125,198963.703125,161026.53125,163135.375,687091.375,158989.671875,-0.06787109375,1.004150390625,-0.140869140625,-0.7019042372703552,-1.3427733182907104,-0.03051757626235485,100.0,207047.0,1.0
15:42:20.722983,175247.34375,168989.03125,159036.78125,198960.578125,161030.734375,163147.09375,687000.5625,158985.734375,-0.06640625,1.003173828125,-0.1416015625,-0.7934569716453552,-1.2817381620407104,-0.0610351525247097,100.0,207048.0,1.0
15:42:20.725969,175304.65625,169002.53125,159048.3125,198962.09375,161037.4375,163160.40625,687044.0,158983.578125,-0.065673828125,1.003662109375,-0.141357421875,-0.9155272841453552,-1.1901854276657104,-0.03051757626235485,100.0,207049.0,1.0
15:42:20.725976,175245.640625,169000.125,159042.328125,198943.859375,161030.5625,163155.9375,687022.5625,158975.359375,-0.06787109375,1.00537109375,-0.142333984375,-1.0070799589157104,-1.1596678495407104,-0.1220703050494194,100.0,207050.0,1.0
15:42:20.727864,175211.125,168978.65625,159028.28125,198957.171875,161023.671875,163133.234375,687112.875,158985.375,-0.06787109375,1.005859375,-0.142578125,-1.1901854276657104,-0.9155272841453552,0.0,100.0,207051.0,1.0
15:42:20.737900,175227.578125,168981.609375,159030.4375,198958.96875,161025.734375,163139.484375,687010.25,158984.484375,-0.06640625,1.005859375,-0.1416015625,-1.1596678495407104,-0.8544921278953552,0.0610351525247097,100.0,207052.0,1.0
15:42:20.742251,175306.171875,169001.453125,159050.8125,198969.15625,161042.359375,163160.5,687051.625,158989.84375,-0.066650390625,1.00537109375,-0.143798828125,-1.2512205839157104,-0.7934569716453552,0.0610351525247097,100.0,207053.0,1.0
15:42:20.742259,175255.921875,169009.859375,159054.9375,198949.9375,161045.75,163169.890625,687020.875,158982.25,-0.067626953125,1.00537109375,-0.14306640625,-1.2817381620407104,-0.7324218153953552,0.0610351525247097,100.0,207054.0,1.0
15:42:20.752294,175218.546875,168987.515625,159037.234375,198957.171875,161033.859375,163145.03125,687088.125,158988.140625,-0.06689453125,1.004150390625,-0.140869140625,-1.5869139432907104,-0.6103515028953552,0.1525878757238388,100.0,207055.0,1.0
15:42:20.752305,175215.875,168981.15625,159029.453125,198956.28125,161024.828125,163139.578125,687016.375,158982.6875,-0.0654296875,1.005859375,-0.140869140625,-1.5869139432907104,-0.5187987685203552,0.2746581733226776,100.0,207056.0,1.0
15:42:20.754747,175300.265625,168997.25,159044.03125,198960.21875,161036.1875,163157.375,687039.9375,158982.6875,-0.06591796875,1.00439453125,-0.140380859375,-1.6784666776657104,-0.3662109076976776,0.3356933295726776,100.0,207057.0,1.0
15:42:20.754790,175261.015625,169004.234375,159046.4375,198941.890625,161036.09375,163164.53125,687022.75,158972.140625,-0.06689453125,1.003173828125,-0.139892578125,-1.7700194120407104,-0.2746581733226776,0.3967284858226776,100.0,207058.0,1.0
15:42:20.764203,175221.40625,168987.515625,159035.796875,198954.3125,161030.375,163145.65625,687089.0625,158984.390625,-0.06884765625,1.004638671875,-0.14111328125,-1.8310545682907104,-0.2441406100988388,0.4272460639476776,100.0,207059.0,1.0
15:42:20.767998,175207.828125,168982.859375,159032.046875,198961.46875,161028.328125,163141.90625,687049.1875,158987.515625,-0.06884765625,1.00341796875,-0.14013671875,-1.9226073026657104,-0.0610351525247097,0.3051757514476776,100.0,207060.0,1.0
15:42:20.768134,175294.8125,169000.296875,159046.796875,198966.125,161039.59375,163160.5,687028.3125,158986.09375,-0.06982421875,1.006103515625,-0.14013671875,-1.9531248807907104,0.0,0.3051757514476776,100.0,207061.0,1.0
15:42:20.770052,175276.046875,169010.578125,159051.09375,198951.28125,161041.203125,163169.53125,687028.9375,158978.671875,-0.068603515625,1.005126953125,-0.14111328125,-2.075195074081421,0.1525878757238388,0.3662109076976776,100.0,207062.0,1.0
15:42:20.779266,175226.859375,168993.765625,159037.59375,198951.1875,161032.34375,163150.484375,687063.625,158979.5625,-0.069580078125,1.004638671875,-0.1376953125,-2.136230230331421,0.2136230319738388,0.4577636420726776,100.0,207063.0,1.0
15:42:20.782416,175204.96875,168982.328125,159030.25,198963.703125,161027.703125,163139.046875,687064.5625,158986.0,-0.071044921875,1.004638671875,-0.14013671875,-2.197265386581421,0.3356933295726776,0.3967284858226776,100.0,207064.0,1.0
15:42:20.806674,175279.53125,168994.3125,159039.734375,198957.71875,161035.03125,163154.0625,687015.125,158979.296875,-0.06982421875,1.00244140625,-0.14111328125,-2.319335699081421,0.3662109076976776,0.3662109076976776,100.0,207065.0,1.0
15:42:20.836238,175284.984375,169006.375,159048.859375,198947.4375,161040.75,163166.40625,687040.5625,158972.59375,-0.071044921875,1.0009765625,-0.141845703125,-2.410888433456421,0.3662109076976776,0.3662109076976776,100.0,207066.0,1.0
15:42:20.836315,175228.203125,168994.21875,159038.125,198950.03125,161031.265625,163151.203125,687042.875,158978.484375,-0.0712890625,1.000244140625,-0.1416015625,-2.502441167831421,0.5187987685203552,0.3662109076976776,100.0,207067.0,1.0
15:42:20.838127,175200.3125,168975.984375,159023.1875,198961.109375,161019.296875,163130.8125,687084.6875,158983.40625,-0.069580078125,1.001708984375,-0.139404296875,-2.624511480331421,0.4882812201976776,0.3662109076976776,100.0,207068.0,1.0
15:42:20.843661,175257.265625,168986.171875,159030.4375,198960.9375,161023.578125,163143.6875,687011.1875,158980.8125,-0.068359375,1.000732421875,-0.139404296875,-2.563476324081421,0.5798339247703552,0.3967284858226776,100.0,207069.0,1.0
15:42:20.843733,175286.59375,168996.984375,159039.46875,198948.6875,161028.6875,163156.65625,687045.4375,158968.125,-0.06982421875,1.000244140625,-0.14013671875,-2.532958745956421,0.6408690810203552,0.3662109076976776,100.0,207070.0,1.0
15:42:20.847314,175229.28125,168992.703125,159035.265625,198941.53125,161027.25,163151.65625,687039.4375,158968.296875,-0.072265625,1.00146484375,-0.138427734375,-2.532958745956421,0.6713866591453552,0.4882812201976776,100.0,207071.0,1.0
15:42:20.847395,175197.546875,168973.75,159022.296875,198954.140625,161020.0,163131.4375,687111.3125,158979.65625,-0.070556640625,0.998779296875,-0.140625,-2.532958745956421,0.7934569716453552,0.6103515028953552,100.0,207072.0,1.0
15:42:20.847420,175232.859375,168979.46875,159022.921875,198949.3125,161019.65625,163138.234375,687016.125,158973.296875,-0.06982421875,0.998291015625,-0.141357421875,-2.532958745956421,0.8850097060203552,0.6103515028953552,100.0,207073.0,1.0
15:42:20.847441,175291.15625,168994.9375,159034.640625,198949.125,161025.90625,163151.734375,687065.1875,158969.453125,-0.071044921875,0.998291015625,-0.14111328125,-2.441406011581421,0.8544921278953552,0.5798339247703552,100.0,207074.0,1.0
15:42:20.850501,175227.765625,168988.046875,159026.046875,198930.796875,161017.59375,163144.578125,687038.625,158961.234375,-0.069091796875,0.995849609375,-0.14013671875,-2.471923589706421,0.8239745497703552,0.5798339247703552,100.0,207075.0,1.0
15:42:20.850574,175190.203125,168962.03125,159008.890625,198942.515625,161007.484375,163118.03125,687120.625,158969.28125,-0.070556640625,0.99755859375,-0.139892578125,-2.441406011581421,0.8850097060203552,0.6713866591453552,100.0,207076.0,1.0
15:42:20.850600,175210.953125,168968.734375,159014.4375,198948.0625,161012.140625,163126.796875,687022.625,158971.515625,-0.072998046875,0.997314453125,-0.14111328125,-2.288818120956421,0.9155272841453552,0.6713866591453552,100.0,207077.0,1.0
15:42:20.853643,175288.46875,168986.96875,159030.875,198955.484375,161024.75,163145.84375,687064.5,158974.28125,-0.072509765625,0.995849609375,-0.143798828125,-2.288818120956421,0.9460448622703552,0.7019042372703552,100.0,207078.0,1.0
15:42:20.853715,175234.46875,168990.46875,159030.53125,198934.203125,161022.78125,163149.234375,687031.6875,158963.46875,-0.07421875,0.9970703125,-0.141357421875,-2.258300542831421,0.9155272841453552,0.7324218153953552,100.0,207079.0,1.0
15:42:20.855425,175199.234375,168970.96875,159016.75,198945.734375,161014.640625,163126.890625,687083.875,158975.265625,-0.07177734375,0.998046875,-0.14111328125,-2.227782964706421,1.0375975370407104,0.7324218153953552,100.0,207080.0,1.0
15:42:20.858028,175198.875,168968.203125,159013.890625,198948.859375,161010.796875,163124.734375,687023.0,158974.015625,-0.0751953125,0.996337890625,-0.138427734375,-2.136230230331421,0.9460448622703552,0.7324218153953552,100.0,207081.0,1.0
15:42:20.860454,175284.53125,168984.203125,159027.75,198950.296875,161019.65625,163140.65625,687043.5625,158966.421875,-0.076416015625,0.996826171875,-0.141845703125,-2.136230230331421,1.0070799589157104,0.8239745497703552,100.0,207082.0,1.0
15:42:20.863289,175251.625,168997.34375,159036.0625,198938.5,161025.109375,163153.265625,687030.1875,158963.015625,-0.07568359375,0.996826171875,-0.13916015625,-2.136230230331421,1.0070799589157104,0.8239745497703552,100.0,207083.0,1.0
15:42:20.865506,175211.3125,168981.078125,159023.90625,198944.484375,161019.203125,163134.578125,687073.0625,158971.25,-0.076904296875,0.99658203125,-0.138671875,-2.044677495956421,0.8239745497703552,0.7934569716453552,100.0,207084.0,1.0
15:42:20.872374,175197.0,168974.28125,159019.171875,198955.921875,161015.265625,163129.5625,687042.0625,158977.0625,-0.078125,0.997314453125,-0.138427734375,-1.9836424589157104,0.7934569716453552,0.7934569716453552,100.0,207085.0,1.0
15:42:20.872439,175287.65625,168993.5,159036.609375,198965.21875,161028.046875,163149.6875,687024.4375,158980.1875,-0.077392578125,0.9990234375,-0.140869140625,-1.9531248807907104,0.6713866591453552,0.7019042372703552,100.0,207086.0,1.0
15:42:20.874844,175277.109375,169009.140625,159048.046875,198955.21875,161036.09375,163164.796875,687030.1875,158975.0,-0.074462890625,0.998291015625,-0.13818359375,-1.9226073026657104,0.7019042372703552,0.7324218153953552,100.0,207087.0,1.0
15:42:20.874971,175231.515625,168997.96875,159041.4375,198960.21875,161033.515625,163153.078125,687067.875,158983.5,-0.07470703125,0.998046875,-0.138916015625,-1.8920897245407104,0.6713866591453552,0.7019042372703552,100.0,207088.0,1.0
15:42:20.886646,175207.640625,168988.859375,159032.9375,198966.484375,161027.421875,163143.875,687073.4375,158986.71875,-0.074462890625,0.998779296875,-0.138427734375,-1.8310545682907104,0.5798339247703552,0.7934569716453552,100.0,207089.0,1.0
15:42:20.888511,175279.890625,169000.828125,159040.984375,198963.53125,161031.265625,163156.5625,687021.9375,158980.28125,-0.0751953125,0.998779296875,-0.138427734375,-1.8005369901657104,0.5798339247703552,0.7934569716453552,100.0,207090.0,1.0
15:42:20.888583,175287.9375,169011.921875,159048.046875,198951.09375,161034.765625,163166.84375,687040.4375,158970.265625,-0.075927734375,1.000244140625,-0.1396484375,-1.8310545682907104,0.5493163466453552,0.7324218153953552,100.0,207091.0,1.0
15:42:20.898889,175230.796875,168996.1875,159036.875,198950.828125,161027.515625,163151.296875,687046.6875,158974.375,-0.074462890625,0.998779296875,-0.13720703125,-1.8310545682907104,0.5798339247703552,0.7629393935203552,100.0,207092.0,1.0
15:42:20.901100,175197.71875,168974.09375,159021.9375,198961.203125,161017.953125,163129.65625,687083.8125,158982.15625,-0.076416015625,0.999755859375,-0.13720703125,-1.7700194120407104,0.3662109076976776,0.8239745497703552,100.0,207093.0,1.0
15:42:20.901185,175252.34375,168982.59375,159027.65625,198957.53125,161022.328125,163141.28125,687009.0625,158976.703125,-0.07568359375,0.999755859375,-0.137939453125,-1.8005369901657104,0.3967284858226776,1.0070799589157104,100.0,207094.0,1.0
15:42:20.906807,175284.984375,168995.203125,159037.234375,198952.4375,161027.609375,163154.0625,687042.6875,158969.453125,-0.0751953125,1.00146484375,-0.138671875,-1.8310545682907104,0.3051757514476776,0.9155272841453552,100.0,207095.0,1.0
15:42:20.914856,175226.953125,168991.625,159033.296875,198944.921875,161024.75,163148.4375,687037.3125,158968.65625,-0.073486328125,1.0029296875,-0.13818359375,-1.9226073026657104,0.2441406100988388,0.8544921278953552,100.0,207096.0,1.0
15:42:20.914879,175201.390625,168976.875,159024.4375,198966.921875,161020.28125,163130.734375,687114.0,158985.734375,-0.07470703125,1.002197265625,-0.14111328125,-1.8615721464157104,0.1831054538488388,0.8239745497703552,100.0,207097.0,1.0
15:42:20.916690,175242.953125,168986.96875,159030.703125,198966.65625,161023.5,163141.640625,687008.625,158981.53125,-0.075439453125,1.002197265625,-0.138671875,-1.8310545682907104,0.1525878757238388,0.7629393935203552,100.0,207098.0,1.0
15:42:20.925394,175300.8125,169003.6875,159042.59375,198957.171875,161031.8125,163158.71875,687041.3125,158969.640625,-0.076416015625,1.001708984375,-0.142578125,-1.8615721464157104,0.0610351525247097,0.8850097060203552,100.0,207099.0,1.0
15:42:20.932276,175243.046875,169007.0,159042.59375,198940.546875,161033.515625,163163.359375,687024.1875,158965.875,-0.076416015625,1.0,-0.14208984375,-1.8005369901657104,0.03051757626235485,0.8544921278953552,100.0,207100.0,1.0
15:42:20.932297,175208.1875,168986.265625,159029.453125,198957.625,161026.625,163139.84375,687100.875,158978.40625,-0.076904296875,1.001708984375,-0.140625,-1.8920897245407104,-0.0610351525247097,0.8239745497703552,100.0,207101.0,1.0
15:42:20.934788,175223.640625,168984.109375,159026.59375,198957.984375,161021.609375,163139.21875,687005.3125,158975.984375,-0.07373046875,1.000732421875,-0.137939453125,-1.9531248807907104,0.0,0.8850097060203552,100.0,207102.0,1.0
15:42:20.934792,175299.109375,168996.1875,159038.296875,198960.671875,161029.9375,163152.453125,687045.625,158975.71875,-0.072265625,1.00390625,-0.139404296875,-2.105712652206421,-0.03051757626235485,0.8850097060203552,100.0,207103.0,1.0
15:42:20.944185,175245.734375,168998.953125,159037.859375,198939.296875,161029.03125,163156.65625,687026.3125,158965.171875,-0.07177734375,1.0009765625,-0.14208984375,-2.105712652206421,-0.0915527269244194,0.8544921278953552,100.0,207104.0,1.0
15:42:20.951055,175207.109375,168977.3125,159022.203125,198950.03125,161020.0,163132.609375,687116.0,158971.6875,-0.070556640625,1.0,-0.1416015625,-2.197265386581421,-0.1220703050494194,0.8239745497703552,100.0,207105.0,1.0
15:42:20.951067,175206.03125,168975.0,159019.265625,198954.234375,161016.96875,163131.265625,687030.0625,158973.484375,-0.072509765625,1.000244140625,-0.144287109375,-2.197265386581421,-0.0915527269244194,0.8544921278953552,100.0,207106.0,1.0
15:42:20.957408,175298.03125,168997.53125,159039.375,198961.734375,161032.171875,163154.0625,687052.5,158976.609375,-0.07275390625,0.9990234375,-0.13818359375,-2.197265386581421,-0.2441406100988388,0.9460448622703552,100.0,207107.0,1.0
15:42:20.957423,175267.015625,169014.25,159051.09375,198953.609375,161041.828125,163170.421875,687040.875,158974.015625,-0.07373046875,1.0009765625,-0.14111328125,-2.166747808456421,-0.1525878757238388,0.8544921278953552,100.0,207108.0,1.0
15:42:20.959503,175225.96875,168997.96875,159040.359375,198965.046875,161037.078125,163153.703125,687085.5,158985.28125,-0.072509765625,0.999755859375,-0.141845703125,-2.197265386581421,-0.2746581733226776,0.8239745497703552,100.0,207109.0,1.0
15:42:20.971806,175211.125,168989.921875,159032.84375,198968.09375,161028.328125,163145.390625,687050.25,158983.859375,-0.07080078125,1.001220703125,-0.137451171875,-2.319335699081421,-0.3051757514476776,0.7934569716453552,100.0,207110.0,1.0
15:42:20.974872,175298.296875,169005.296875,159044.109375,198971.125,161035.65625,163161.03125,687022.75,158982.6875,-0.071044921875,1.0029296875,-0.13525390625,-2.410888433456421,-0.3051757514476776,0.7934569716453552,100.0,207111.0,1.0
15:42:20.974891,175281.40625,169013.4375,159049.75,198957.796875,161039.3125,163170.953125,687027.75,158975.890625,-0.072021484375,1.00244140625,-0.13623046875,-2.441406011581421,-0.2441406100988388,0.7934569716453552,100.0,207112.0,1.0
15:42:20.976733,175233.84375,168998.953125,159041.609375,198967.28125,161035.75,163156.65625,687068.4375,158987.96875,-0.072509765625,1.001708984375,-0.13720703125,-2.319335699081421,-0.3051757514476776,0.7019042372703552,100.0,207113.0,1.0
15:42:20.984305,175206.21875,168984.375,159028.921875,198968.09375,161027.15625,163143.6875,687071.5625,158987.703125,-0.071533203125,1.00048828125,-0.138916015625,-2.319335699081421,-0.3356933295726776,0.6713866591453552,100.0,207114.0,1.0
15:42:20.991037,175280.25,168998.421875,159040.8125,198971.84375,161035.296875,163158.171875,687022.125,158987.15625,-0.071533203125,0.999755859375,-0.13818359375,-2.258300542831421,-0.2746581733226776,0.6713866591453552,100.0,207115.0,1.0
15:42:20.991113,175282.203125,169004.3125,159041.875,198955.03125,161031.90625,163162.109375,687035.25,158972.953125,-0.0712890625,1.0,-0.1376953125,-2.258300542831421,-0.2746581733226776,0.6408690810203552,100.0,207116.0,1.0
15:42:20.998559,175226.78125,168987.421875,159026.765625,198951.1875,161017.421875,163140.921875,687046.625,158973.125,-0.072021484375,0.99853515625,-0.138427734375,-2.288818120956421,-0.2441406100988388,0.7934569716453552,100.0,207117.0,1.0
15:42:20.998649,175197.71875,168969.71875,159015.859375,198971.9375,161011.96875,163123.390625,687090.5,158985.8125,-0.07373046875,0.99853515625,-0.138671875,-2.349853277206421,-0.2136230319738388,0.6408690810203552,100.0,207118.0,1.0
15:42:21.000656,175247.96875,168977.671875,159020.59375,198959.0625,161016.4375,163136.09375,687008.8125,158973.390625,-0.072265625,0.999267578125,-0.13720703125,-2.380370855331421,-0.2441406100988388,0.5798339247703552,100.0,207119.0,1.0
15:42:21.016085,175281.765625,168994.3125,159032.578125,198947.609375,161025.46875,163152.71875,687050.4375,158965.796875,-0.06982421875,0.999755859375,-0.140380859375,-2.410888433456421,-0.2441406100988388,0.6713866591453552,100.0,207120.0,1.0
15:42:21.016140,175233.578125,168998.859375,159035.625,198950.296875,161028.046875,163154.875,687033.375,158974.46875,-0.072265625,1.0009765625,-0.139892578125,-2.380370855331421,-0.2136230319738388,0.5798339247703552,100.0,207121.0,1.0
15:42:21.017915,175196.921875,168975.359375,159019.171875,198961.015625,161017.5,163130.90625,687106.4375,158982.0625,-0.07080078125,0.9990234375,-0.137939453125,-2.197265386581421,-0.1525878757238388,0.5798339247703552,100.0,207122.0,1.0
15:42:21.023547,175237.140625,168980.8125,159025.25,198967.640625,161021.609375,163139.046875,687006.75,158983.859375,-0.0703125,0.99853515625,-0.138916015625,-2.227782964706421,-0.1220703050494194,0.4882812201976776,100.0,207123.0,1.0
15:42:21.023564,175292.9375,168993.40625,159035.625,198959.0625,161028.59375,163151.5625,687046.875,158976.609375,-0.07177734375,0.99853515625,-0.13720703125,-2.166747808456421,-0.1220703050494194,0.5493163466453552,100.0,207124.0,1.0
15:42:21.025558,175235.09375,168994.484375,159034.8125,198945.203125,161028.328125,163151.65625,687025.75,158972.234375,-0.070556640625,1.001220703125,-0.135498046875,-2.105712652206421,-0.0915527269244194,0.6408690810203552,100.0,207125.0,1.0
15:42:21.029186,175203.796875,168976.421875,159023.453125,198962.28125,161022.0625,163131.4375,687114.9375,158983.671875,-0.07080078125,1.001708984375,-0.136962890625,-2.197265386581421,-0.1831054538488388,0.5493163466453552,100.0,207126.0,1.0
15:42:21.042294,175220.703125,168978.84375,159024.625,198962.8125,161020.546875,163135.90625,687016.8125,158977.953125,-0.0712890625,1.0,-0.137939453125,-2.227782964706421,-0.1525878757238388,0.6103515028953552,100.0,207127.0,1.0
15:42:21.042304,175295.53125,168993.328125,159036.15625,198964.15625,161025.375,163149.140625,687043.3125,158973.296875,-0.070556640625,0.99951171875,-0.138671875,-2.166747808456421,-0.1525878757238388,0.5493163466453552,100.0,207128.0,1.0
15:42:21.044216,175246.09375,168997.078125,159035.265625,198944.21875,161022.328125,163152.1875,687021.375,158964.09375,-0.07177734375,0.999755859375,-0.13525390625,-2.227782964706421,-0.1220703050494194,0.5187987685203552,100.0,207129.0,1.0
15:42:21.046667,175210.765625,168979.375,159024.265625,198958.34375,161018.578125,163133.859375,687097.75,158977.140625,-0.07275390625,1.000244140625,-0.13427734375,-2.197265386581421,-0.0610351525247097,0.5187987685203552,100.0,207130.0,1.0
15:42:21.050425,175207.109375,168977.5,159020.6875,198958.78125,161015.359375,163133.40625,687026.25,158975.453125,-0.073486328125,1.00341796875,-0.134033203125,-2.197265386581421,-0.03051757626235485,0.6408690810203552,100.0,207131.0,1.0
15:42:21.061050,175295.0,168994.9375,159035.625,198965.21875,161026.09375,163151.109375,687042.4375,158975.09375,-0.072265625,1.00146484375,-0.132568359375,-2.197265386581421,-0.0610351525247097,0.6103515028953552,100.0,207132.0,1.0
15:42:21.061064,175266.5625,169007.265625,159045.71875,198957.171875,161032.53125,163163.984375,687031.5625,158973.03125,-0.07080078125,1.0009765625,-0.13623046875,-2.288818120956421,-0.03051757626235485,0.6408690810203552,100.0,207133.0,1.0
15:42:21.063540,175225.96875,168992.078125,159035.984375,198966.203125,161028.59375,163148.609375,687087.3125,158984.5625,-0.0712890625,1.0009765625,-0.134033203125,-2.288818120956421,-0.03051757626235485,0.6103515028953552,100.0,207134.0,1.0
15:42:21.063542,175209.4375,168985.90625,159029.8125,198969.96875,161024.65625,163144.234375,687064.5625,158987.515625,-0.0693359375,0.999755859375,-0.135009765625,-2.319335699081421,-0.03051757626235485,0.6408690810203552,100.0,207135.0,1.0
15:42:21.073051,175294.546875,169002.359375,159041.515625,198971.03125,161031.265625,163159.515625,687041.0,158983.140625,-0.070556640625,1.0009765625,-0.1376953125,-2.258300542831421,0.0,0.5798339247703552,100.0,207136.0,1.0
15:42:21.077418,175276.84375,169011.46875,159045.984375,198955.75,161031.0,163167.296875,687039.9375,158969.546875,-0.07177734375,1.0009765625,-0.13720703125,-2.227782964706421,0.0,0.7019042372703552,100.0,207137.0,1.0
15:42:21.077436,175224.984375,168991.53125,159031.15625,198959.953125,161020.71875,163146.375,687084.875,158975.8125,-0.071044921875,1.00048828125,-0.1357421875,-2.166747808456421,0.03051757626235485,0.7324218153953552,100.0,207138.0,1.0
15:42:21.084181,175192.359375,168970.609375,159013.890625,198960.21875,161008.03125,163127.15625,687077.25,158973.484375,-0.0712890625,1.000244140625,-0.134033203125,-2.227782964706421,-0.0610351525247097,0.7629393935203552,100.0,207139.0,1.0
15:42:21.094784,175265.046875,168980.453125,159024.984375,198965.9375,161014.109375,163138.953125,687024.375,158974.375,-0.070556640625,0.99951171875,-0.135009765625,-2.288818120956421,0.0,0.7324218153953552,100.0,207140.0,1.0
15:42:21.094814,175270.9375,168989.5625,159030.703125,198948.953125,161015.453125,163147.984375,687039.4375,158960.15625,-0.070068359375,0.999267578125,-0.1357421875,-2.288818120956421,0.0610351525247097,0.6408690810203552,100.0,207141.0,1.0
15:42:21.097328,175216.3125,168979.28125,159021.578125,198948.328125,161009.28125,163133.953125,687077.5625,158963.203125,-0.070556640625,0.999755859375,-0.137939453125,-2.227782964706421,0.1220703050494194,0.6713866591453552,100.0,207142.0,1.0
15:42:21.097359,175190.296875,168963.453125,159009.953125,198956.734375,161003.015625,163115.96875,687111.6875,158970.4375,-0.06982421875,1.000732421875,-0.13671875,-2.136230230331421,0.0610351525247097,0.7324218153953552,100.0,207143.0,1.0
15:42:21.106655,175252.796875,168978.84375,159023.90625,198963.703125,161014.546875,163133.671875,687022.3125,158974.46875,-0.072509765625,1.0009765625,-0.135009765625,-2.288818120956421,0.0610351525247097,0.7629393935203552,100.0,207144.0,1.0
15:42:21.109832,175293.75,168998.15625,159041.4375,198962.546875,161027.515625,163153.078125,687054.75,158973.65625,-0.0712890625,1.0,-0.138427734375,-2.288818120956421,0.0610351525247097,0.8239745497703552,100.0,207145.0,1.0
15:42:21.109856,175238.046875,168995.921875,159039.90625,198957.265625,161027.421875,163149.859375,687032.875,158976.25,-0.070556640625,1.0,-0.1376953125,-2.349853277206421,0.0,0.7934569716453552,100.0,207146.0,1.0
15:42:21.118001,175206.75,168976.25,159027.03125,198972.828125,161021.4375,163130.015625,687097.5625,158986.53125,-0.072265625,0.99951171875,-0.135498046875,-2.410888433456421,0.0610351525247097,0.6713866591453552,100.0,207147.0,1.0
15:42:21.130424,175242.6875,168983.125,159031.0625,198970.5,161023.578125,163139.671875,687006.5,158983.5,-0.0712890625,1.001220703125,-0.1328125,-2.319335699081421,0.0610351525247097,0.7934569716453552,100.0,207148.0,1.0
15:42:21.130471,175303.046875,169000.46875,159044.109375,198967.109375,161031.453125,163156.828125,687048.6875,158977.234375,-0.07080078125,1.001708984375,-0.135498046875,-2.319335699081421,0.03051757626235485,0.8239745497703552,100.0,207149.0,1.0
15:42:21.130486,175247.078125,169001.015625,159043.046875,198961.375,161030.640625,163156.921875,687037.5625,158979.109375,-0.068603515625,1.002685546875,-0.13525390625,-2.319335699081421,-0.1220703050494194,0.8850097060203552,100.0,207150.0,1.0
15:42:21.132956,175211.3125,168979.109375,159026.765625,198971.125,161022.25,163134.125,687129.875,158987.421875,-0.068603515625,1.00146484375,-0.135498046875,-2.380370855331421,-0.0610351525247097,0.8544921278953552,100.0,207151.0,1.0
15:42:21.135394,175219.71875,168977.859375,159023.1875,198960.75,161018.9375,163135.375,687025.0,158979.5625,-0.070068359375,1.00146484375,-0.134521484375,-2.410888433456421,-0.0915527269244194,0.8239745497703552,100.0,207152.0,1.0
15:42:21.137980,175292.765625,168991.171875,159035.171875,198961.828125,161026.0,163148.875,687059.5,158977.953125,-0.06982421875,1.000732421875,-0.13671875,-2.380370855331421,-0.1525878757238388,0.8544921278953552,100.0,207153.0,1.0
15:42:21.144247,175243.3125,168994.9375,159034.8125,198946.8125,161023.765625,163152.90625,687033.5625,158968.203125,-0.07080078125,0.9990234375,-0.13720703125,-2.349853277206421,-0.0915527269244194,0.7629393935203552,100.0,207154.0,1.0
15:42:21.148560,175206.296875,168976.15625,159021.21875,198958.15625,161018.671875,163133.328125,687110.8125,158978.21875,-0.072509765625,0.999267578125,-0.134765625,-2.380370855331421,-0.0610351525247097,0.7629393935203552,100.0,207155.0,1.0
15:42:21.148590,175207.828125,168976.875,159023.015625,198968.984375,161021.078125,163136.1875,687043.3125,158985.546875,-0.073486328125,1.000244140625,-0.137451171875,-2.380370855331421,-0.1220703050494194,0.5798339247703552,100.0,207156.0,1.0
15:42:21.178023,175288.921875,168988.671875,159031.421875,198961.5625,161023.578125,163147.265625,687054.3125,158974.734375,-0.072021484375,1.0,-0.1337890625,-2.319335699081421,-0.1525878757238388,0.5798339247703552,100.0,207157.0,1.0
15:42:21.208889,175254.578125,168998.953125,159037.59375,198949.046875,161025.015625,163156.203125,687037.25,158967.9375,-0.07080078125,0.999267578125,-0.1318359375,-2.319335699081421,-0.1831054538488388,0.5493163466453552,100.0,207158.0,1.0
15:42:21.209064,175215.875,168987.328125,159030.078125,198961.734375,161024.484375,163143.875,687066.1875,158980.8125,-0.06982421875,0.99755859375,-0.13623046875,-2.258300542831421,-0.2136230319738388,0.4272460639476776,100.0,207159.0,1.0
15:42:21.234220,175200.21875,168980.453125,159022.921875,198964.15625,161019.5625,163138.5,687042.6875,158978.9375,-0.069580078125,0.998291015625,-0.13427734375,-2.349853277206421,-0.2136230319738388,0.4272460639476776,100.0,207160.0,1.0
15:42:21.256661,175283.8125,168996.359375,159035.4375,198965.046875,161028.046875,163155.578125,687021.9375,158975.71875,-0.069091796875,0.996337890625,-0.134521484375,-2.380370855331421,-0.1831054538488388,0.4577636420726776,100.0,207161.0,1.0
15:42:21.259229,175268.796875,169006.203125,159041.515625,198951.1875,161030.46875,163164.34375,687031.5,158968.125,-0.070068359375,0.99560546875,-0.136474609375,-2.319335699081421,-0.1220703050494194,0.5187987685203552,100.0,207162.0,1.0
15:42:21.261714,175217.203125,168986.34375,159027.03125,198951.640625,161020.453125,163142.625,687081.375,158971.515625,-0.068115234375,0.996826171875,-0.1376953125,-2.288818120956421,-0.1220703050494194,0.5187987685203552,100.0,207163.0,1.0
15:42:21.264268,175190.65625,168970.171875,159017.203125,198963.796875,161014.828125,163128.671875,687085.125,158977.328125,-0.06787109375,0.998291015625,-0.13623046875,-2.349853277206421,-0.2136230319738388,0.6408690810203552,100.0,207164.0,1.0
15:42:21.266742,175264.953125,168981.25,159027.578125,198972.203125,161020.984375,163140.5625,687032.6875,158980.09375,-0.069580078125,0.998046875,-0.135498046875,-2.258300542831421,-0.1525878757238388,0.5187987685203552,100.0,207165.0,1.0
15:42:21.269311,175271.75,168992.421875,159031.421875,198948.0625,161019.109375,163148.96875,687054.1875,158961.6875,-0.06884765625,0.998291015625,-0.134765625,-2.319335699081421,-0.1831054538488388,0.5187987685203552,100.0,207166.0,1.0
15:42:21.271768,175219.359375,168985.09375,159024.53125,198945.015625,161013.390625,163139.40625,687046.4375,158963.46875,-0.071533203125,0.99853515625,-0.13623046875,-2.349853277206421,-0.0915527269244194,0.4882812201976776,100.0,207167.0,1.0
15:42:21.274288,175193.78125,168970.34375,159014.25,198961.015625,161008.296875,163122.859375,687095.4375,158973.65625,-0.071533203125,0.996337890625,-0.13427734375,-2.319335699081421,-0.1220703050494194,0.4882812201976776,100.0,207168.0,1.0
15:42:21.276673,175251.625,168981.25,159023.109375,198961.109375,161014.375,163134.296875,687009.625,158973.03125,-0.0712890625,0.9970703125,-0.136474609375,-2.258300542831421,-0.2746581733226776,0.4577636420726776,100.0,207169.0,1.0
15:42:21.279231,175289.625,168996.265625,159037.046875,198959.40625,161022.6875,163149.0625,687038.0,158972.140625,-0.0703125,0.9990234375,-0.136962890625,-2.166747808456421,-0.1831054538488388,0.5493163466453552,100.0,207170.0,1.0
15:42:21.281642,175229.109375,168990.546875,159030.703125,198949.578125,161017.953125,163143.421875,687043.125,158967.40625,-0.070556640625,0.99853515625,-0.136962890625,-2.105712652206421,-0.1220703050494194,0.3967284858226776,100.0,207171.0,1.0
15:42:21.284178,175195.484375,168967.03125,159015.5,198967.109375,161008.921875,163119.546875,687121.625,158978.046875,-0.070556640625,0.999267578125,-0.13720703125,-2.044677495956421,-0.1525878757238388,0.3967284858226776,100.0,207172.0,1.0
15:42:21.286619,175234.109375,168975.53125,159021.9375,198966.5625,161014.109375,163130.453125,687014.6875,158979.828125,-0.071533203125,0.99951171875,-0.13623046875,-1.9836424589157104,-0.1220703050494194,0.3662109076976776,100.0,207173.0,1.0
15:42:21.289210,175293.65625,168991.984375,159036.15625,198958.875,161023.5,163147.265625,687052.25,158970.171875,-0.072265625,0.999755859375,-0.1376953125,-1.9531248807907104,-0.1831054538488388,0.3051757514476776,100.0,207174.0,1.0
15:42:21.292286,175241.265625,168996.8125,159040.8125,198953.609375,161027.25,163152.625,687024.0,158973.03125,-0.072998046875,1.002685546875,-0.136474609375,-1.9531248807907104,-0.2136230319738388,0.2441406100988388,100.0,207175.0,1.0
15:42:21.292294,175206.921875,168978.125,159027.03125,198967.015625,161021.609375,163132.6875,687105.875,158984.921875,-0.07373046875,1.002685546875,-0.134765625,-1.8615721464157104,-0.1525878757238388,0.3356933295726776,100.0,207176.0,1.0
15:42:21.294705,175221.765625,168980.171875,159024.4375,198963.703125,161017.421875,163135.90625,687027.125,158978.84375,-0.074462890625,1.00341796875,-0.1376953125,-1.8005369901657104,-0.3356933295726776,0.1525878757238388,100.0,207177.0,1.0
15:42:21.294708,175298.03125,168994.9375,159036.515625,198963.265625,161025.015625,163151.5625,687069.5625,158973.75,-0.074462890625,1.002197265625,-0.13525390625,-1.8310545682907104,-0.3356933295726776,0.03051757626235485,100.0,207178.0,1.0
15:42:21.297279,175252.078125,169002.265625,159041.4375,198953.15625,161028.59375,163159.703125,687031.5625,158970.984375,-0.075439453125,1.002685546875,-0.1337890625,-1.8005369901657104,-0.5187987685203552,0.0,100.0,207179.0,1.0
15:42:21.297281,175216.3125,168983.3125,159029.984375,198970.046875,161024.65625,163139.40625,687090.75,158985.640625,-0.075439453125,1.00244140625,-0.134033203125,-1.8310545682907104,-0.4577636420726776,-0.1220703050494194,100.0,207180.0,1.0
15:42:21.299708,175209.15625,168976.875,159023.546875,198969.34375,161019.46875,163135.015625,687030.625,158984.203125,-0.073974609375,1.003662109375,-0.1328125,-1.8920897245407104,-0.5493163466453552,-0.1831054538488388,100.0,207181.0,1.0
15:42:21.299711,175294.09375,168992.078125,159036.953125,198968.71875,161028.046875,163151.296875,687041.625,158979.65625,-0.073974609375,1.00390625,-0.1318359375,-1.9836424589157104,-0.5798339247703552,-0.2136230319738388,100.0,207182.0,1.0
15:42:21.304214,175262.8125,169003.515625,159043.671875,198955.5625,161030.5625,163161.65625,687035.625,158971.15625,-0.07373046875,1.005126953125,-0.133544921875,-1.9836424589157104,-0.6408690810203552,-0.0915527269244194,100.0,207183.0,1.0
15:42:21.306633,175222.125,168988.140625,159032.484375,198966.75,161024.296875,163143.0625,687086.6875,158981.53125,-0.072265625,1.005615234375,-0.133544921875,-2.044677495956421,-0.7019042372703552,-0.0610351525247097,100.0,207184.0,1.0
15:42:21.309196,175206.75,168980.53125,159025.78125,198972.203125,161020.09375,163135.375,687058.25,158984.484375,-0.072998046875,1.005126953125,-0.134033203125,-2.227782964706421,-0.6713866591453552,0.03051757626235485,100.0,207185.0,1.0
15:42:21.312821,175290.703125,168994.484375,159038.390625,198974.875,161029.21875,163150.390625,687045.0,158983.046875,-0.072509765625,1.0048828125,-0.133056640625,-2.197265386581421,-0.6408690810203552,0.0610351525247097,100.0,207186.0,1.0
15:42:21.312833,175272.375,169002.890625,159042.234375,198957.359375,161029.484375,163159.515625,687046.25,158968.03125,-0.0712890625,1.00537109375,-0.132568359375,-2.258300542831421,-0.6713866591453552,0.0610351525247097,100.0,207187.0,1.0
15:42:21.312835,175223.46875,168987.59375,159030.875,198957.984375,161023.40625,163142.34375,687061.625,158974.828125,-0.07080078125,1.0068359375,-0.131591796875,-2.380370855331421,-0.6103515028953552,0.1220703050494194,100.0,207188.0,1.0
15:42:21.317407,175196.375,168971.15625,159018.09375,198961.015625,161014.203125,163126.4375,687074.4375,158977.953125,-0.0693359375,1.0048828125,-0.13427734375,-2.471923589706421,-0.6408690810203552,0.1220703050494194,100.0,207189.0,1.0
15:42:21.317417,175274.703125,168989.125,159033.65625,198969.78125,161027.078125,163145.65625,687024.25,158979.828125,-0.068115234375,1.00439453125,-0.133056640625,-2.532958745956421,-0.6713866591453552,0.2746581733226776,100.0,207190.0,1.0
15:42:21.317418,175284.09375,169001.640625,159041.96875,198954.5,161032.171875,163158.265625,687042.9375,158967.3125,-0.0693359375,1.003173828125,-0.1318359375,-2.563476324081421,-0.6103515028953552,0.3356933295726776,100.0,207191.0,1.0
15:42:21.317420,175232.859375,168995.203125,159037.671875,198958.34375,161030.46875,163150.578125,687062.875,158975.453125,-0.069580078125,1.004150390625,-0.133544921875,-2.593993902206421,-0.5798339247703552,0.4577636420726776,100.0,207192.0,1.0
15:42:21.319267,175206.578125,168980.09375,159027.84375,198975.0625,161025.28125,163134.390625,687105.6875,158986.453125,-0.0703125,1.0029296875,-0.13330078125,-2.655029058456421,-0.6103515028953552,0.5493163466453552,100.0,207193.0,1.0
15:42:21.324748,175264.78125,168993.40625,159037.234375,198974.171875,161031.625,163149.234375,687015.4375,158984.390625,-0.068115234375,1.00146484375,-0.133544921875,-2.746581792831421,-0.5493163466453552,0.5798339247703552,100.0,207194.0,1.0
15:42:21.324755,175300.8125,169008.25,159047.6875,198967.28125,161037.0,163163.625,687040.875,158976.609375,-0.068603515625,0.9990234375,-0.134521484375,-2.746581792831421,-0.4577636420726776,0.5187987685203552,100.0,207195.0,1.0
15:42:21.327249,175242.953125,169004.3125,159043.390625,198963.265625,161034.84375,163159.703125,687047.75,158980.1875,-0.068115234375,0.99853515625,-0.131591796875,-2.746581792831421,-0.4577636420726776,0.4882812201976776,100.0,207196.0,1.0
15:42:21.327254,175206.65625,168980.0,159025.25,198974.609375,161023.21875,163134.9375,687119.8125,158987.78125,-0.069580078125,0.997314453125,-0.1337890625,-2.624511480331421,-0.4272460639476776,0.3356933295726776,100.0,207197.0,1.0
15:42:21.337897,175243.671875,168987.875,159029.1875,198970.953125,161023.9375,163143.6875,687014.9375,158979.375,-0.0693359375,0.997314453125,-0.133056640625,-2.655029058456421,-0.3967284858226776,0.3051757514476776,100.0,207198.0,1.0
15:42:21.342945,175308.140625,169007.359375,159044.921875,198967.375,161033.59375,163163.1875,687049.3125,158972.765625,-0.069580078125,0.99755859375,-0.1337890625,-2.593993902206421,-0.2746581733226776,0.3356933295726776,100.0,207199.0,1.0
15:42:21.345409,175251.984375,169009.421875,159043.9375,198955.125,161031.359375,163164.34375,687033.5,158969.1875,-0.0693359375,0.998046875,-0.13330078125,-2.655029058456421,-0.3051757514476776,0.2136230319738388,100.0,207200.0,1.0
15:42:21.348772,175216.578125,168987.25,159029.0,198966.5625,161024.203125,163141.453125,687119.3125,158978.9375,-0.069580078125,0.995849609375,-0.134765625,-2.593993902206421,-0.1525878757238388,0.1831054538488388,100.0,207201.0,1.0
15:42:21.348793,175230.4375,168988.9375,159030.53125,198971.9375,161024.5625,163145.21875,687023.0,158981.34375,-0.069091796875,0.994873046875,-0.132080078125,-2.502441167831421,-0.1831054538488388,0.2441406100988388,100.0,207202.0,1.0
15:42:21.350397,175306.078125,169003.875,159041.875,198971.65625,161032.25,163159.609375,687032.1875,158978.40625,-0.066650390625,0.996826171875,-0.1328125,-2.502441167831421,-0.1831054538488388,0.1831054538488388,100.0,207203.0,1.0
15:42:21.352898,175254.578125,169007.71875,159041.25,198951.640625,161029.3125,163163.359375,687022.0,158968.125,-0.066162109375,0.996337890625,-0.13232421875,-2.441406011581421,-0.0610351525247097,0.1525878757238388,100.0,207204.0,1.0
15:42:21.355989,175215.6875,168983.578125,159024.625,198962.625,161018.484375,163138.15625,687109.75,158976.078125,-0.06787109375,0.99560546875,-0.13134765625,-2.441406011581421,0.03051757626235485,0.1525878757238388,100.0,207205.0,1.0
