Timestamp,Fz,FC3,FCz,FC4,Cz,C3,C4
15:36:56.076491,176770.921875,170917.453125,162527.40625,204701.578125,165982.8125,163272.4375,685790.5625,161321.84375,-0.08056640625,1.000244140625,-0.17041015625,0.2441406100988388,-0.3967284858226776,0.6713866591453552,100.0,125838.0,1.0
15:36:56.079476,176742.84375,170896.0,162513.46875,204715.34375,165976.109375,163251.703125,685833.0,161332.65625,-0.080078125,1.00244140625,-0.17236328125,0.03051757626235485,-0.3662109076976776,0.7019042372703552,100.0,125839.0,1.0
15:36:56.079503,176777.265625,170905.109375,162520.4375,204715.796875,165980.75,163263.046875,685798.5625,161329.890625,-0.08154296875,1.0029296875,-0.171875,-0.1831054538488388,-0.3967284858226776,0.7934569716453552,100.0,125840.0,1.0
15:36:56.085153,176817.59375,170920.3125,162533.21875,204715.703125,165989.34375,163277.625,685823.875,161324.53125,-0.083251953125,1.001220703125,-0.170654296875,-0.3356933295726776,-0.3051757514476776,0.7324218153953552,100.0,125841.0,1.0
15:36:56.098245,176771.8125,170915.390625,162527.40625,204695.234375,165984.859375,163271.90625,685801.0,161319.25,-0.083251953125,1.00244140625,-0.171875,-0.6103515028953552,-0.3356933295726776,0.6408690810203552,100.0,125842.0,1.0
15:36:56.098256,176736.59375,170886.421875,162505.140625,204701.390625,165969.84375,163239.796875,685887.375,161322.46875,-0.083984375,1.005126953125,-0.171630859375,-0.8239745497703552,-0.4577636420726776,0.5798339247703552,100.0,125843.0,1.0
15:36:56.100741,176755.015625,170893.671875,162509.4375,204706.40625,165972.703125,163248.75,685820.125,161323.09375,-0.08251953125,1.00341796875,-0.17138671875,-1.0375975370407104,-0.5187987685203552,0.5493163466453552,100.0,125844.0,1.0
15:36:56.100767,176810.796875,170908.953125,162523.03125,204709.71875,165981.828125,163265.734375,685843.8125,161318.09375,-0.082763671875,1.005126953125,-0.1728515625,-1.3427733182907104,-0.4577636420726776,0.4577636420726776,100.0,125845.0,1.0
15:36:56.102640,176774.765625,170912.984375,162524.734375,204687.1875,165982.09375,163269.75,685816.375,161311.46875,-0.082763671875,1.003173828125,-0.173583984375,-1.5258787870407104,-0.4882812201976776,0.5493163466453552,100.0,125846.0,1.0
15:36:56.115167,176745.265625,170890.71875,162510.0625,204703.90625,165973.609375,163245.265625,685817.5625,161323.1875,-0.08154296875,1.003662109375,-0.173583984375,-1.7700194120407104,-0.6408690810203552,0.5187987685203552,100.0,125847.0,1.0
15:36:56.118378,176742.046875,170886.609375,162503.984375,204700.765625,165968.421875,163242.671875,685807.3125,161319.078125,-0.081298828125,1.0029296875,-0.1767578125,-1.9836424589157104,-0.6103515028953552,0.4882812201976776,100.0,125848.0,1.0
15:36:56.118386,176810.625,170904.484375,162521.421875,204712.390625,165982.09375,163262.78125,685832.125,161323.640625,-0.081298828125,1.00244140625,-0.17578125,-2.136230230331421,-0.6103515028953552,0.5187987685203552,100.0,125849.0,1.0
15:36:56.120191,176781.296875,170913.34375,162526.609375,204685.75,165986.125,163272.265625,685817.875,161314.25,-0.078857421875,1.000732421875,-0.173095703125,-2.258300542831421,-0.5187987685203552,0.5187987685203552,100.0,125850.0,1.0
15:36:56.127615,176744.734375,170889.90625,162510.953125,204689.78125,165976.90625,163248.203125,685834.1875,161317.828125,-0.0791015625,0.999755859375,-0.1748046875,-2.258300542831421,-0.5493163466453552,0.4577636420726776,100.0,125851.0,1.0
15:36:56.136333,176732.484375,170881.6875,162504.703125,204697.28125,165971.90625,163241.6875,685819.25,161320.859375,-0.078369140625,0.99755859375,-0.17822265625,-2.258300542831421,-0.4577636420726776,0.4272460639476776,100.0,125852.0,1.0
15:36:56.136404,176803.296875,170901.71875,162521.859375,204709.0,165986.203125,163261.890625,685813.75,161324.171875,-0.0771484375,0.996826171875,-0.175537109375,-2.471923589706421,-0.4577636420726776,0.6408690810203552,100.0,125853.0,1.0
15:36:56.138266,176791.40625,170914.140625,162528.84375,204687.625,165989.6875,163272.4375,685820.0625,161310.484375,-0.078125,0.996337890625,-0.171875,-2.532958745956421,-0.4577636420726776,0.6408690810203552,100.0,125854.0,1.0
15:36:56.138331,176758.140625,170901.0,162520.796875,204693.265625,165986.203125,163255.453125,685792.875,161320.234375,-0.076416015625,0.99658203125,-0.17529296875,-2.563476324081421,-0.3662109076976776,0.5187987685203552,100.0,125855.0,1.0
15:36:56.144027,176739.1875,170890.359375,162512.296875,204702.46875,165980.75,163244.71875,685828.8125,161324.265625,-0.0771484375,0.993408203125,-0.17431640625,-2.563476324081421,-0.2746581733226776,0.5798339247703552,100.0,125856.0,1.0
15:36:56.157016,176802.3125,170906.546875,162526.609375,204711.953125,165991.9375,163263.3125,685818.6875,161324.96875,-0.0751953125,0.990234375,-0.174072265625,-2.563476324081421,-0.1220703050494194,0.5798339247703552,100.0,125857.0,1.0
15:36:56.157026,176815.0,170927.109375,162543.765625,204708.8125,166004.0,163283.4375,685838.8125,161324.265625,-0.073486328125,0.98828125,-0.177490234375,-2.380370855331421,-0.1220703050494194,0.6713866591453552,100.0,125858.0,1.0
15:36:56.159473,176774.953125,170916.109375,162533.75,204699.875,165997.46875,163270.734375,685788.75,161326.578125,-0.07666015625,0.988037109375,-0.177001953125,-2.166747808456421,-0.03051757626235485,0.7019042372703552,100.0,125859.0,1.0
15:36:56.159476,176737.671875,170890.625,162510.0625,204696.390625,165978.421875,163244.90625,685818.4375,161318.71875,-0.077880859375,0.987060546875,-0.17578125,-2.136230230331421,0.1220703050494194,0.7629393935203552,100.0,125860.0,1.0
15:36:56.161690,176785.59375,170900.015625,162518.296875,204702.734375,165983.4375,163255.890625,685803.6875,161318.0,-0.076416015625,0.986572265625,-0.176025390625,-2.014159917831421,0.1831054538488388,0.7324218153953552,100.0,125861.0,1.0
15:36:56.167716,176813.390625,170918.4375,162531.515625,204700.140625,165993.0,163273.78125,685843.75,161314.515625,-0.077392578125,0.987548828125,-0.176025390625,-1.8920897245407104,0.2441406100988388,0.7629393935203552,100.0,125862.0,1.0
15:36:56.180206,176770.125,170914.328125,162527.140625,204688.609375,165990.59375,163267.78125,685791.9375,161316.21875,-0.077880859375,0.98583984375,-0.17724609375,-1.7089842557907104,0.3051757514476776,0.7629393935203552,100.0,125863.0,1.0
15:36:56.183305,176738.734375,170890.1875,162509.703125,204702.296875,165980.3125,163244.71875,685806.875,161322.828125,-0.07861328125,0.9853515625,-0.174560546875,-1.5258787870407104,0.3967284858226776,0.7629393935203552,100.0,125864.0,1.0
15:36:56.183376,176769.046875,170894.296875,162511.9375,204703.8125,165980.21875,163252.140625,685779.875,161320.6875,-0.079833984375,0.984619140625,-0.177001953125,-1.3122557401657104,0.3662109076976776,0.6713866591453552,100.0,125865.0,1.0
15:36:56.185303,176817.328125,170914.859375,162528.390625,204706.859375,165992.734375,163272.4375,685829.4375,161320.5,-0.07763671875,0.986328125,-0.17529296875,-1.1901854276657104,0.3662109076976776,0.6408690810203552,100.0,125866.0,1.0
15:36:56.187786,176774.765625,170917.09375,162526.96875,204683.15625,165991.03125,163273.25,685802.625,161313.984375,-0.078857421875,0.985595703125,-0.177001953125,-1.0681151151657104,0.3967284858226776,0.5798339247703552,100.0,125867.0,1.0
15:36:56.201561,176747.859375,170897.328125,162514.171875,204701.390625,165985.140625,163251.703125,685837.0,161326.5,-0.08056640625,0.98681640625,-0.175048828125,-1.0070799589157104,0.4577636420726776,0.5187987685203552,100.0,125868.0,1.0
15:36:56.204623,176761.453125,170896.53125,162512.921875,204702.5625,165982.359375,163253.484375,685814.5625,161324.796875,-0.079833984375,0.986572265625,-0.1748046875,-0.8544921278953552,0.4882812201976776,0.5187987685203552,100.0,125869.0,1.0
15:36:56.204643,176816.96875,170909.9375,162523.75,204704.890625,165988.890625,163266.890625,685857.6875,161318.1875,-0.078125,0.985107421875,-0.173583984375,-0.7019042372703552,0.4272460639476776,0.5798339247703552,100.0,125870.0,1.0
15:36:56.204648,176782.453125,170918.171875,162527.3125,204683.25,165989.78125,163273.328125,685829.25,161311.390625,-0.078125,0.987548828125,-0.17529296875,-0.5493163466453552,0.5187987685203552,0.6408690810203552,100.0,125871.0,1.0
15:36:56.206608,176750.453125,170894.5625,162511.40625,204696.03125,165980.75,163247.5,685823.6875,161322.03125,-0.078857421875,0.989990234375,-0.1767578125,-0.5493163466453552,0.4882812201976776,0.6408690810203552,100.0,125872.0,1.0
15:36:56.212654,176748.125,170889.90625,162506.578125,204694.875,165976.1875,163244.28125,685820.3125,161320.328125,-0.08056640625,0.990966796875,-0.177734375,-0.4882812201976776,0.4272460639476776,0.6408690810203552,100.0,125873.0,1.0
15:36:56.225707,176808.828125,170900.734375,162516.140625,204697.546875,165981.734375,163255.0,685833.1875,161314.15625,-0.080810546875,0.991455078125,-0.180419921875,-0.4882812201976776,0.5493163466453552,0.7019042372703552,100.0,125874.0,1.0
15:36:56.225714,176788.09375,170915.296875,162527.3125,204681.28125,165989.96875,163268.859375,685837.1875,161311.203125,-0.080078125,0.9931640625,-0.177978515625,-0.4272460639476776,0.5493163466453552,0.6408690810203552,100.0,125875.0,1.0
15:36:56.228222,176761.0,170901.984375,162520.53125,204694.953125,165989.34375,163254.734375,685788.9375,161325.6875,-0.081298828125,0.992919921875,-0.177734375,-0.5187987685203552,0.4882812201976776,0.6103515028953552,100.0,125876.0,1.0
15:36:56.228227,176743.65625,170889.5625,162510.875,204702.375,165982.359375,163245.265625,685808.4375,161328.8125,-0.080322265625,0.992431640625,-0.17822265625,-0.4882812201976776,0.4272460639476776,0.6713866591453552,100.0,125877.0,1.0
15:36:56.230160,176815.890625,170909.84375,162529.5625,204718.46875,165997.296875,163266.890625,685830.5625,161336.234375,-0.080078125,0.992431640625,-0.17919921875,-0.3662109076976776,0.3662109076976776,0.6103515028953552,100.0,125878.0,1.0
15:36:56.235180,176800.25,170918.96875,162531.25,204681.1875,165995.0625,163275.5625,685853.625,161310.140625,-0.0810546875,0.990478515625,-0.18017578125,-0.3967284858226776,0.3662109076976776,0.6103515028953552,100.0,125879.0,1.0
15:36:56.241638,176758.9375,170901.09375,162518.015625,204680.65625,165987.28125,163254.734375,685793.1875,161316.390625,-0.081787109375,0.991943359375,-0.17724609375,-0.4577636420726776,0.3356933295726776,0.5187987685203552,100.0,125880.0,1.0
15:36:56.245853,176737.390625,170886.515625,162506.84375,204691.03125,165979.59375,163239.265625,685815.3125,161321.125,-0.08251953125,0.993896484375,-0.178955078125,-0.4882812201976776,0.3051757514476776,0.6713866591453552,100.0,125881.0,1.0
15:36:56.245865,176794.53125,170897.515625,162515.609375,204697.015625,165985.84375,163254.375,685816.375,161319.796875,-0.082763671875,0.995361328125,-0.179443359375,-0.4882812201976776,0.2136230319738388,0.5798339247703552,100.0,125882.0,1.0
15:36:56.257673,176803.375,170912.71875,162528.125,204688.171875,165994.171875,163271.09375,685857.4375,161318.625,-0.085693359375,0.9931640625,-0.1806640625,-0.6408690810203552,0.1525878757238388,0.4882812201976776,100.0,125883.0,1.0
15:36:56.260707,176767.34375,170906.984375,162524.90625,204687.265625,165993.09375,163263.671875,685816.625,161329.0,-0.087158203125,0.992431640625,-0.17919921875,-0.6713866591453552,0.03051757626235485,0.4577636420726776,100.0,125884.0,1.0
15:36:56.260713,176736.328125,170884.734375,162506.578125,204694.15625,165980.3125,163240.96875,685804.0625,161324.796875,-0.08740234375,0.98828125,-0.180908203125,-0.7324218153953552,-0.0610351525247097,0.1831054538488388,100.0,125885.0,1.0
15:36:56.262634,176790.0625,170900.1875,162519.359375,204705.25,165989.96875,163256.96875,685831.5,161328.015625,-0.088134765625,0.989501953125,-0.181884765625,-0.7019042372703552,-0.1220703050494194,0.2746581733226776,100.0,125886.0,1.0
15:36:56.265180,176810.53125,170910.03125,162523.828125,204688.34375,165989.25,163265.28125,685881.125,161312.8125,-0.08642578125,0.9921875,-0.1806640625,-0.6103515028953552,-0.2746581733226776,0.1525878757238388,100.0,125887.0,1.0
15:36:56.278931,176765.296875,170902.703125,162516.5,204672.4375,165983.25,163256.171875,685853.9375,161310.046875,-0.086181640625,0.994384765625,-0.177734375,-0.6103515028953552,-0.2441406100988388,0.0610351525247097,100.0,125888.0,1.0
15:36:56.281998,176736.140625,170880.25,162502.375,204687.984375,165974.578125,163233.09375,685801.0,161320.5,-0.086669921875,0.994140625,-0.178955078125,-0.5493163466453552,-0.3356933295726776,0.1220703050494194,100.0,125889.0,1.0
15:36:56.282003,176770.65625,170888.125,162508.359375,204691.296875,165977.890625,163242.390625,685836.125,161321.125,-0.085693359375,0.99609375,-0.184814453125,-0.6103515028953552,-0.4272460639476776,0.1831054538488388,100.0,125890.0,1.0
15:36:56.283862,176816.25,170902.609375,162519.8125,204686.734375,165985.046875,163257.59375,685888.875,161313.53125,-0.0830078125,0.99658203125,-0.183837890625,-0.6713866591453552,-0.4577636420726776,0.3356933295726776,100.0,125891.0,1.0
15:36:56.286359,176775.84375,170901.890625,162517.578125,204670.1875,165982.625,163257.421875,685881.5625,161313.078125,-0.082275390625,0.995849609375,-0.180908203125,-0.6103515028953552,-0.4882812201976776,0.3051757514476776,100.0,125892.0,1.0
15:36:56.290346,176745.359375,170880.34375,162502.90625,204684.953125,165976.8125,163236.859375,685802.8125,161328.90625,-0.081298828125,0.995849609375,-0.180419921875,-0.6713866591453552,-0.5493163466453552,0.3356933295726776,100.0,125893.0,1.0
15:36:56.320398,176757.875,170887.59375,162503.8125,204679.40625,165977.171875,163246.0625,685825.25,161314.15625,-0.081787109375,0.99609375,-0.1787109375,-0.7324218153953552,-0.6713866591453552,0.3662109076976776,100.0,125894.0,1.0
15:36:56.320419,176822.15625,170909.40625,162521.234375,204689.6875,165989.96875,163266.890625,685867.125,161313.984375,-0.0830078125,0.997314453125,-0.178955078125,-0.7629393935203552,-0.6103515028953552,0.5187987685203552,100.0,125895.0,1.0
15:36:56.320423,176790.0625,170917.890625,162526.875,204674.578125,165993.890625,163275.75,685893.0625,161315.671875,-0.080322265625,0.99609375,-0.1796875,-0.8850097060203552,-0.6408690810203552,0.4577636420726776,100.0,125896.0,1.0
15:36:56.320425,176755.453125,170893.484375,162511.234375,204693.34375,165985.671875,163249.1875,685816.75,161330.875,-0.081787109375,0.99658203125,-0.181640625,-0.9155272841453552,-0.6713866591453552,0.6103515028953552,100.0,125897.0,1.0
15:36:56.320428,176743.5625,170880.609375,162499.515625,204686.921875,165974.5,163238.734375,685817.6875,161324.4375,-0.079833984375,0.99609375,-0.180908203125,-0.9460448622703552,-0.7629393935203552,0.6408690810203552,100.0,125898.0,1.0
15:36:56.323285,176807.140625,170893.40625,162509.265625,204683.515625,165980.3125,163252.40625,685849.625,161311.75,-0.08203125,0.9970703125,-0.183837890625,-0.9460448622703552,-0.7629393935203552,0.6103515028953552,100.0,125899.0,1.0
15:36:56.323302,176783.265625,170905.015625,162514.625,204661.34375,165982.8125,163263.3125,685873.0625,161303.25,-0.081787109375,0.997314453125,-0.18017578125,-0.9765624403953552,-0.7019042372703552,0.6713866591453552,100.0,125900.0,1.0
15:36:56.323305,176746.78125,170885.890625,162500.40625,204668.9375,165975.75,163242.484375,685797.5,161312.546875,-0.0810546875,0.996826171875,-0.17919921875,-1.0375975370407104,-0.6408690810203552,0.6408690810203552,100.0,125901.0,1.0
15:36:56.325223,176732.65625,170880.53125,162496.109375,204678.421875,165973.875,163239.984375,685801.25,161322.03125,-0.081787109375,0.9951171875,-0.1787109375,-1.0375975370407104,-0.6408690810203552,0.7934569716453552,100.0,125902.0,1.0
15:36:56.331702,176803.296875,170899.5625,162513.375,204690.84375,165988.171875,163260.640625,685826.125,161326.046875,-0.08251953125,0.9951171875,-0.17822265625,-1.2817381620407104,-0.4577636420726776,0.7019042372703552,100.0,125903.0,1.0
15:36:56.337811,176791.3125,170907.4375,162517.75,204668.234375,165989.34375,163267.96875,685843.0,161311.5625,-0.082763671875,0.994384765625,-0.17919921875,-1.3732908964157104,-0.4882812201976776,0.7019042372703552,100.0,125904.0,1.0
15:36:56.348201,176753.21875,170895.09375,162506.9375,204661.796875,165983.4375,163251.96875,685795.8125,161312.8125,-0.081298828125,0.9931640625,-0.177978515625,-1.4648436307907104,-0.4577636420726776,0.6103515028953552,100.0,125905.0,1.0
15:36:56.348214,176734.71875,170887.859375,162500.5,204673.953125,165980.75,163244.90625,685820.75,161319.875,-0.081787109375,0.994873046875,-0.177978515625,-1.4648436307907104,-0.5493163466453552,0.5493163466453552,100.0,125906.0,1.0
15:36:56.355057,176790.59375,170898.140625,162508.453125,204679.40625,165985.140625,163256.96875,685809.75,161315.765625,-0.08154296875,0.996337890625,-0.17822265625,-1.4648436307907104,-0.5187987685203552,0.5493163466453552,100.0,125907.0,1.0
15:36:56.355066,176799.09375,170909.21875,162519.1875,204674.75,165990.140625,163268.6875,685822.1875,161313.265625,-0.08203125,0.995361328125,-0.177001953125,-1.6174315214157104,-0.5187987685203552,0.5798339247703552,100.0,125908.0,1.0
15:36:56.366985,176756.171875,170900.90625,162513.1875,204667.15625,165989.34375,163260.1875,685827.25,161319.96875,-0.080078125,0.992431640625,-0.17822265625,-1.5869139432907104,-0.5493163466453552,0.5493163466453552,100.0,125909.0,1.0
15:36:56.367001,176719.875,170878.921875,162493.875,204664.03125,165976.8125,163239.0,685865.8125,161313.078125,-0.078369140625,0.992431640625,-0.17822265625,-1.5869139432907104,-0.4272460639476776,0.5798339247703552,100.0,125910.0,1.0
15:36:56.369561,176777.625,170896.34375,162505.140625,204676.8125,165981.203125,163253.03125,685791.0625,161315.3125,-0.07763671875,0.9921875,-0.17822265625,-1.6174315214157104,-0.2746581733226776,0.4882812201976776,100.0,125911.0,1.0
15:36:56.369568,176808.921875,170913.421875,162517.578125,204671.890625,165989.0625,163269.484375,685814.875,161310.84375,-0.078857421875,0.99169921875,-0.1806640625,-1.6174315214157104,-0.2441406100988388,0.4272460639476776,100.0,125912.0,1.0
15:36:56.377084,176768.421875,170912.359375,162519.1875,204665.015625,165992.828125,163268.421875,685813.6875,161320.234375,-0.07861328125,0.9931640625,-0.18115234375,-1.7089842557907104,-0.1220703050494194,0.4577636420726776,100.0,125913.0,1.0
15:36:56.377093,176733.828125,170885.890625,162498.796875,204669.21875,165977.0,163240.078125,685871.8125,161314.96875,-0.077392578125,0.992431640625,-0.1787109375,-1.6174315214157104,-0.1831054538488388,0.5493163466453552,100.0,125914.0,1.0
15:36:56.390219,176759.296875,170888.484375,162500.5,204669.84375,165975.484375,163245.703125,685770.125,161311.203125,-0.076416015625,0.992431640625,-0.176513671875,-1.6174315214157104,-0.0610351525247097,0.4577636420726776,100.0,125915.0,1.0
15:36:56.393355,176808.921875,170905.375,162517.125,204675.203125,165988.078125,163262.328125,685816.0,161312.8125,-0.07861328125,0.99072265625,-0.176025390625,-1.6174315214157104,-0.0915527269244194,0.3662109076976776,100.0,125916.0,1.0
15:36:56.393364,176776.921875,170914.234375,162524.546875,204662.0625,165995.78125,163270.03125,685798.875,161315.671875,-0.0791015625,0.9931640625,-0.180419921875,-1.5563963651657104,0.1220703050494194,0.3662109076976776,100.0,125917.0,1.0
15:36:56.399556,176742.578125,170889.640625,162507.5625,204674.3125,165985.84375,163245.171875,685890.25,161321.3125,-0.07958984375,0.992919921875,-0.1787109375,-1.5869139432907104,0.1831054538488388,0.3662109076976776,100.0,125918.0,1.0
15:36:56.399570,176757.6875,170895.71875,162512.484375,204682.09375,165990.671875,163253.390625,685763.0625,161329.4375,-0.080322265625,0.995849609375,-0.180908203125,-1.5869139432907104,0.1831054538488388,0.4577636420726776,100.0,125919.0,1.0
15:36:56.405751,176819.921875,170915.75,162529.015625,204688.875,166003.1875,163273.953125,685780.875,161332.03125,-0.078857421875,0.992919921875,-0.179443359375,-1.5869139432907104,0.3051757514476776,0.2746581733226776,100.0,125920.0,1.0
15:36:56.405755,176781.296875,170918.703125,162527.234375,204662.6875,165999.34375,163275.5625,685799.1875,161316.390625,-0.0810546875,0.9921875,-0.17626953125,-1.5869139432907104,0.3662109076976776,0.3051757514476776,100.0,125921.0,1.0
15:36:56.411948,176746.78125,170892.234375,162509.625,204677.4375,165988.890625,163246.421875,685922.125,161326.765625,-0.083251953125,0.99169921875,-0.174072265625,-1.5563963651657104,0.3662109076976776,0.3967284858226776,100.0,125922.0,1.0
15:36:56.411975,176742.9375,170889.203125,162505.421875,204683.15625,165986.65625,163246.15625,685746.875,161326.9375,-0.082763671875,0.99462890625,-0.174072265625,-1.5869139432907104,0.4272460639476776,0.5187987685203552,100.0,125923.0,1.0
15:36:56.417609,176808.75,170905.109375,162518.734375,204683.421875,165996.484375,163263.765625,685764.0,161321.75,-0.083740234375,0.993896484375,-0.1787109375,-1.5869139432907104,0.4272460639476776,0.5798339247703552,100.0,125924.0,1.0
15:36:56.433238,176782.09375,170913.421875,162523.203125,204658.03125,165998.015625,163271.09375,685781.75,161310.9375,-0.082275390625,0.9931640625,-0.176513671875,-1.5563963651657104,0.5493163466453552,0.5798339247703552,100.0,125925.0,1.0
15:36:56.433249,176751.078125,170896.890625,162513.375,204670.828125,165993.984375,163251.703125,685931.6875,161329.4375,-0.08251953125,0.99169921875,-0.173583984375,-1.5258787870407104,0.5187987685203552,0.7019042372703552,100.0,125926.0,1.0
15:36:56.435710,176746.0625,170896.53125,162514.171875,204683.34375,165996.40625,163251.609375,685780.6875,161336.6875,-0.08203125,0.990478515625,-0.177001953125,-1.5563963651657104,0.5493163466453552,0.7019042372703552,100.0,125927.0,1.0
15:36:56.435715,176813.125,170913.0625,162528.75,204695.40625,166006.6875,163268.328125,685772.0,161333.921875,-0.082763671875,0.989501953125,-0.17822265625,-1.5258787870407104,0.5493163466453552,0.7324218153953552,100.0,125928.0,1.0
15:36:56.446985,176802.671875,170923.625,162536.171875,204676.0,166009.8125,163278.421875,685784.25,161323.640625,-0.08251953125,0.99169921875,-0.1767578125,-1.5258787870407104,0.5187987685203552,0.7019042372703552,100.0,125929.0,1.0
15:36:56.446995,176766.1875,170911.8125,162526.78125,204672.703125,166005.4375,163265.640625,685933.6875,161330.078125,-0.083984375,0.9931640625,-0.17724609375,-1.5563963651657104,0.5493163466453552,0.7934569716453552,100.0,125930.0,1.0
15:36:56.452008,176743.828125,170898.046875,162514.53125,204684.40625,165995.953125,163251.96875,685836.5625,161335.53125,-0.08349609375,0.994140625,-0.1787109375,-1.4953612089157104,0.6103515028953552,0.8239745497703552,100.0,125931.0,1.0
15:36:56.452016,176797.484375,170905.828125,162520.609375,204687.0,165999.265625,163261.984375,685769.5,161331.234375,-0.086181640625,0.994140625,-0.180419921875,-1.4648436307907104,0.4882812201976776,0.7629393935203552,100.0,125932.0,1.0
15:36:56.454494,176810.078125,170920.765625,162533.9375,204680.296875,166010.171875,163276.8125,685781.5,161331.859375,-0.08544921875,0.99560546875,-0.177490234375,-1.4648436307907104,0.5493163466453552,0.7934569716453552,100.0,125933.0,1.0
15:36:56.454505,176764.40625,170907.609375,162522.046875,204663.84375,166000.421875,163262.15625,685880.375,161322.296875,-0.08447265625,0.994384765625,-0.17529296875,-1.5563963651657104,0.5187987685203552,0.7629393935203552,100.0,125934.0,1.0
15:36:56.461579,176741.328125,170893.9375,162512.203125,204681.015625,165995.6875,163247.84375,685885.9375,161332.125,-0.0830078125,0.99462890625,-0.175048828125,-1.5563963651657104,0.4577636420726776,0.8544921278953552,100.0,125935.0,1.0
15:36:56.473323,176788.984375,170906.71875,162522.765625,204690.21875,166003.109375,163263.046875,685766.1875,161335.703125,-0.080810546875,0.9970703125,-0.177490234375,-1.4953612089157104,0.5187987685203552,0.9460448622703552,100.0,125936.0,1.0
15:36:56.473343,176816.515625,170923.4375,162535.1875,204683.25,166011.515625,163279.40625,685785.8125,161331.765625,-0.0810546875,0.9970703125,-0.176513671875,-1.5258787870407104,0.6103515028953552,1.0070799589157104,100.0,125937.0,1.0
15:36:56.475167,176770.03125,170913.0625,162524.734375,204661.703125,166002.5625,163267.25,685828.5625,161325.515625,-0.081787109375,0.99609375,-0.176513671875,-1.5563963651657104,0.6103515028953552,0.9765624403953552,100.0,125938.0,1.0
15:36:56.477673,176744.8125,170896.53125,162512.296875,204678.6875,165995.328125,163248.828125,685902.5625,161331.59375,-0.080810546875,0.9970703125,-0.1767578125,-1.5258787870407104,0.5798339247703552,0.9155272841453552,100.0,125939.0,1.0
15:36:56.480179,176775.390625,170906.0,162518.375,204682.796875,165999.4375,163261.078125,685771.25,161330.25,-0.080078125,0.996337890625,-0.177490234375,-1.7089842557907104,0.7324218153953552,0.9155272841453552,100.0,125940.0,1.0
15:36:56.491474,176818.765625,170920.3125,162530.359375,204681.734375,166007.9375,163276.546875,685795.75,161324.171875,-0.077880859375,0.9970703125,-0.18017578125,-1.8005369901657104,0.7934569716453552,0.9765624403953552,100.0,125941.0,1.0
15:36:56.494573,176779.59375,170923.265625,162531.703125,204663.578125,166009.359375,163280.03125,685803.5,161321.3125,-0.0771484375,0.997314453125,-0.17919921875,-1.7700194120407104,0.7934569716453552,0.9460448622703552,100.0,125942.0,1.0
15:36:56.494590,176751.703125,170902.78125,162518.375,204679.765625,166003.28125,163257.953125,685910.5,161333.375,-0.07666015625,0.997314453125,-0.1796875,-1.8005369901657104,0.8544921278953552,1.0681151151657104,100.0,125943.0,1.0
15:36:56.496737,176760.640625,170902.609375,162516.0625,204676.984375,166000.328125,163259.03125,685778.9375,161327.84375,-0.077880859375,0.99755859375,-0.18115234375,-1.8005369901657104,0.8850097060203552,1.1291502714157104,100.0,125944.0,1.0
15:36:56.500165,176810.171875,170908.15625,162519.625,204672.875,165999.796875,163263.859375,685803.3125,161315.859375,-0.07861328125,0.997314453125,-0.1796875,-1.8920897245407104,0.9765624403953552,1.0070799589157104,100.0,125945.0,1.0
15:36:56.512669,176775.65625,170914.234375,162523.390625,204652.765625,166001.140625,163269.125,685778.3125,161311.296875,-0.0771484375,0.99755859375,-0.1787109375,-1.9226073026657104,1.0070799589157104,0.9460448622703552,100.0,125946.0,1.0
15:36:56.512695,176748.84375,170895.90625,162511.3125,204668.40625,165996.671875,163249.1875,685893.6875,161325.421875,-0.076904296875,0.9951171875,-0.178466796875,-2.044677495956421,1.0681151151657104,0.8850097060203552,100.0,125947.0,1.0
15:36:56.514509,176749.921875,170895.640625,162510.953125,204676.71875,165996.9375,163252.140625,685795.875,161330.703125,-0.078125,0.99609375,-0.180908203125,-2.075195074081421,1.0986326932907104,0.9460448622703552,100.0,125948.0,1.0
15:36:56.514531,176817.0625,170911.90625,162526.0625,204681.28125,166008.203125,163270.375,685818.3125,161328.015625,-0.076416015625,0.994140625,-0.177978515625,-2.014159917831421,1.1596678495407104,0.8239745497703552,100.0,125949.0,1.0
15:36:56.527734,176794.4375,170924.515625,162533.84375,204661.4375,166013.390625,163282.8125,685794.1875,161322.203125,-0.07568359375,0.994140625,-0.177490234375,-2.075195074081421,1.3122557401657104,0.8850097060203552,100.0,125950.0,1.0
15:36:56.530759,176760.546875,170904.9375,162519.625,204670.375,166005.875,163260.375,685886.8125,161330.78125,-0.0751953125,0.9970703125,-0.1796875,-1.9836424589157104,1.3122557401657104,0.8850097060203552,100.0,125951.0,1.0
15:36:56.530804,176743.484375,170894.109375,162509.890625,204674.75,165997.390625,163250.171875,685828.8125,161331.40625,-0.074462890625,0.994384765625,-0.1826171875,-2.014159917831421,1.3732908964157104,0.9460448622703552,100.0,125952.0,1.0
15:36:56.532682,176810.0,170910.203125,162524.453125,204683.96875,166007.21875,163266.453125,685795.75,161332.125,-0.074462890625,0.99365234375,-0.1806640625,-2.105712652206421,1.5258787870407104,0.9765624403953552,100.0,125953.0,1.0
15:36:56.536474,176795.6875,170917.8125,162528.03125,204662.6875,166007.125,163274.9375,685784.5625,161322.203125,-0.077392578125,0.992431640625,-0.17919921875,-2.105712652206421,1.4953612089157104,0.9155272841453552,100.0,125954.0,1.0
15:36:56.544459,176756.078125,170900.015625,162515.078125,204663.046875,165999.265625,163255.453125,685868.4375,161329.0,-0.076416015625,0.991943359375,-0.182373046875,-2.044677495956421,1.4953612089157104,0.7019042372703552,100.0,125955.0,1.0
15:36:56.544485,176734.453125,170886.15625,162503.890625,204672.4375,165990.59375,163240.4375,685843.625,161330.25,-0.076904296875,0.9912109375,-0.180908203125,-2.075195074081421,1.5869139432907104,0.8850097060203552,100.0,125956.0,1.0
15:36:56.548928,176801.6875,170907.703125,162523.296875,204689.78125,166004.625,163263.046875,685791.6875,161337.84375,-0.07666015625,0.990478515625,-0.1787109375,-2.044677495956421,1.7395018339157104,0.8544921278953552,100.0,125957.0,1.0
15:36:56.558294,176810.0,170921.203125,162531.515625,204670.109375,166008.203125,163277.171875,685800.8125,161323.1875,-0.077880859375,0.989990234375,-0.176513671875,-2.044677495956421,1.7089842557907104,0.8544921278953552,100.0,125958.0,1.0
15:36:56.558320,176772.796875,170913.875,162527.671875,204669.65625,166008.203125,163269.390625,685836.875,161335.34375,-0.077880859375,0.990234375,-0.17529296875,-1.8920897245407104,1.7089842557907104,0.8239745497703552,100.0,125959.0,1.0
15:36:56.560130,176745.890625,170894.65625,162512.203125,204679.40625,165998.453125,163249.1875,685870.625,161340.359375,-0.078369140625,0.991455078125,-0.179443359375,-1.9226073026657104,1.8310545682907104,0.7629393935203552,100.0,125960.0,1.0
15:36:56.567036,176790.421875,170907.25,162521.6875,204684.234375,166004.796875,163263.140625,685782.3125,161338.46875,-0.077880859375,0.991455078125,-0.178955078125,-2.014159917831421,1.9226073026657104,0.8544921278953552,100.0,125961.0,1.0
15:36:56.573291,176821.078125,170923.4375,162535.90625,204682.625,166013.921875,163277.984375,685803.3125,161332.75,-0.078369140625,0.992919921875,-0.179443359375,-2.014159917831421,1.9531248807907104,0.7629393935203552,100.0,125962.0,1.0
15:36:56.573311,176780.484375,170921.828125,162534.109375,204665.640625,166014.546875,163277.171875,685802.4375,161335.171875,-0.0771484375,0.99169921875,-0.181884765625,-1.9836424589157104,1.8920897245407104,0.7934569716453552,100.0,125963.0,1.0
15:36:56.585013,176752.953125,170901.796875,162519.8125,204679.671875,166006.859375,163257.6875,685882.4375,161343.84375,-0.076904296875,0.993896484375,-0.17919921875,-2.014159917831421,2.014159917831421,0.7934569716453552,100.0,125964.0,1.0
15:36:56.585041,176781.921875,170908.328125,162523.921875,204680.828125,166008.46875,163266.0,685781.9375,161340.359375,-0.075927734375,0.993896484375,-0.1787109375,-2.044677495956421,2.075195074081421,0.7934569716453552,100.0,125965.0,1.0
15:36:56.587315,176831.453125,170926.75,162539.484375,204687.546875,166020.546875,163283.703125,685810.9375,161342.859375,-0.07666015625,0.99365234375,-0.182373046875,-2.014159917831421,2.105712652206421,0.8544921278953552,100.0,125966.0,1.0
15:36:56.587342,176790.59375,170926.921875,162536.796875,204663.9375,166017.765625,163284.328125,685795.875,161333.015625,-0.07763671875,0.9951171875,-0.177734375,-2.105712652206421,2.105712652206421,0.9460448622703552,100.0,125967.0,1.0
15:36:56.588949,176757.6875,170902.15625,162516.953125,204669.75,166005.875,163258.9375,685880.3125,161335.25,-0.076171875,0.99609375,-0.175537109375,-2.105712652206421,2.014159917831421,0.9155272841453552,100.0,125968.0,1.0
15:36:56.601539,176773.15625,170911.546875,162523.65625,204680.390625,166011.6875,163270.65625,685795.1875,161342.3125,-0.076904296875,0.9970703125,-0.174072265625,-2.197265386581421,2.166747808456421,0.8850097060203552,100.0,125969.0,1.0
15:36:56.605321,176839.5,170935.234375,162546.0,204699.96875,166030.375,163296.125,685809.3125,161351.265625,-0.077392578125,1.0,-0.175537109375,-2.349853277206421,2.288818120956421,0.9460448622703552,100.0,125970.0,1.0
15:36:56.605345,176807.140625,170943.203125,162551.8125,204676.8125,166033.5,163304.453125,685795.1875,161347.6875,-0.079345703125,1.0009765625,-0.1767578125,-2.532958745956421,2.197265386581421,0.9765624403953552,100.0,125971.0,1.0
15:36:56.607675,176770.03125,170916.109375,162532.234375,204681.90625,166021.25,163274.671875,685881.75,161349.921875,-0.0791015625,1.000732421875,-0.17578125,-2.716064214706421,2.258300542831421,0.9460448622703552,100.0,125972.0,1.0
15:36:56.616478,176759.484375,170905.734375,162522.484375,204677.265625,166012.9375,163266.09375,685804.1875,161342.671875,-0.077880859375,1.00244140625,-0.176513671875,-2.868652105331421,2.319335699081421,0.9460448622703552,100.0,125973.0,1.0
15:36:56.623329,176832.609375,170926.75,162543.0625,204698.53125,166029.921875,163287.90625,685825.375,161355.90625,-0.07861328125,1.002197265625,-0.175537109375,-3.021239995956421,2.319335699081421,0.9765624403953552,100.0,125974.0,1.0
15:36:56.623343,176811.25,170939.4375,162551.109375,204680.390625,166033.953125,163298.359375,685796.5,161348.046875,-0.078369140625,1.00244140625,-0.17626953125,-3.143310308456421,2.380370855331421,0.9460448622703552,100.0,125975.0,1.0
15:36:56.625780,176771.015625,170916.90625,162531.078125,204669.921875,166019.203125,163273.328125,685831.8125,161339.90625,-0.077392578125,1.002197265625,-0.17578125,-3.143310308456421,2.349853277206421,0.9765624403953552,100.0,125976.0,1.0
15:36:56.625798,176759.03125,170910.03125,162526.421875,204682.71875,166016.25,163267.25,685818.8125,161351.625,-0.076904296875,1.0009765625,-0.177734375,-3.326415777206421,2.380370855331421,0.9765624403953552,100.0,125977.0,1.0
15:36:56.636579,176830.734375,170931.84375,162544.75,204697.203125,166031.265625,163290.859375,685805.0,161355.828125,-0.077392578125,1.0,-0.17724609375,-3.417968511581421,2.441406011581421,0.9765624403953552,100.0,125978.0,1.0
15:36:56.640754,176821.703125,170946.421875,162552.71875,204676.359375,166036.1875,163305.34375,685800.8125,161340.703125,-0.078369140625,0.997802734375,-0.177001953125,-3.509521245956421,2.502441167831421,1.0375975370407104,100.0,125979.0,1.0
15:36:56.640775,176791.671875,170935.953125,162548.953125,204686.203125,166036.71875,163292.90625,685837.1875,161361.359375,-0.076904296875,0.997314453125,-0.1767578125,-3.509521245956421,2.349853277206421,1.0375975370407104,100.0,125980.0,1.0
15:36:56.646555,176766.90625,170918.4375,162534.109375,204690.21875,166025.546875,163276.375,685841.6875,161362.078125,-0.077392578125,0.995849609375,-0.176025390625,-3.570556402206421,2.471923589706421,1.0375975370407104,100.0,125981.0,1.0
15:36:56.653354,176817.421875,170924.609375,162538.5,204690.765625,166026.0,163285.40625,685803.9375,161347.953125,-0.076416015625,0.994873046875,-0.17822265625,-3.570556402206421,2.441406011581421,1.0375975370407104,100.0,125982.0,1.0
15:36:56.653374,176829.84375,170941.5,162551.90625,204680.75,166036.0,163302.84375,685816.5625,161345.265625,-0.078369140625,0.993896484375,-0.177001953125,-3.601073980331421,2.471923589706421,1.0681151151657104,100.0,125983.0,1.0
15:36:56.667063,176788.0,170931.3125,162544.21875,204671.171875,166032.609375,163292.203125,685818.875,161350.359375,-0.078369140625,0.993896484375,-0.174072265625,-3.570556402206421,2.441406011581421,1.0681151151657104,100.0,125984.0,1.0
15:36:56.667073,176767.796875,170916.015625,162534.828125,204691.390625,166027.25,163275.75,685870.8125,161360.640625,-0.080810546875,0.99365234375,-0.18115234375,-3.601073980331421,2.502441167831421,1.0986326932907104,100.0,125985.0,1.0
15:36:56.668884,176815.8125,170928.53125,162544.9375,204696.390625,166033.140625,163290.046875,685801.625,161358.0625,-0.0810546875,0.99169921875,-0.1806640625,-3.570556402206421,2.380370855331421,1.1291502714157104,100.0,125986.0,1.0
15:36:56.672023,176841.5625,170944.09375,162555.484375,204684.765625,166040.296875,163305.609375,685826.9375,161347.328125,-0.080810546875,0.99169921875,-0.1796875,-3.662109136581421,2.349853277206421,1.0986326932907104,100.0,125987.0,1.0
15:36:56.672035,176802.3125,170944.890625,162554.765625,204675.015625,166040.75,163304.0,685788.75,161352.421875,-0.08203125,0.9912109375,-0.17724609375,-3.509521245956421,2.288818120956421,1.2512205839157104,100.0,125988.0,1.0
15:36:56.682660,176773.609375,170922.28125,162537.953125,204687.359375,166028.5,163278.609375,685845.4375,161359.21875,-0.0791015625,0.989990234375,-0.178955078125,-3.570556402206421,2.349853277206421,1.2512205839157104,100.0,125989.0,1.0
15:36:56.689628,176797.203125,170923.0,162537.328125,204684.671875,166025.546875,163281.5625,685791.875,161351.625,-0.07763671875,0.9892578125,-0.17822265625,-3.601073980331421,2.197265386581421,1.0986326932907104,100.0,125990.0,1.0
15:36:56.689637,176844.78125,170939.984375,162552.265625,204687.453125,166036.359375,163300.15625,685830.5,161348.671875,-0.078125,0.98681640625,-0.17626953125,-3.479003667831421,2.197265386581421,1.0986326932907104,100.0,125991.0,1.0
15:36:56.689639,176804.453125,170939.796875,162550.125,204668.140625,166033.765625,163299.4375,685796.0625,161345.265625,-0.077392578125,0.986083984375,-0.1806640625,-3.326415777206421,2.197265386581421,1.0986326932907104,100.0,125992.0,1.0
15:36:56.692665,176772.53125,170914.59375,162532.59375,204684.859375,166024.65625,163273.328125,685879.6875,161359.3125,-0.077392578125,0.984619140625,-0.177734375,-3.143310308456421,2.227782964706421,1.0986326932907104,100.0,125993.0,1.0
15:36:56.709860,176777.8125,170912.265625,162527.953125,204679.21875,166018.84375,163273.59375,685793.6875,161350.453125,-0.076904296875,0.984130859375,-0.1787109375,-3.204345464706421,2.258300542831421,1.1291502714157104,100.0,125994.0,1.0
15:36:56.709945,176843.34375,170934.609375,162546.90625,204688.796875,166033.140625,163296.3125,685819.875,161348.84375,-0.07470703125,0.9814453125,-0.180908203125,-2.990722417831421,2.258300542831421,1.4038084745407104,100.0,125995.0,1.0
15:36:56.712004,176813.75,170947.3125,162555.125,204666.796875,166039.859375,163308.921875,685797.75,161345.265625,-0.076416015625,0.980712890625,-0.1806640625,-2.929687261581421,2.197265386581421,1.5563963651657104,100.0,125996.0,1.0
15:36:56.712032,176777.359375,170921.03125,162535.09375,204673.59375,166026.796875,163280.3125,685895.0625,161351.34375,-0.076171875,0.982177734375,-0.180419921875,-2.777099370956421,2.136230230331421,1.5869139432907104,100.0,125997.0,1.0
15:36:56.724530,176772.171875,170915.390625,162529.109375,204673.953125,166021.078125,163276.28125,685825.375,161347.328125,-0.075439453125,0.983154296875,-0.177734375,-2.532958745956421,2.044677495956421,1.7700194120407104,100.0,125998.0,1.0
15:36:56.724543,176837.359375,170931.125,162543.0625,204683.34375,166029.921875,163292.28125,685826.8125,161345.359375,-0.074951171875,0.985107421875,-0.178466796875,-2.471923589706421,1.8920897245407104,1.9226073026657104,100.0,125999.0,1.0
15:36:56.726953,176812.671875,170938.734375,162546.71875,204660.890625,166031.09375,163299.96875,685797.625,161335.609375,-0.078369140625,0.987548828125,-0.177978515625,-2.441406011581421,1.9531248807907104,1.9226073026657104,100.0,126000.0,1.0
15:36:56.726960,176780.046875,170921.390625,162534.734375,204669.125,166025.453125,163280.65625,685818.0625,161346.796875,-0.07861328125,0.9921875,-0.178955078125,-2.288818120956421,1.8920897245407104,2.044677495956421,100.0,126001.0,1.0
15:36:56.734500,176764.671875,170910.828125,162525.265625,204672.515625,166019.203125,163271.359375,685817.6875,161348.84375,-0.07958984375,0.994140625,-0.180419921875,-2.258300542831421,1.8005369901657104,2.014159917831421,100.0,126002.0,1.0
15:36:56.734508,176833.328125,170929.34375,162541.984375,204684.046875,166033.234375,163292.375,685810.625,161352.609375,-0.077880859375,0.9970703125,-0.18115234375,-2.166747808456421,1.6784666776657104,1.9836424589157104,100.0,126003.0,1.0
15:36:56.740929,176824.484375,170941.40625,162550.828125,204666.078125,166037.703125,163304.796875,685804.3125,161343.03125,-0.079345703125,0.998291015625,-0.17919921875,-2.136230230331421,1.5869139432907104,1.9836424589157104,100.0,126004.0,1.0
15:36:56.740940,176785.5,170926.65625,162538.046875,204662.421875,166029.921875,163286.5625,685841.0625,161345.0,-0.080078125,1.0009765625,-0.18115234375,-2.227782964706421,1.4648436307907104,1.9226073026657104,100.0,126005.0,1.0
15:36:56.747023,176760.90625,170910.03125,162522.671875,204667.421875,166017.5,163268.421875,685867.875,161343.578125,-0.080810546875,1.00048828125,-0.178466796875,-2.166747808456421,1.2817381620407104,1.9531248807907104,100.0,126006.0,1.0
15:36:56.747031,176821.625,170928.8125,162537.25,204677.265625,166027.6875,163288.265625,685818.9375,161345.09375,-0.0830078125,0.99951171875,-0.1787109375,-2.227782964706421,1.0986326932907104,1.8920897245407104,100.0,126007.0,1.0
15:36:56.752619,176829.578125,170938.375,162544.484375,204663.671875,166031.8125,163298.984375,685824.3125,161337.578125,-0.0810546875,0.9970703125,-0.175048828125,-2.197265386581421,0.9460448622703552,1.7089842557907104,100.0,126008.0,1.0
15:36:56.768368,176790.421875,170930.59375,162539.484375,204659.109375,166029.84375,163289.0625,685806.6875,161344.640625,-0.080810546875,0.995849609375,-0.175537109375,-2.197265386581421,0.7629393935203552,1.4648436307907104,100.0,126009.0,1.0
15:36:56.768389,176769.671875,170916.5625,162531.875,204675.921875,166026.625,163274.3125,685859.8125,161357.15625,-0.080810546875,0.9970703125,-0.176513671875,-2.288818120956421,0.7019042372703552,1.2817381620407104,100.0,126010.0,1.0
15:36:56.774588,176814.5625,170927.640625,162541.796875,204682.09375,166034.390625,163289.78125,685800.4375,161357.609375,-0.081787109375,0.998779296875,-0.17529296875,-2.410888433456421,0.5493163466453552,1.0681151151657104,100.0,126011.0,1.0
15:36:56.774626,176843.34375,170942.390625,162551.8125,204676.8125,166039.859375,163304.453125,685822.0,161347.5,-0.082763671875,0.99951171875,-0.170166015625,-2.502441167831421,0.5187987685203552,0.7019042372703552,100.0,126012.0,1.0
15:36:56.774638,176800.78125,170940.421875,162549.21875,204662.859375,166039.5,163300.421875,685803.6875,161351.703125,-0.08349609375,0.999755859375,-0.170654296875,-2.532958745956421,0.3662109076976776,0.4882812201976776,100.0,126013.0,1.0
15:36:56.776990,176773.515625,170919.6875,162534.65625,204676.09375,166032.34375,163279.140625,685891.3125,161358.234375,-0.078857421875,0.999267578125,-0.171875,-2.777099370956421,0.3051757514476776,0.1831054538488388,100.0,126014.0,1.0
15:36:56.777021,176803.921875,170927.90625,162541.71875,204681.1875,166037.703125,163290.59375,685806.625,161359.390625,-0.076904296875,0.99951171875,-0.172607421875,-2.807616949081421,0.2136230319738388,0.1525878757238388,100.0,126015.0,1.0
15:36:56.785162,176849.78125,170941.59375,162554.5,204682.359375,166044.953125,163304.09375,685815.3125,161354.84375,-0.07568359375,0.999267578125,-0.17138671875,-2.929687261581421,0.1525878757238388,0.1525878757238388,100.0,126016.0,1.0
15:36:56.800944,176811.609375,170945.875,162554.859375,204662.6875,166044.5,163306.5,685794.75,161351.265625,-0.07421875,0.996337890625,-0.17138671875,-2.929687261581421,0.0,0.03051757626235485,100.0,126017.0,1.0
15:36:56.801002,176782.640625,170923.34375,162539.125,204676.359375,166035.65625,163281.828125,685892.0,161361.984375,-0.072998046875,0.995361328125,-0.171142578125,-3.021239995956421,0.0,0.0,100.0,126018.0,1.0
15:36:56.801020,176794.34375,170925.046875,162540.015625,204680.921875,166036.640625,163286.65625,685811.375,161363.59375,-0.071044921875,0.9970703125,-0.1708984375,-3.143310308456421,0.1220703050494194,-0.03051757626235485,100.0,126019.0,1.0
15:36:56.803128,176858.546875,170945.53125,162558.96875,204691.390625,166050.578125,163308.109375,685827.375,161364.9375,-0.072265625,0.9970703125,-0.172607421875,-3.204345464706421,0.2441406100988388,-0.0915527269244194,100.0,126020.0,1.0
15:36:56.809278,176821.625,170951.0625,162562.28125,204671.171875,166050.484375,163312.046875,685800.1875,161359.578125,-0.071044921875,0.999755859375,-0.173828125,-3.326415777206421,0.2441406100988388,-0.03051757626235485,100.0,126021.0,1.0
15:36:56.812867,176788.71875,170926.65625,162544.75,204677.265625,166040.828125,163285.671875,685865.4375,161366.28125,-0.067626953125,0.996826171875,-0.17138671875,-3.417968511581421,0.2441406100988388,0.03051757626235485,100.0,126022.0,1.0
15:36:56.825884,176784.25,170921.828125,162541.09375,204680.921875,166037.265625,163283.171875,685824.3125,161368.25,-0.068359375,0.994384765625,-0.172607421875,-3.387450933456421,0.3356933295726776,0.0915527269244194,100.0,126023.0,1.0
15:36:56.825899,176852.28125,170939.4375,162555.9375,204691.75,166048.25,163301.9375,685828.25,161368.96875,-0.06884765625,0.99462890625,-0.16943359375,-3.448486089706421,0.4272460639476776,0.0915527269244194,100.0,126024.0,1.0
15:36:56.828218,176823.234375,170944.1875,162555.65625,204660.984375,166044.59375,163306.59375,685805.125,161350.359375,-0.070068359375,0.994140625,-0.171875,-3.479003667831421,0.5187987685203552,0.1525878757238388,100.0,126025.0,1.0
15:36:56.828222,176787.46875,170924.6875,162540.828125,204666.96875,166035.65625,163286.109375,685843.75,161357.515625,-0.07080078125,0.995361328125,-0.169677734375,-3.387450933456421,0.7019042372703552,0.3051757514476776,100.0,126026.0,1.0
15:36:56.830843,176774.046875,170919.421875,162535.90625,204676.8125,166032.4375,163281.375,685834.1875,161362.890625,-0.0703125,0.99560546875,-0.170166015625,-3.448486089706421,0.8544921278953552,0.2746581733226776,100.0,126027.0,1.0
15:36:56.830868,176846.65625,170941.765625,162554.234375,204689.328125,166047.625,163303.734375,685817.0,161366.453125,-0.071533203125,0.99609375,-0.167724609375,-3.540038824081421,0.9155272841453552,0.1831054538488388,100.0,126028.0,1.0
15:36:56.832807,176838.34375,170953.65625,162560.40625,204669.21875,166050.484375,163315.171875,685809.9375,161356.71875,-0.072509765625,0.996337890625,-0.16845703125,-3.601073980331421,0.9765624403953552,0.1525878757238388,100.0,126029.0,1.0
15:36:56.840263,176799.53125,170940.78125,162550.390625,204669.03125,166045.75,163300.15625,685827.75,161363.328125,-0.072509765625,0.99365234375,-0.16552734375,-3.692626714706421,0.9765624403953552,0.2441406100988388,100.0,126030.0,1.0
15:36:56.844006,176772.171875,170921.921875,162536.4375,204674.3125,166036.0,163282.265625,685854.4375,161364.3125,-0.072509765625,0.993896484375,-0.1630859375,-3.601073980331421,1.0681151151657104,0.1831054538488388,100.0,126031.0,1.0
15:36:56.850741,176832.34375,170936.21875,162549.765625,204683.96875,166045.9375,163297.296875,685817.375,161367.171875,-0.07470703125,0.993896484375,-0.167236328125,-3.570556402206421,1.1596678495407104,0.0915527269244194,100.0,126032.0,1.0
15:36:56.850749,176842.890625,170948.46875,162558.703125,204672.515625,166049.6875,163306.59375,685828.8125,161357.25,-0.07568359375,0.99365234375,-0.16552734375,-3.509521245956421,1.2207030057907104,0.03051757626235485,100.0,126033.0,1.0
15:36:56.856457,176801.953125,170938.640625,162550.75,204665.28125,166043.78125,163295.59375,685822.25,161360.46875,-0.072509765625,0.995361328125,-0.16455078125,-3.448486089706421,1.3732908964157104,0.03051757626235485,100.0,126034.0,1.0
15:36:56.869649,176775.3125,170916.640625,162535.015625,204677.078125,166032.609375,163274.40625,685883.1875,161367.171875,-0.07080078125,0.99365234375,-0.166259765625,-3.448486089706421,1.4038084745407104,0.1220703050494194,100.0,126035.0,1.0
15:36:56.869658,176820.28125,170928.625,162544.484375,204682.0,166038.875,163290.140625,685824.6875,161368.609375,-0.0732421875,0.9931640625,-0.166015625,-3.387450933456421,1.4953612089157104,0.1220703050494194,100.0,126036.0,1.0
15:36:56.871957,176856.578125,170951.78125,162561.46875,204679.3125,166051.921875,163313.03125,685851.125,161362.171875,-0.073974609375,0.992431640625,-0.163330078125,-3.387450933456421,1.5563963651657104,0.1220703050494194,100.0,126037.0,1.0
15:36:56.871962,176810.171875,170946.0625,162554.765625,204661.4375,166045.75,163306.328125,685804.0625,161358.6875,-0.072509765625,0.989990234375,-0.16650390625,-3.204345464706421,1.7089842557907104,0.0915527269244194,100.0,126038.0,1.0
15:36:56.873904,176778.25,170920.40625,162536.265625,204673.859375,166033.6875,163278.421875,685873.0625,161364.5,-0.07275390625,0.989013671875,-0.1640625,-3.204345464706421,1.8310545682907104,0.0,100.0,126039.0,1.0
15:36:56.880154,176808.46875,170928.171875,162543.328125,204680.125,166037.4375,163287.1875,685823.1875,161366.90625,-0.072021484375,0.989990234375,-0.16650390625,-3.143310308456421,1.9226073026657104,0.0,100.0,126040.0,1.0
15:36:56.883912,176861.140625,170948.109375,162559.234375,204687.8125,166048.53125,163305.78125,685849.5625,161366.28125,-0.072998046875,0.989501953125,-0.165283203125,-3.051757574081421,2.014159917831421,0.0610351525247097,100.0,126041.0,1.0
15:36:56.890818,176823.859375,170954.109375,162561.828125,204669.84375,166050.484375,163310.890625,685807.3125,161364.046875,-0.072021484375,0.98828125,-0.163330078125,-2.990722417831421,1.9836424589157104,0.0610351525247097,100.0,126042.0,1.0
15:36:56.890828,176796.9375,170933.984375,162548.953125,204686.640625,166044.328125,163288.53125,685862.875,161376.390625,-0.07470703125,0.988525390625,-0.163818359375,-2.807616949081421,1.9836424589157104,0.0915527269244194,100.0,126043.0,1.0
15:36:56.896649,176809.453125,170940.34375,162551.90625,204688.171875,166046.46875,163295.6875,685818.875,161375.21875,-0.0732421875,0.989990234375,-0.162109375,-2.655029058456421,2.227782964706421,0.1525878757238388,100.0,126044.0,1.0
15:36:56.905003,176878.21875,170964.65625,162573.09375,204700.6875,166061.75,163319.375,685833.1875,161377.453125,-0.07421875,0.990478515625,-0.161376953125,-2.532958745956421,2.227782964706421,0.1831054538488388,100.0,126045.0,1.0
15:36:56.905026,176852.46875,170978.96875,162583.109375,204686.640625,166069.171875,163332.15625,685814.875,161377.375,-0.0751953125,0.9921875,-0.16162109375,-2.502441167831421,2.227782964706421,0.3051757514476776,100.0,126046.0,1.0
15:36:56.916997,176815.625,170948.921875,162560.21875,204690.9375,166053.265625,163299.265625,685873.125,161378.984375,-0.07763671875,0.991943359375,-0.162353515625,-2.471923589706421,2.319335699081421,0.3662109076976776,100.0,126047.0,1.0
15:36:56.917008,176813.296875,170944.0,162554.328125,204690.140625,166045.84375,163294.796875,685837.125,161374.5,-0.077880859375,0.98779296875,-0.1640625,-2.441406011581421,2.410888433456421,0.3967284858226776,100.0,126048.0,1.0
15:36:56.920747,176885.984375,170967.703125,162575.515625,204704.96875,166062.734375,163320.0,685844.5625,161380.046875,-0.07666015625,0.986328125,-0.165771484375,-2.258300542831421,2.319335699081421,0.4577636420726776,100.0,126049.0,1.0
15:36:56.920755,176866.953125,170984.328125,162584.625,204685.84375,166070.421875,163336.1875,685822.875,161373.875,-0.075439453125,0.9833984375,-0.169921875,-1.9836424589157104,2.441406011581421,0.5798339247703552,100.0,126050.0,1.0
15:36:56.933291,176834.578125,170961.890625,162569.078125,204692.90625,166058.8125,163308.921875,685838.5625,161381.484375,-0.07763671875,0.986328125,-0.167236328125,-1.7089842557907104,2.441406011581421,0.5798339247703552,100.0,126051.0,1.0
15:36:56.933301,176814.015625,170946.421875,162557.546875,204697.640625,166048.96875,163294.796875,685849.625,161380.3125,-0.07763671875,0.989501953125,-0.16650390625,-1.5258787870407104,2.410888433456421,0.4577636420726776,100.0,126052.0,1.0
15:36:56.935223,176875.0,170961.078125,162568.625,204700.765625,166056.75,163311.78125,685826.125,161375.84375,-0.078369140625,0.992431640625,-0.1650390625,-1.3732908964157104,2.410888433456421,0.4882812201976776,100.0,126053.0,1.0
15:36:56.937738,176872.21875,170980.75,162581.953125,204683.96875,166064.625,163330.375,685825.875,161367.71875,-0.0791015625,0.994140625,-0.163330078125,-1.2817381620407104,2.380370855331421,0.4882812201976776,100.0,126054.0,1.0
15:36:56.940200,176837.4375,170968.59375,162573.71875,204689.5,166061.75,163316.421875,685830.0625,161380.9375,-0.077392578125,0.9931640625,-0.164794921875,-1.2817381620407104,2.258300542831421,0.5493163466453552,100.0,126055.0,1.0
15:36:56.952701,176821.0,170959.03125,162568.453125,204703.0,166060.421875,163307.484375,685853.3125,161389.265625,-0.080322265625,0.99365234375,-0.165283203125,-1.1596678495407104,2.227782964706421,0.5187987685203552,100.0,126056.0,1.0
15:36:56.955772,176876.25,170970.640625,162576.578125,204705.953125,166064.625,163321.34375,685818.625,161381.21875,-0.08154296875,0.993408203125,-0.163818359375,-1.0375975370407104,2.044677495956421,0.4577636420726776,100.0,126057.0,1.0
15:36:56.955789,176885.28125,170981.28125,162583.828125,204692.28125,166066.765625,163332.078125,685820.8125,161369.953125,-0.07861328125,0.98681640625,-0.162353515625,-0.9765624403953552,1.9836424589157104,0.5187987685203552,100.0,126058.0,1.0
15:36:56.957658,176846.03125,170973.328125,162578.453125,204688.53125,166064.890625,163322.6875,685806.375,161379.515625,-0.07763671875,0.986083984375,-0.16552734375,-0.9155272841453552,1.8310545682907104,0.4882812201976776,100.0,126059.0,1.0
15:36:56.960224,176820.640625,170953.03125,162564.953125,204708.375,166057.828125,163301.3125,685867.25,161393.453125,-0.077880859375,0.986083984375,-0.1708984375,-0.6408690810203552,1.8615721464157104,0.4272460639476776,100.0,126060.0,1.0
15:36:56.978339,176857.109375,170956.796875,162567.828125,204708.015625,166057.828125,163308.375,685806.0625,161386.390625,-0.078125,0.98828125,-0.16796875,-0.3662109076976776,1.8310545682907104,0.4882812201976776,100.0,126061.0,1.0
15:36:56.978351,176887.0625,170974.671875,162578.453125,204690.578125,166065.25,163327.15625,685833.25,161372.71875,-0.077392578125,0.993896484375,-0.167724609375,-0.1220703050494194,1.7700194120407104,0.6103515028953552,100.0,126062.0,1.0
15:36:56.978353,176848.796875,170977.53125,162580.25,204677.171875,166067.03125,163327.421875,685796.4375,161374.5,-0.0771484375,0.99853515625,-0.162109375,-0.1525878757238388,1.8615721464157104,0.5187987685203552,100.0,126063.0,1.0
15:36:56.980718,176816.875,170950.890625,162562.71875,204693.34375,166057.28125,163298.984375,685860.0625,161384.4375,-0.078125,0.998046875,-0.160400390625,-0.3356933295726776,1.7395018339157104,0.4882812201976776,100.0,126064.0,1.0
15:36:56.980720,176843.703125,170953.484375,162568.359375,204702.375,166060.765625,163304.984375,685797.25,161389.796875,-0.079833984375,0.99658203125,-0.163818359375,-0.3662109076976776,1.6784666776657104,0.4272460639476776,100.0,126065.0,1.0
15:36:57.000827,176891.265625,170968.6875,162580.34375,204698.453125,166067.921875,163320.265625,685825.5,161379.15625,-0.08056640625,0.995361328125,-0.16943359375,-0.4272460639476776,1.5563963651657104,0.5187987685203552,100.0,126066.0,1.0
15:36:57.000837,176853.0,170973.6875,162581.59375,204681.28125,166066.9375,163323.125,685794.125,161379.515625,-0.078125,0.991943359375,-0.169921875,-0.3967284858226776,1.3732908964157104,0.3967284858226776,100.0,126067.0,1.0
15:36:57.003300,176826.09375,170955.453125,162567.28125,204698.09375,166060.421875,163301.859375,685859.1875,161392.484375,-0.077392578125,0.9912109375,-0.170654296875,-0.3662109076976776,1.3427733182907104,0.3356933295726776,100.0,126068.0,1.0
15:36:57.003304,176830.375,170953.921875,162561.828125,204691.75,166053.890625,163301.9375,685806.375,161380.859375,-0.078125,0.9921875,-0.169677734375,-0.3356933295726776,1.4648436307907104,0.3967284858226776,100.0,126069.0,1.0
15:36:57.003306,176892.421875,170971.0,162577.203125,204698.09375,166065.515625,163320.890625,685828.5625,161380.859375,-0.080322265625,0.9921875,-0.16650390625,-0.2746581733226776,1.2207030057907104,0.4272460639476776,100.0,126070.0,1.0
15:36:57.009509,176855.421875,170974.40625,162578.015625,204674.578125,166066.140625,163325.453125,685803.5,161374.59375,-0.08203125,0.992431640625,-0.16552734375,-0.3051757514476776,1.1291502714157104,0.1525878757238388,100.0,126071.0,1.0
15:36:57.009525,176829.125,170953.21875,162565.671875,204695.140625,166061.578125,163303.734375,685902.1875,161394.890625,-0.0830078125,0.991943359375,-0.166015625,-0.3051757514476776,1.0681151151657104,0.1220703050494194,100.0,126072.0,1.0
15:36:57.015744,176827.25,170953.578125,162563.890625,204693.53125,166060.328125,163305.515625,685847.5625,161389.796875,-0.0859375,0.994140625,-0.1708984375,-0.2746581733226776,0.9155272841453552,0.0,100.0,126073.0,1.0
15:36:57.015759,176893.765625,170972.4375,162579.4375,204696.75,166073.5625,163326.34375,685835.6875,161384.96875,-0.084228515625,0.991943359375,-0.172119140625,-0.2136230319738388,0.9155272841453552,-0.0915527269244194,100.0,126074.0,1.0
15:36:57.032778,176874.90625,170988.703125,162591.421875,204680.828125,166081.609375,163341.28125,685819.25,161381.65625,-0.08349609375,0.992431640625,-0.172607421875,-0.2136230319738388,0.7324218153953552,-0.1220703050494194,100.0,126075.0,1.0
15:36:57.035748,176838.0625,170967.421875,162577.75,204687.984375,166072.84375,163318.21875,685855.5625,161391.140625,-0.083251953125,0.995849609375,-0.169921875,-0.1831054538488388,0.6103515028953552,-0.1525878757238388,100.0,126076.0,1.0
15:36:57.035763,176817.15625,170954.109375,162566.21875,204691.5625,166063.359375,163306.6875,685857.5,161389.703125,-0.085205078125,0.996337890625,-0.170654296875,-0.1220703050494194,0.3662109076976776,-0.3051757514476776,100.0,126077.0,1.0
15:36:57.035768,176879.734375,170969.65625,162578.640625,204699.96875,166071.234375,163323.84375,685841.6875,161388.1875,-0.0830078125,0.997802734375,-0.1708984375,-0.1525878757238388,0.2441406100988388,-0.2441406100988388,100.0,126078.0,1.0
15:36:57.041952,176870.609375,170979.765625,162583.28125,204677.078125,166072.671875,163335.203125,685834.1875,161377.453125,-0.081787109375,0.99755859375,-0.16748046875,-0.2746581733226776,0.2136230319738388,-0.1525878757238388,100.0,126079.0,1.0
15:36:57.041954,176835.03125,170965.734375,162573.28125,204677.703125,166066.859375,163319.828125,685814.6875,161382.828125,-0.07763671875,0.998046875,-0.17236328125,-0.3967284858226776,0.1525878757238388,-0.1525878757238388,100.0,126080.0,1.0
15:36:57.050840,176808.5625,170946.78125,162559.6875,204687.625,166058.0,163301.765625,685859.1875,161386.125,-0.076416015625,0.997314453125,-0.170654296875,-0.4577636420726776,0.1525878757238388,-0.2746581733226776,100.0,126081.0,1.0
15:36:57.050852,176852.828125,170950.265625,162561.390625,204686.828125,166057.375,163307.75,685813.6875,161379.875,-0.078369140625,0.996826171875,-0.17138671875,-0.4577636420726776,0.0,-0.1220703050494194,100.0,126082.0,1.0
15:36:57.067001,176867.84375,170968.59375,162572.203125,204676.984375,166063.71875,163324.109375,685818.0625,161377.453125,-0.080810546875,0.99658203125,-0.1708984375,-0.4882812201976776,-0.0915527269244194,0.0610351525247097,100.0,126083.0,1.0
15:36:57.067012,176828.0625,170963.5,162566.125,204665.1875,166060.140625,163316.34375,685840.3125,161375.84375,-0.0791015625,0.998046875,-0.168701171875,-0.4577636420726776,-0.1525878757238388,0.2441406100988388,100.0,126084.0,1.0
15:36:57.069655,176792.203125,170935.875,162543.5,204667.6875,166043.34375,163289.25,685885.375,161370.390625,-0.079833984375,0.99853515625,-0.169677734375,-0.4882812201976776,-0.1831054538488388,0.1525878757238388,100.0,126085.0,1.0
15:36:57.069674,176829.578125,170941.140625,162546.984375,204667.15625,166044.234375,163297.828125,685809.125,161365.203125,-0.080322265625,0.99951171875,-0.169189453125,-0.5798339247703552,-0.1525878757238388,0.2136230319738388,100.0,126086.0,1.0
15:36:57.069679,176864.265625,170956.96875,162560.3125,204664.5625,166052.375,163314.1875,685828.0625,161361.453125,-0.079833984375,0.9990234375,-0.175048828125,-0.8239745497703552,-0.2441406100988388,0.2746581733226776,100.0,126087.0,1.0
15:36:57.071509,176828.5,170961.171875,162564.25,204656.25,166055.859375,163315.625,685797.625,161367.53125,-0.077880859375,0.997802734375,-0.16943359375,-0.8544921278953552,-0.2746581733226776,0.1220703050494194,100.0,126088.0,1.0
15:36:57.080925,176804.984375,170944.0,162553.421875,204675.109375,166050.765625,163296.046875,685889.125,161378.796875,-0.079345703125,0.99853515625,-0.16943359375,-1.0375975370407104,-0.3662109076976776,0.03051757626235485,100.0,126089.0,1.0
15:36:57.080930,176830.65625,170951.609375,162557.890625,204677.078125,166053.265625,163304.359375,685820.6875,161378.078125,-0.082763671875,0.99951171875,-0.16943359375,-1.0986326932907104,-0.3967284858226776,0.0610351525247097,100.0,126090.0,1.0
15:36:57.086473,176882.59375,170968.765625,162573.984375,204683.34375,166064.890625,163321.796875,685843.125,161379.25,-0.0810546875,1.0,-0.174072265625,-1.2512205839157104,-0.4882812201976776,0.03051757626235485,100.0,126091.0,1.0
15:36:57.090746,176840.484375,170967.96875,162571.84375,204658.03125,166062.203125,163320.359375,685797.6875,161370.9375,-0.08056640625,1.00048828125,-0.17236328125,-1.4648436307907104,-0.4882812201976776,0.0610351525247097,100.0,126092.0,1.0
15:36:57.090753,176810.359375,170943.5625,162555.484375,204673.0625,166055.046875,163294.796875,685875.625,161382.109375,-0.07861328125,1.00048828125,-0.170654296875,-1.4343260526657104,-0.5187987685203552,0.0610351525247097,100.0,126093.0,1.0
15:36:57.101574,176812.40625,170939.265625,162550.203125,204669.03125,166049.328125,163295.140625,685825.875,161374.78125,-0.078857421875,1.000244140625,-0.1689453125,-1.5563963651657104,-0.6103515028953552,0.0610351525247097,100.0,126094.0,1.0
15:36:57.104596,176874.640625,170959.203125,162566.921875,204677.890625,166061.3125,163316.609375,685850.625,161374.234375,-0.079345703125,1.000732421875,-0.169677734375,-1.6479490995407104,-0.6713866591453552,0.0,100.0,126095.0,1.0
15:36:57.104612,176847.015625,170973.515625,162573.90625,204659.375,166064.34375,163329.03125,685813.4375,161368.34375,-0.0791015625,1.002197265625,-0.17138671875,-1.8310545682907104,-0.7324218153953552,0.0610351525247097,100.0,126096.0,1.0
15:36:57.106549,176815.625,170953.75,162557.71875,204663.578125,166055.140625,163305.515625,685859.375,161371.28125,-0.079345703125,1.002685546875,-0.170654296875,-1.8310545682907104,-0.7019042372703552,0.0915527269244194,100.0,126097.0,1.0
15:36:57.119570,176810.71875,170950.984375,162555.65625,204669.03125,166053.890625,163303.109375,685837.3125,161373.078125,-0.077392578125,1.000244140625,-0.175537109375,-2.044677495956421,-0.7324218153953552,0.0610351525247097,100.0,126098.0,1.0
15:36:57.119578,176879.109375,170967.703125,162572.109375,204682.265625,166065.15625,163319.828125,685834.0625,161377.8125,-0.074462890625,0.997802734375,-0.1748046875,-2.075195074081421,-0.7629393935203552,0.1220703050494194,100.0,126099.0,1.0
15:36:57.122070,176854.875,170973.515625,162574.96875,204660.265625,166063.359375,163324.921875,685811.5625,161369.328125,-0.07568359375,0.99609375,-0.174560546875,-2.075195074081421,-0.6408690810203552,0.1220703050494194,100.0,126100.0,1.0
15:36:57.122083,176821.890625,170952.3125,162563.703125,204670.1875,166058.984375,163302.03125,685855.0625,161383.453125,-0.07666015625,0.995361328125,-0.174560546875,-2.105712652206421,-0.5798339247703552,0.1525878757238388,100.0,126101.0,1.0
15:36:57.130282,176802.84375,170940.609375,162554.953125,204673.765625,166053.265625,163293.09375,685845.4375,161385.328125,-0.07568359375,0.9931640625,-0.17333984375,-2.044677495956421,-0.5798339247703552,0.2441406100988388,100.0,126102.0,1.0
15:36:57.137569,176866.328125,170955.984375,162566.390625,204676.546875,166060.140625,163310.25,685840.3125,161377.8125,-0.07568359375,0.993408203125,-0.173583984375,-2.044677495956421,-0.5493163466453552,0.2441406100988388,100.0,126103.0,1.0
15:36:57.137587,176861.140625,170970.46875,162573.984375,204654.90625,166063.015625,163323.125,685835.0625,161365.125,-0.075927734375,0.992431640625,-0.172607421875,-2.075195074081421,-0.4577636420726776,0.1525878757238388,100.0,126104.0,1.0
15:36:57.143294,176822.25,170957.234375,162563.890625,204653.125,166059.515625,163309.546875,685831.1875,161372.09375,-0.07568359375,0.991455078125,-0.177001953125,-1.9836424589157104,-0.4272460639476776,0.2441406100988388,100.0,126105.0,1.0
15:36:57.143367,176795.515625,170938.375,162550.03125,204661.796875,166052.375,163293.359375,685862.6875,161376.109375,-0.07763671875,0.9931640625,-0.17529296875,-2.075195074081421,-0.3662109076976776,0.3356933295726776,100.0,126106.0,1.0
15:36:57.148905,176848.359375,170949.375,162559.421875,204665.640625,166058.8125,163307.75,685823.375,161373.703125,-0.075927734375,0.992431640625,-0.1748046875,-2.075195074081421,-0.3051757514476776,0.3356933295726776,100.0,126107.0,1.0
15:36:57.155754,176860.953125,170965.015625,162570.140625,204653.828125,166064.53125,163323.84375,685826.75,161364.21875,-0.076416015625,0.989990234375,-0.1708984375,-2.014159917831421,-0.3051757514476776,0.2441406100988388,100.0,126108.0,1.0
15:36:57.155760,176816.796875,170955.0,162560.046875,204643.1875,166057.640625,163313.390625,685815.5625,161364.671875,-0.07470703125,0.986328125,-0.173583984375,-1.8615721464157104,-0.3967284858226776,0.2746581733226776,100.0,126109.0,1.0
15:36:57.185133,176783.078125,170929.96875,162540.46875,204651.234375,166044.046875,163288.796875,685878.5,161368.78125,-0.075439453125,0.98583984375,-0.17333984375,-1.7395018339157104,-0.2441406100988388,0.5187987685203552,100.0,126110.0,1.0
15:36:57.188308,176819.828125,170937.75,162544.046875,204651.328125,166046.109375,163300.15625,685798.875,161365.125,-0.076171875,0.984375,-0.172607421875,-1.5563963651657104,-0.2441406100988388,0.4272460639476776,100.0,126111.0,1.0
15:36:57.188323,176853.171875,170954.109375,162557.71875,204648.375,166055.59375,163317.046875,685817.375,161359.84375,-0.077880859375,0.9853515625,-0.174560546875,-1.4648436307907104,-0.1831054538488388,0.3967284858226776,100.0,126112.0,1.0
15:36:57.190255,176814.5625,170957.0625,162559.6875,204637.109375,166057.828125,163318.484375,685817.0,161363.78125,-0.076904296875,0.982177734375,-0.173583984375,-1.2512205839157104,-0.0915527269244194,0.3967284858226776,100.0,126113.0,1.0
15:36:57.192877,176789.875,170935.875,162547.078125,204656.15625,166052.09375,163296.046875,685897.375,161374.78125,-0.0771484375,0.98095703125,-0.171142578125,-1.0070799589157104,-0.0915527269244194,0.4272460639476776,100.0,126114.0,1.0
15:36:57.195153,176816.171875,170943.203125,162553.25,204659.46875,166055.59375,163307.03125,685831.6875,161373.078125,-0.076904296875,0.97998046875,-0.17041015625,-0.8239745497703552,-0.0915527269244194,0.4577636420726776,100.0,126115.0,1.0
15:36:57.197654,176862.484375,170957.0625,162563.34375,204656.0625,166060.765625,163320.71875,685855.4375,161364.140625,-0.0771484375,0.979248046875,-0.17236328125,-0.5493163466453552,-0.0610351525247097,0.5187987685203552,100.0,126116.0,1.0
15:36:57.200192,176819.65625,170958.046875,162560.046875,204631.65625,166056.75,163318.65625,685803.25,161356.625,-0.07763671875,0.980224609375,-0.171630859375,-0.3967284858226776,0.03051757626235485,0.5798339247703552,100.0,126117.0,1.0
15:36:57.202715,176792.390625,170937.296875,162546.625,204650.4375,166050.765625,163297.375,685857.75,161370.75,-0.078369140625,0.980224609375,-0.171630859375,-0.0610351525247097,0.0915527269244194,0.6408690810203552,100.0,126118.0,1.0
15:36:57.205153,176800.609375,170938.375,162547.609375,204653.296875,166050.578125,163301.140625,685826.125,161371.5625,-0.077392578125,0.9765625,-0.1689453125,0.3662109076976776,0.0610351525247097,0.7934569716453552,100.0,126119.0,1.0
15:36:57.207751,176858.71875,170952.859375,162560.578125,204656.96875,166059.703125,163317.5,685832.9375,161368.875,-0.077880859375,0.97705078125,-0.175048828125,0.7019042372703552,0.03051757626235485,0.9155272841453552,100.0,126120.0,1.0
15:36:57.210824,176820.71875,170954.546875,162559.5,204629.15625,166056.75,163318.75,685804.5625,161357.609375,-0.075927734375,0.976806640625,-0.17578125,1.0375975370407104,0.0610351525247097,1.1291502714157104,100.0,126121.0,1.0
15:36:57.210833,176787.640625,170930.859375,162541.984375,204637.65625,166046.921875,163292.828125,685908.3125,161366.546875,-0.075927734375,0.9755859375,-0.175048828125,1.4343260526657104,0.0610351525247097,1.4038084745407104,100.0,126122.0,1.0
15:36:57.213217,176786.921875,170930.859375,162542.875,204646.6875,166048.96875,163294.96875,685848.8125,161372.625,-0.07373046875,0.9736328125,-0.176025390625,1.8920897245407104,0.2136230319738388,1.5563963651657104,100.0,126123.0,1.0
15:36:57.213221,176850.140625,170944.1875,162553.6875,204652.21875,166056.390625,163309.71875,685842.5625,161368.515625,-0.074951171875,0.975830078125,-0.175537109375,2.288818120956421,0.2441406100988388,1.7089842557907104,100.0,126124.0,1.0
15:36:57.220158,176829.671875,170955.453125,162559.59375,204630.859375,166058.453125,163320.8125,685822.875,161358.953125,-0.07470703125,0.975341796875,-0.176025390625,2.746581792831421,0.3967284858226776,2.014159917831421,100.0,126125.0,1.0
15:36:57.227033,176790.78125,170932.734375,162542.4375,204633.0,166048.609375,163296.21875,685826.8125,161365.390625,-0.07666015625,0.973876953125,-0.175537109375,3.173827886581421,0.3662109076976776,2.197265386581421,100.0,126126.0,1.0
15:36:57.227041,176769.5,170922.546875,162531.515625,204636.671875,166040.5625,163287.09375,685835.5,161364.5,-0.07666015625,0.976318359375,-0.17431640625,3.662109136581421,0.5187987685203552,2.471923589706421,100.0,126127.0,1.0
15:36:57.233027,176833.875,170939.265625,162544.75,204644.265625,166048.875,163305.875,685807.8125,161362.171875,-0.077880859375,0.981201171875,-0.174072265625,4.028319835662842,0.5187987685203552,2.685546636581421,100.0,126128.0,1.0
15:36:57.239579,176831.625,170951.0625,162555.03125,204629.609375,166055.046875,163318.75,685804.75,161355.28125,-0.078369140625,0.98681640625,-0.173583984375,4.272460460662842,0.5187987685203552,2.929687261581421,100.0,126129.0,1.0
15:36:57.239595,176790.78125,170935.953125,162542.25,204624.421875,166047.453125,163302.84375,685863.875,161358.6875,-0.0810546875,0.988525390625,-0.171875,4.394530773162842,0.4272460639476776,3.082275152206421,100.0,126130.0,1.0
15:36:57.252144,176765.109375,170915.9375,162527.671875,204631.125,166036.90625,163283.4375,685871.6875,161359.84375,-0.08056640625,0.99169921875,-0.171875,4.486083507537842,0.4272460639476776,3.112792730331421,100.0,126131.0,1.0
15:36:57.252158,176821.625,170928.890625,162539.296875,204636.3125,166043.609375,163297.921875,685822.5625,161358.0625,-0.079345703125,0.993896484375,-0.173583984375,4.516601085662842,0.3967284858226776,3.082275152206421,100.0,126132.0,1.0
15:36:57.254531,176839.234375,170946.5,162551.8125,204626.828125,166051.46875,163314.8125,685827.8125,161351.4375,-0.078369140625,0.99560546875,-0.17333984375,4.516601085662842,0.4577636420726776,3.112792730331421,100.0,126133.0,1.0
15:36:57.254542,176800.609375,170942.484375,162549.3125,204619.59375,166051.125,163309.359375,685802.1875,161356.71875,-0.077392578125,0.9990234375,-0.17236328125,4.516601085662842,0.4577636420726776,3.173827886581421,100.0,126134.0,1.0
15:36:57.256516,176774.6875,170925.234375,162536.625,204634.171875,166044.234375,163291.84375,685872.1875,161363.859375,-0.07373046875,0.9990234375,-0.17236328125,4.547118663787842,0.4272460639476776,3.082275152206421,100.0,126135.0,1.0
15:36:57.262751,176812.671875,170931.75,162540.90625,204634.875,166047.1875,163301.234375,685806.8125,161361.359375,-0.071044921875,1.0,-0.175537109375,4.394530773162842,0.4882812201976776,2.990722417831421,100.0,126136.0,1.0
15:36:57.292032,176845.671875,170947.21875,162553.6875,204632.203125,166056.390625,163317.140625,685832.125,161356.890625,-0.07177734375,1.000244140625,-0.17333984375,4.333495616912842,0.6713866591453552,3.112792730331421,100.0,126137.0,1.0
15:36:57.292041,176809.109375,170950.890625,162555.390625,204621.46875,166058.53125,163319.46875,685800.5625,161361.546875,-0.0703125,1.001953125,-0.17529296875,4.028319835662842,0.7324218153953552,2.899169683456421,100.0,126138.0,1.0
15:36:57.292043,176786.125,170933.71875,162544.578125,204641.5,166053.171875,163299.4375,685886.625,161373.078125,-0.0693359375,1.00439453125,-0.176025390625,3.906249761581421,0.8544921278953552,2.899169683456421,100.0,126139.0,1.0
15:36:57.293895,176810.890625,170939.4375,162547.609375,204643.109375,166054.96875,163307.578125,685815.125,161370.75,-0.068359375,1.006103515625,-0.177734375,3.753661870956421,0.8239745497703552,2.929687261581421,100.0,126140.0,1.0
15:36:57.296487,176858.0,170951.25,162558.96875,204643.015625,166061.3125,163321.171875,685820.125,161365.03125,-0.069091796875,1.0068359375,-0.1787109375,3.509521245956421,1.0070799589157104,2.716064214706421,100.0,126141.0,1.0
15:36:57.298884,176817.234375,170953.65625,162559.6875,204622.546875,166059.875,163321.796875,685800.5625,161360.375,-0.070556640625,1.0078125,-0.17626953125,3.295898199081421,1.0986326932907104,2.655029058456421,100.0,126142.0,1.0
15:36:57.301447,176786.921875,170932.65625,162544.125,204637.109375,166052.28125,163298.1875,685885.125,161372.546875,-0.0712890625,1.008056640625,-0.1767578125,3.021239995956421,1.1596678495407104,2.502441167831421,100.0,126143.0,1.0
15:36:57.303898,176792.390625,170931.046875,162542.34375,204638.453125,166051.65625,163301.046875,685815.8125,161371.375,-0.07080078125,1.00927734375,-0.176025390625,2.655029058456421,1.3427733182907104,2.319335699081421,100.0,126144.0,1.0
15:36:57.306475,176858.0,170952.046875,162559.328125,204646.328125,166067.75,163322.0625,685829.625,161371.109375,-0.0703125,1.010986328125,-0.17822265625,2.319335699081421,1.3732908964157104,2.319335699081421,100.0,126145.0,1.0
15:36:57.309535,176826.265625,170961.171875,162563.0,204624.78125,166070.96875,163329.21875,685803.75,161367.4375,-0.06884765625,1.009765625,-0.17919921875,2.044677495956421,1.4038084745407104,2.166747808456421,100.0,126146.0,1.0
15:36:57.309547,176793.09375,170937.921875,162547.53125,204635.953125,166062.828125,163304.796875,685871.0625,161378.4375,-0.070068359375,1.01025390625,-0.17578125,1.5258787870407104,1.4953612089157104,1.9836424589157104,100.0,126147.0,1.0
15:36:57.311538,176784.6875,170927.828125,162541.53125,204637.734375,166056.84375,163295.59375,685835.9375,161377.71875,-0.06982421875,1.009765625,-0.1796875,1.2207030057907104,1.5563963651657104,1.8920897245407104,100.0,126148.0,1.0
15:36:57.321477,176851.125,170946.15625,162556.015625,204645.703125,166067.125,163316.515625,685818.875,161374.5,-0.07080078125,1.007568359375,-0.181640625,0.8850097060203552,1.5563963651657104,1.8310545682907104,100.0,126149.0,1.0
15:36:57.324534,176835.921875,170963.3125,162565.859375,204628.703125,166074.28125,163332.4375,685808.625,161368.421875,-0.071044921875,1.0068359375,-0.183349609375,0.5493163466453552,1.5563963651657104,1.7089842557907104,100.0,126150.0,1.0
15:36:57.324540,176798.375,170942.578125,162550.203125,204633.625,166063.8125,163309.8125,685849.75,161376.296875,-0.072509765625,1.006591796875,-0.182861328125,0.2441406100988388,1.6174315214157104,1.4953612089157104,100.0,126151.0,1.0
15:36:57.326546,176783.53125,170932.5625,162541.625,204641.3125,166057.640625,163300.875,685851.0,161378.796875,-0.075439453125,1.009033203125,-0.1787109375,-0.0610351525247097,1.5258787870407104,1.3427733182907104,100.0,126152.0,1.0
15:36:57.338994,176851.484375,170952.234375,162557.71875,204652.046875,166068.90625,163322.328125,685843.4375,161381.65625,-0.078125,1.00830078125,-0.17919921875,-0.2441406100988388,1.4953612089157104,1.2817381620407104,100.0,126153.0,1.0
15:36:57.342017,176847.375,170964.125,162566.296875,204634.34375,166073.640625,163335.65625,685842.125,161372.71875,-0.079345703125,1.0068359375,-0.180908203125,-0.4882812201976776,1.4038084745407104,1.2207030057907104,100.0,126154.0,1.0
15:36:57.342023,176804.984375,170946.6875,162554.046875,204631.390625,166066.3125,163316.875,685827.375,161378.34375,-0.07958984375,1.004638671875,-0.181396484375,-0.8239745497703552,1.2817381620407104,1.1291502714157104,100.0,126155.0,1.0
15:36:57.343988,176776.203125,170926.03125,162537.328125,204636.75,166053.265625,163296.125,685858.3125,161378.625,-0.076416015625,1.004150390625,-0.18212890625,-1.1901854276657104,1.0681151151657104,0.9460448622703552,100.0,126156.0,1.0
15:36:57.349068,176828.0625,170936.671875,162545.5625,204638.546875,166058.984375,163309.28125,685809.5625,161374.78125,-0.07470703125,1.00439453125,-0.18408203125,-1.4038084745407104,1.0681151151657104,0.7934569716453552,100.0,126157.0,1.0
15:36:57.380950,176846.03125,170953.390625,162558.703125,204635.5,166067.125,163324.921875,685818.0625,161373.25,-0.072998046875,1.001953125,-0.182373046875,-1.5563963651657104,0.9155272841453552,0.6713866591453552,100.0,126158.0,1.0
15:36:57.380967,176804.8125,170952.671875,162553.15625,204621.203125,166063.359375,163322.0625,685823.1875,161371.203125,-0.072509765625,1.0029296875,-0.179931640625,-1.7700194120407104,0.8850097060203552,0.6408690810203552,100.0,126159.0,1.0
15:36:57.382836,176780.765625,170936.046875,162539.390625,204631.21875,166055.859375,163303.015625,685877.4375,161373.4375,-0.07177734375,1.00146484375,-0.180419921875,-1.9531248807907104,0.8239745497703552,0.5187987685203552,100.0,126160.0,1.0
15:36:57.385258,176821.625,170940.25,162549.765625,204639.703125,166062.5625,163311.59375,685815.8125,161375.3125,-0.072265625,1.00048828125,-0.180419921875,-2.227782964706421,0.7324218153953552,0.4882812201976776,100.0,126161.0,1.0
15:36:57.387742,176862.484375,170962.953125,162568.984375,204642.125,166074.90625,163333.765625,685831.1875,161374.15625,-0.0732421875,0.999755859375,-0.179931640625,-2.471923589706421,0.7934569716453552,0.5798339247703552,100.0,126162.0,1.0
15:36:57.390250,176821.171875,170964.390625,162567.640625,204625.671875,166074.1875,163331.53125,685806.1875,161372.359375,-0.073486328125,0.99951171875,-0.183349609375,-2.624511480331421,0.7629393935203552,0.4882812201976776,100.0,126163.0,1.0
15:36:57.392738,176788.453125,170938.734375,162549.3125,204636.3125,166061.75,163303.734375,685880.3125,161379.421875,-0.074462890625,0.9970703125,-0.18359375,-2.685546636581421,0.6408690810203552,0.3967284858226776,100.0,126164.0,1.0
15:36:57.398356,176804.71875,170937.03125,162548.0625,204633.625,166058.625,163304.359375,685809.5,161374.15625,-0.07275390625,0.9951171875,-0.18212890625,-2.777099370956421,0.5493163466453552,0.3662109076976776,100.0,126165.0,1.0
15:36:57.398378,176855.765625,170952.9375,162561.03125,204637.109375,166067.125,163320.09375,685831.8125,161370.296875,-0.07568359375,0.995361328125,-0.185546875,-2.868652105331421,0.3967284858226776,0.3356933295726776,100.0,126166.0,1.0
15:36:57.400260,176819.921875,170958.046875,162563.4375,204618.515625,166068.015625,163322.6875,685803.5625,161367.890625,-0.073974609375,0.994140625,-0.184814453125,-2.838134527206421,0.4882812201976776,0.1525878757238388,100.0,126167.0,1.0
15:36:57.402745,176789.4375,170935.875,162546.359375,204630.234375,166057.5625,163298.1875,685886.3125,161375.40625,-0.072265625,0.996826171875,-0.184814453125,-2.868652105331421,0.3662109076976776,0.2441406100988388,100.0,126168.0,1.0
15:36:57.405306,176795.875,170936.578125,162545.5625,204632.28125,166055.5,163300.328125,685813.9375,161374.328125,-0.072998046875,0.99462890625,-0.181884765625,-2.807616949081421,0.2136230319738388,0.0915527269244194,100.0,126169.0,1.0
15:36:57.408255,176866.140625,170956.875,162564.15625,204644.625,166069.71875,163319.734375,685820.6875,161377.71875,-0.07275390625,0.992919921875,-0.18017578125,-2.838134527206421,0.2441406100988388,-0.0610351525247097,100.0,126170.0,1.0
15:36:57.408277,176834.40625,170964.390625,162568.171875,204622.984375,166071.953125,163327.609375,685803.9375,161371.109375,-0.072509765625,0.986328125,-0.18212890625,-2.838134527206421,0.2441406100988388,0.1220703050494194,100.0,126171.0,1.0
15:36:57.410190,176795.421875,170939.265625,162547.96875,204625.484375,166058.71875,163301.5,685855.8125,161373.96875,-0.073486328125,0.9814453125,-0.18408203125,-2.716064214706421,0.0915527269244194,0.03051757626235485,100.0,126172.0,1.0
15:36:57.412722,176788.09375,170939.359375,162544.84375,204629.609375,166056.75,163303.546875,685824.9375,161375.21875,-0.0771484375,0.981201171875,-0.1826171875,-2.532958745956421,0.1525878757238388,0.1220703050494194,100.0,126173.0,1.0
15:36:57.424562,176857.296875,170955.453125,162560.9375,204640.328125,166067.390625,163321.078125,685833.875,161376.390625,-0.075927734375,0.986328125,-0.185546875,-2.258300542831421,0.1525878757238388,0.1220703050494194,100.0,126174.0,1.0
15:36:57.424584,176840.9375,170969.03125,162569.34375,204622.0,166072.671875,163334.75,685815.5625,161369.671875,-0.075439453125,0.990966796875,-0.183349609375,-2.136230230331421,-0.03051757626235485,0.0610351525247097,100.0,126175.0,1.0
15:36:57.427062,176807.5,170950.984375,162557.359375,204629.515625,166065.15625,163313.46875,685841.9375,161379.0625,-0.07470703125,0.992431640625,-0.180908203125,-2.227782964706421,-0.0610351525247097,0.2136230319738388,100.0,126176.0,1.0
15:36:57.427070,176786.578125,170936.140625,162546.625,204631.484375,166055.859375,163298.09375,685847.125,161375.21875,-0.073974609375,0.992919921875,-0.179443359375,-2.197265386581421,-0.1525878757238388,0.1831054538488388,100.0,126177.0,1.0
15:36:57.428916,176856.75,170957.234375,162565.3125,204645.875,166071.234375,163321.609375,685827.0,161379.25,-0.076171875,0.991943359375,-0.181396484375,-2.258300542831421,-0.1831054538488388,0.3051757514476776,100.0,126178.0,1.0
15:36:57.440259,176854.96875,170971.546875,162576.40625,204632.109375,166079.375,163336.546875,685825.125,161372.625,-0.07421875,0.988525390625,-0.181884765625,-2.197265386581421,-0.2746581733226776,0.2746581733226776,100.0,126179.0,1.0
15:36:57.444546,176818.046875,170960.09375,162568.984375,204631.125,166076.515625,163323.484375,685816.3125,161379.6875,-0.07373046875,0.984375,-0.18115234375,-2.227782964706421,-0.3051757514476776,0.3356933295726776,100.0,126180.0,1.0
15:36:57.444564,176791.21875,170940.15625,162552.890625,204636.125,166064.34375,163304.796875,685840.875,161379.6875,-0.0732421875,0.981689453125,-0.18359375,-2.136230230331421,-0.2441406100988388,0.3662109076976776,100.0,126181.0,1.0
15:36:57.450918,176848.4375,170957.140625,162565.859375,204646.328125,166074.0,163322.78125,685798.75,161382.734375,-0.07421875,0.981689453125,-0.184814453125,-2.075195074081421,-0.2441406100988388,0.2136230319738388,100.0,126182.0,1.0
15:36:57.450944,176870.609375,170979.234375,162580.0625,204634.96875,166084.640625,163342.796875,685818.4375,161374.328125,-0.071533203125,0.985107421875,-0.188720703125,-1.9226073026657104,-0.1831054538488388,0.1525878757238388,100.0,126183.0,1.0
15:36:57.452713,176826.796875,170969.3125,162572.65625,204625.140625,166079.109375,163332.078125,685822.625,161377.375,-0.070068359375,0.987548828125,-0.185546875,-1.7395018339157104,-0.1831054538488388,0.1831054538488388,100.0,126184.0,1.0
15:36:57.472717,176791.671875,170941.234375,162552.078125,204637.375,166063.09375,163303.46875,685879.3125,161382.640625,-0.07080078125,0.9892578125,-0.1845703125,-1.6174315214157104,-0.0915527269244194,0.0610351525247097,100.0,126185.0,1.0
15:36:57.475883,176829.21875,170948.296875,162556.90625,204634.515625,166065.953125,163311.859375,685809.5625,161378.0,-0.069580078125,0.99365234375,-0.181884765625,-1.6174315214157104,-0.03051757626235485,0.1220703050494194,100.0,126186.0,1.0
15:36:57.475895,176870.796875,170967.703125,162575.0625,204636.75,166079.640625,163332.609375,685834.0625,161378.53125,-0.06884765625,0.998291015625,-0.1806640625,-1.5563963651657104,0.03051757626235485,0.0610351525247097,100.0,126187.0,1.0
15:36:57.475899,176826.984375,170965.46875,162570.328125,204617.265625,166074.625,163328.671875,685800.8125,161375.21875,-0.071044921875,0.9990234375,-0.180908203125,-1.7089842557907104,0.03051757626235485,0.0610351525247097,100.0,126188.0,1.0
15:36:57.485845,176792.921875,170943.28125,162550.65625,204626.03125,166060.859375,163304.453125,685877.0625,161376.5625,-0.071044921875,1.000244140625,-0.17919921875,-1.8920897245407104,0.0610351525247097,0.0915527269244194,100.0,126189.0,1.0
15:36:57.485861,176818.9375,170947.40625,162557.8125,204638.28125,166066.9375,163309.8125,685811.5625,161381.65625,-0.0732421875,1.0,-0.181396484375,-1.9836424589157104,0.1220703050494194,0.0,100.0,126190.0,1.0
15:36:57.488303,176871.0625,170964.125,162571.84375,204640.15625,166078.03125,163325.8125,685837.625,161374.59375,-0.073486328125,1.0,-0.184326171875,-2.105712652206421,0.1220703050494194,-0.0610351525247097,100.0,126191.0,1.0
15:36:57.488314,176836.8125,170969.3125,162577.75,204631.125,166082.953125,163331.453125,685808.625,161384.34375,-0.07470703125,0.999267578125,-0.1826171875,-2.136230230331421,-0.03051757626235485,-0.0915527269244194,100.0,126192.0,1.0
15:36:57.499525,176797.390625,170938.453125,162551.90625,204634.96875,166064.078125,163298.640625,685898.0625,161383.890625,-0.076171875,1.000244140625,-0.1826171875,-2.258300542831421,-0.0610351525247097,-0.1525878757238388,100.0,126193.0,1.0
15:36:57.499553,176796.5,170938.8125,162542.96875,204617.09375,166056.21875,163301.3125,685829.0,161367.359375,-0.07568359375,0.997802734375,-0.181884765625,-2.349853277206421,-0.0610351525247097,-0.2746581733226776,100.0,126194.0,1.0
15:36:57.501600,176861.578125,170956.25,162558.34375,204626.921875,166067.5625,163321.4375,685848.3125,161369.859375,-0.076171875,1.00146484375,-0.182861328125,-2.502441167831421,-0.0610351525247097,-0.3051757514476776,100.0,126195.0,1.0
15:36:57.528293,176828.5,170960.28125,162560.671875,204605.015625,166066.859375,163325.015625,685815.0625,161364.765625,-0.07666015625,1.000244140625,-0.181640625,-2.593993902206421,-0.1525878757238388,-0.4577636420726776,100.0,126196.0,1.0
15:36:57.528310,176798.640625,170940.703125,162547.96875,204621.734375,166059.515625,163302.84375,685843.75,161376.46875,-0.077392578125,0.998779296875,-0.182373046875,-2.746581792831421,-0.1525878757238388,-0.5493163466453552,100.0,126197.0,1.0
15:36:57.557250,176786.84375,170931.21875,162538.765625,204617.796875,166052.28125,163294.515625,685823.4375,161367.359375,-0.077880859375,0.99755859375,-0.178466796875,-2.777099370956421,-0.2136230319738388,-0.5493163466453552,100.0,126198.0,1.0
15:36:57.557266,176853.71875,170957.140625,162552.890625,204621.375,166062.46875,163317.765625,685829.875,161362.25,-0.077392578125,0.99560546875,-0.1796875,-2.838134527206421,-0.2746581733226776,-0.6408690810203552,100.0,126199.0,1.0
15:36:57.559542,176836.734375,170958.84375,162561.109375,204610.109375,166067.484375,163323.125,685815.8125,161361.625,-0.078857421875,0.99560546875,-0.17919921875,-2.899169683456421,-0.3356933295726776,-0.5187987685203552,100.0,126200.0,1.0
15:36:57.559549,176792.46875,170932.828125,162542.15625,204608.6875,166054.0625,163298.09375,685842.5625,161364.5,-0.080810546875,0.99853515625,-0.1796875,-3.021239995956421,-0.3967284858226776,-0.3967284858226776,100.0,126201.0,1.0
15:36:57.559550,176772.359375,170926.75,162531.078125,204608.421875,166045.84375,163289.6875,685857.5625,161360.734375,-0.081787109375,1.00048828125,-0.176025390625,-3.051757574081421,-0.5493163466453552,-0.3051757514476776,100.0,126202.0,1.0
15:36:57.561989,176836.375,170939.984375,162544.9375,204620.65625,166056.75,163307.125,685835.5,161364.40625,-0.0810546875,1.001708984375,-0.174072265625,-3.112792730331421,-0.5798339247703552,-0.2136230319738388,100.0,126203.0,1.0
15:36:57.561992,176845.140625,170969.03125,162564.15625,204618.703125,166071.140625,163333.953125,685835.4375,161368.515625,-0.080078125,1.003662109375,-0.173095703125,-3.204345464706421,-0.6408690810203552,-0.1525878757238388,100.0,126204.0,1.0
15:36:57.563940,176804.1875,170951.15625,162552.0,204616.015625,166063.71875,163312.9375,685810.1875,161382.640625,-0.077880859375,0.999755859375,-0.173095703125,-3.479003667831421,-0.7324218153953552,0.0610351525247097,100.0,126205.0,1.0
15:36:57.566515,176767.890625,170919.59375,162527.40625,204606.453125,166043.703125,163283.4375,685841.5,161367.4375,-0.0791015625,0.9970703125,-0.173095703125,-3.601073980331421,-0.8544921278953552,0.0915527269244194,100.0,126206.0,1.0
15:36:57.568961,176812.765625,170925.765625,162530.984375,204602.6875,166044.328125,163294.25,685816.8125,161350.8125,-0.0791015625,0.994384765625,-0.174560546875,-3.692626714706421,-0.8850097060203552,0.1525878757238388,100.0,126207.0,1.0
15:36:57.571493,176842.625,170965.015625,162555.75,204604.21875,166064.265625,163331.171875,685833.6875,161352.875,-0.076416015625,0.98974609375,-0.17578125,-3.723144292831421,-0.9460448622703552,0.1831054538488388,100.0,126208.0,1.0
15:36:57.573967,176794.703125,170947.046875,162544.046875,204588.390625,166056.296875,163315.265625,685803.5,161352.875,-0.074951171875,0.98486328125,-0.177001953125,-3.601073980331421,-0.9460448622703552,0.1525878757238388,100.0,126209.0,1.0
15:36:57.579839,176767.53125,170920.9375,162529.828125,204611.453125,166047.625,163288.265625,685865.625,161370.484375,-0.072998046875,0.983642578125,-0.177490234375,-3.356933355331421,-1.0375975370407104,0.2746581733226776,100.0,126210.0,1.0
15:36:57.579875,176813.21875,170932.375,162541.53125,204622.984375,166055.5,163300.515625,685818.5,161372.359375,-0.072998046875,0.982177734375,-0.178955078125,-3.173827886581421,-0.9765624403953552,0.2441406100988388,100.0,126211.0,1.0
15:36:57.581510,176850.765625,170947.40625,162557.453125,204623.34375,166069.0,163319.203125,685845.6875,161372.453125,-0.071533203125,0.986572265625,-0.17724609375,-3.051757574081421,-0.8850097060203552,0.3356933295726776,100.0,126212.0,1.0
15:36:57.584627,176812.859375,170960.0,162563.625,204618.515625,166076.15625,163328.046875,685810.5,161389.96875,-0.073486328125,0.98974609375,-0.1748046875,-2.960204839706421,-0.8850097060203552,0.4272460639476776,100.0,126213.0,1.0
15:36:57.584649,176783.4375,170944.1875,162543.0625,204620.3125,166060.0625,163304.53125,685876.375,161387.296875,-0.071533203125,0.99365234375,-0.177490234375,-2.990722417831421,-0.8544921278953552,0.3662109076976776,100.0,126214.0,1.0
15:36:57.586484,176802.84375,170935.328125,162539.296875,204619.40625,166052.734375,163302.484375,685813.5,161365.65625,-0.0703125,0.993896484375,-0.172607421875,-2.990722417831421,-0.7934569716453552,0.3356933295726776,100.0,126215.0,1.0
15:36:57.589547,176847.09375,170946.859375,162549.140625,204610.5625,166061.21875,163317.140625,685844.875,161364.046875,-0.07080078125,0.9931640625,-0.174560546875,-2.868652105331421,-0.7629393935203552,0.3967284858226776,100.0,126216.0,1.0
15:36:57.589576,176797.296875,170941.5,162539.75,204574.703125,166052.453125,163312.484375,685812.4375,161344.109375,-0.070068359375,0.9921875,-0.1748046875,-2.929687261581421,-0.7019042372703552,0.2746581733226776,100.0,126217.0,1.0
15:36:57.596603,176763.6875,170919.78125,162518.734375,204577.5625,166036.640625,163287.015625,685898.0625,161338.296875,-0.072998046875,0.990966796875,-0.174560546875,-2.929687261581421,-0.6103515028953552,0.2441406100988388,100.0,126218.0,1.0
15:36:57.603296,176773.15625,170915.65625,162521.421875,204592.5,166039.046875,163286.46875,685831.8125,161350.90625,-0.074951171875,0.990478515625,-0.173095703125,-2.807616949081421,-0.5493163466453552,0.3967284858226776,100.0,126219.0,1.0
15:36:57.603311,176844.78125,170941.140625,162544.390625,204612.265625,166056.75,163314.28125,685844.4375,161361.359375,-0.073974609375,0.987548828125,-0.171875,-2.807616949081421,-0.6103515028953552,0.4272460639476776,100.0,126220.0,1.0
15:36:57.605173,176811.609375,170951.609375,162545.5625,204588.484375,166054.34375,163321.4375,685806.5625,161352.421875,-0.0751953125,0.986572265625,-0.171875,-2.593993902206421,-0.6408690810203552,0.5187987685203552,100.0,126221.0,1.0
15:36:57.608906,176782.015625,170939.4375,162534.109375,204600.015625,166049.421875,163302.203125,685851.125,161360.734375,-0.076171875,0.98583984375,-0.172119140625,-2.685546636581421,-0.5798339247703552,0.5187987685203552,100.0,126222.0,1.0
15:36:57.618949,176783.171875,170931.21875,162537.6875,204621.203125,166054.78125,163301.859375,685842.8125,161378.53125,-0.076904296875,0.984375,-0.17333984375,-2.532958745956421,-0.6408690810203552,0.6713866591453552,100.0,126223.0,1.0
15:36:57.621993,176838.15625,170931.9375,162541.359375,204605.546875,166056.75,163308.46875,685848.1875,161358.765625,-0.076904296875,0.982421875,-0.1748046875,-2.349853277206421,-0.6408690810203552,0.3662109076976776,100.0,126224.0,1.0
15:36:57.621999,176815.8125,170943.640625,162545.5625,204584.28125,166058.09375,163321.171875,685824.9375,161350.8125,-0.076171875,0.985595703125,-0.178466796875,-2.136230230331421,-0.5798339247703552,0.2746581733226776,100.0,126225.0,1.0
15:36:57.624486,176792.734375,170937.296875,162544.484375,204612.078125,166060.59375,163308.375,685858.0625,161383.53125,-0.074462890625,0.98486328125,-0.17724609375,-1.8920897245407104,-0.6103515028953552,0.3356933295726776,100.0,126226.0,1.0
15:36:57.624491,176762.4375,170917.359375,162524.375,204601.265625,166043.875,163289.421875,685853.8125,161365.5625,-0.07470703125,0.98828125,-0.17822265625,-1.7395018339157104,-0.5798339247703552,0.3967284858226776,100.0,126227.0,1.0
15:36:57.640195,176828.953125,170939.984375,162539.03125,204599.46875,166053.4375,163312.484375,685820.5,161351.890625,-0.074951171875,0.989501953125,-0.177001953125,-1.5869139432907104,-0.6713866591453552,0.4882812201976776,100.0,126228.0,1.0
15:36:57.643338,176834.40625,170964.828125,162555.03125,204590.71875,166064.890625,163333.953125,685811.75,161353.859375,-0.073486328125,0.990234375,-0.17626953125,-1.4343260526657104,-0.6103515028953552,0.5187987685203552,100.0,126229.0,1.0
15:36:57.643348,176792.390625,170941.5,162543.0625,204586.953125,166059.796875,163314.015625,685825.6875,161358.5,-0.071533203125,0.991455078125,-0.175048828125,-1.3427733182907104,-0.5798339247703552,0.4882812201976776,100.0,126230.0,1.0
15:36:57.645259,176767.796875,170915.84375,162530.453125,204602.875,166052.8125,163291.296875,685877.4375,161366.015625,-0.073974609375,0.991943359375,-0.174560546875,-1.3122557401657104,-0.5798339247703552,0.6103515028953552,100.0,126231.0,1.0
15:36:57.647826,176823.140625,170930.765625,162541.796875,204617.359375,166059.796875,163306.59375,685827.25,161368.96875,-0.074951171875,0.993408203125,-0.173583984375,-1.2817381620407104,-0.5187987685203552,0.6103515028953552,100.0,126232.0,1.0
15:36:57.655231,176837.71875,170947.140625,162549.578125,204605.109375,166064.53125,163322.234375,685834.0625,161365.296875,-0.07470703125,0.99462890625,-0.175048828125,-1.2817381620407104,-0.5187987685203552,0.7019042372703552,100.0,126233.0,1.0
15:36:57.662052,176790.78125,170936.84375,162537.953125,204578.734375,166055.40625,163308.828125,685815.8125,161349.921875,-0.07421875,0.994384765625,-0.17431640625,-1.3427733182907104,-0.5798339247703552,0.7324218153953552,100.0,126234.0,1.0
15:36:57.662067,176778.25,170921.390625,162537.25,204626.46875,166059.875,163292.28125,685872.1875,161387.921875,-0.0732421875,0.995361328125,-0.177001953125,-1.3427733182907104,-0.6103515028953552,0.6713866591453552,100.0,126235.0,1.0
15:36:57.664570,176805.703125,170926.921875,162533.3125,204600.09375,166053.890625,163299.265625,685814.3125,161357.78125,-0.073974609375,0.99462890625,-0.181396484375,-1.3122557401657104,-0.5493163466453552,0.6408690810203552,100.0,126236.0,1.0
15:36:57.664582,176847.375,170949.8125,162550.203125,204600.015625,166065.515625,163321.171875,685839.375,161357.34375,-0.0751953125,0.992919921875,-0.177978515625,-1.2512205839157104,-0.5798339247703552,0.6408690810203552,100.0,126237.0,1.0
15:36:57.673925,176805.25,170949.015625,162548.0625,204587.140625,166063.1875,163320.265625,685810.8125,161362.171875,-0.075439453125,0.991455078125,-0.1748046875,-1.1596678495407104,-0.5187987685203552,0.4577636420726776,100.0,126238.0,1.0
15:36:57.686909,176771.8125,170921.921875,162528.03125,204593.484375,166050.9375,163294.609375,685899.6875,161361.8125,-0.07666015625,0.98974609375,-0.176025390625,-1.0986326932907104,-0.3967284858226776,0.3356933295726776,100.0,126239.0,1.0
15:36:57.686989,176802.03125,170933.546875,162540.375,204620.578125,166061.578125,163307.21875,685829.875,161385.234375,-0.07666015625,0.992431640625,-0.175048828125,-1.1596678495407104,-0.3356933295726776,0.3662109076976776,100.0,126240.0,1.0
15:36:57.687158,176860.421875,170957.328125,162559.59375,204629.875,166075.4375,163327.875,685850.875,161386.84375,-0.075927734375,0.989990234375,-0.176025390625,-1.1596678495407104,-0.3356933295726776,0.3662109076976776,100.0,126241.0,1.0
15:36:57.687219,176821.984375,170960.71875,162559.6875,204595.0,166073.109375,163328.578125,685816.125,161367.171875,-0.07275390625,0.974365234375,-0.175048828125,-1.0986326932907104,-0.4577636420726776,0.3051757514476776,100.0,126242.0,1.0
15:36:57.697630,176781.390625,170928.0,162532.140625,204593.9375,166053.078125,163293.453125,685877.1875,161363.859375,-0.069580078125,0.96044921875,-0.18310546875,-0.7934569716453552,-0.3967284858226776,0.2136230319738388,100.0,126243.0,1.0
15:36:57.700723,176776.015625,170918.515625,162523.921875,204583.203125,166044.234375,163291.21875,685821.625,161347.234375,-0.069091796875,0.966064453125,-0.19287109375,-0.3051757514476776,-0.2136230319738388,0.5187987685203552,100.0,126244.0,1.0
15:36:57.700727,176842.625,170940.421875,162543.0625,204594.109375,166059.96875,163315.265625,685841.4375,161351.96875,-0.070068359375,0.981689453125,-0.19091796875,0.5187987685203552,-0.1525878757238388,0.7019042372703552,100.0,126245.0,1.0
15:36:57.702634,176826.0,170962.78125,162560.3125,204585.34375,166073.109375,163336.984375,685815.3125,161357.96875,-0.073486328125,1.0048828125,-0.181396484375,0.8850097060203552,-0.03051757626235485,0.7934569716453552,100.0,126246.0,1.0
15:36:57.705187,176796.40625,170943.5625,162549.140625,204601.4375,166068.640625,163315.171875,685866.875,161374.953125,-0.0732421875,1.02001953125,-0.165771484375,0.7019042372703552,-0.0610351525247097,0.6408690810203552,100.0,126247.0,1.0
15:36:57.713999,176789.609375,170940.875,162545.734375,204613.953125,166065.328125,163311.15625,685846.5625,161376.46875,-0.072509765625,1.0234375,-0.160400390625,-0.4272460639476776,-0.1220703050494194,0.6408690810203552,100.0,126248.0,1.0
15:36:57.718273,176870.703125,170975.828125,162572.296875,204636.40625,166086.703125,163344.59375,685850.875,161391.3125,-0.072265625,1.009765625,-0.166259765625,-1.0986326932907104,-0.1525878757238388,0.6408690810203552,100.0,126249.0,1.0
15:36:57.718280,176858.640625,170988.890625,162584.1875,204628.078125,166096.09375,163357.828125,685835.0625,161399.453125,-0.0732421875,0.9951171875,-0.1787109375,-1.5563963651657104,-0.1831054538488388,0.7324218153953552,100.0,126250.0,1.0
15:36:57.727704,176820.28125,170976.453125,162569.15625,204621.921875,166088.125,163339.671875,685836.0625,161404.71875,-0.074462890625,0.9892578125,-0.18896484375,-1.4038084745407104,-0.2136230319738388,0.8544921278953552,100.0,126251.0,1.0
15:36:57.732017,176806.78125,170965.1875,162568.53125,204660.546875,166088.671875,163331.890625,685854.75,161439.234375,-0.0751953125,0.9873046875,-0.1875,-1.0986326932907104,-0.1525878757238388,0.6103515028953552,100.0,126252.0,1.0
15:36:57.732021,176870.53125,170979.046875,162581.59375,204652.3125,166096.984375,163347.09375,685832.5625,161426.0,-0.07470703125,0.9921875,-0.18310546875,-0.8239745497703552,-0.0915527269244194,0.5493163466453552,100.0,126253.0,1.0
15:36:57.738935,176873.390625,171010.796875,162589.375,204606.8125,166098.328125,163370.25,685838.25,161366.453125,-0.074951171875,0.99462890625,-0.177490234375,-0.8239745497703552,0.0,0.3662109076976776,100.0,126254.0,1.0
15:36:57.743269,176816.515625,170961.171875,162563.796875,204607.703125,166078.828125,163326.34375,685828.25,161371.46875,-0.07470703125,0.99365234375,-0.173583984375,-0.9765624403953552,0.1525878757238388,0.3051757514476776,100.0,126255.0,1.0
15:36:57.743278,176768.15625,170919.328125,162531.96875,204587.40625,166054.15625,163293.0,685864.125,161354.921875,-0.078125,0.992431640625,-0.17578125,-1.0986326932907104,0.03051757626235485,0.3051757514476776,100.0,126256.0,1.0
15:36:57.752655,176824.5625,170935.0625,162544.21875,204593.578125,166064.171875,163312.84375,685818.4375,161359.03125,-0.07763671875,0.99267578125,-0.17626953125,-1.1901854276657104,0.1220703050494194,0.3051757514476776,100.0,126257.0,1.0
15:36:57.757105,176849.609375,170950.890625,162562.28125,204603.3125,166079.109375,163327.421875,685836.125,161368.609375,-0.078369140625,0.99072265625,-0.179931640625,-1.1596678495407104,0.0915527269244194,0.3051757514476776,100.0,126258.0,1.0
15:36:57.757112,176831.984375,170974.40625,162578.8125,204622.984375,166096.359375,163346.015625,685818.25,161397.03125,-0.08056640625,0.98828125,-0.1787109375,-1.0681151151657104,-0.0610351525247097,0.3356933295726776,100.0,126259.0,1.0
15:36:57.772039,176803.734375,170949.90625,162560.21875,204638.1875,166083.390625,163320.0,685865.8125,161408.125,-0.080078125,0.98876953125,-0.179443359375,-0.8850097060203552,-0.0610351525247097,0.2136230319738388,100.0,126260.0,1.0
15:36:57.772111,176838.34375,170971.1875,162565.671875,204626.5625,166084.015625,163335.015625,685807.0,161403.03125,-0.0771484375,0.9912109375,-0.18017578125,-0.7019042372703552,-0.0610351525247097,0.2746581733226776,100.0,126261.0,1.0
15:36:57.772138,176867.9375,170961.4375,162572.828125,204631.390625,166087.421875,163334.671875,685826.5625,161404.71875,-0.078369140625,0.993408203125,-0.177001953125,-0.5798339247703552,-0.2136230319738388,0.3356933295726776,100.0,126262.0,1.0
15:36:57.773995,176842.8125,170981.828125,162585.609375,204641.3125,166097.25,163349.5,685822.375,161421.265625,-0.0791015625,0.9951171875,-0.176025390625,-0.5493163466453552,-0.3662109076976776,0.3051757514476776,100.0,126263.0,1.0
15:36:57.778305,176806.78125,170958.3125,162562.375,204634.515625,166081.875,163322.328125,685931.375,161408.21875,-0.078369140625,0.99560546875,-0.176513671875,-0.6103515028953552,-0.3662109076976776,0.3356933295726776,100.0,126264.0,1.0
15:36:57.778319,176801.5,170935.0625,162542.703125,204587.40625,166065.25,163311.0625,685834.8125,161365.03125,-0.077880859375,0.992431640625,-0.177490234375,-0.6408690810203552,-0.4272460639476776,0.2746581733226776,100.0,126265.0,1.0
15:36:57.788221,176857.5625,170953.578125,162556.640625,204585.34375,166072.578125,163327.875,685851.9375,161346.25,-0.0771484375,0.9921875,-0.1767578125,-0.7629393935203552,-0.5493163466453552,0.4272460639476776,100.0,126266.0,1.0
15:36:57.792066,176823.671875,170966.265625,162564.421875,204585.4375,166078.921875,163336.546875,685815.8125,161363.6875,-0.0771484375,0.98974609375,-0.178466796875,-0.6713866591453552,-0.5493163466453552,0.5187987685203552,100.0,126267.0,1.0
15:36:57.792083,176823.234375,170984.328125,162575.59375,204649.09375,166093.671875,163342.0,685870.9375,161416.890625,-0.07763671875,0.990966796875,-0.18017578125,-0.5798339247703552,-0.5187987685203552,0.4882812201976776,100.0,126268.0,1.0
15:36:57.797704,176838.34375,170986.5625,162582.21875,204675.46875,166098.6875,163345.578125,685824.0625,161420.8125,-0.07861328125,0.994873046875,-0.1767578125,-0.4882812201976776,-0.5493163466453552,0.5187987685203552,100.0,126269.0,1.0
15:36:57.804497,176876.421875,170952.234375,162571.9375,204652.5,166086.796875,163326.703125,685832.75,161399.265625,-0.07861328125,0.9970703125,-0.173583984375,-0.4882812201976776,-0.5798339247703552,0.4882812201976776,100.0,126270.0,1.0
15:36:57.804508,176851.84375,170976.453125,162584.265625,204629.6875,166097.515625,163350.484375,685812.0,161409.828125,-0.078369140625,0.9951171875,-0.17724609375,-0.4882812201976776,-0.5798339247703552,0.5187987685203552,100.0,126271.0,1.0
15:36:57.814527,176824.5625,170972.34375,162576.21875,204651.859375,166095.375,163337.078125,685886.9375,161440.9375,-0.0771484375,0.995361328125,-0.177001953125,-0.6713866591453552,-0.6103515028953552,0.4272460639476776,100.0,126272.0,1.0
15:36:57.814542,176826.53125,170971.359375,162578.109375,204687.890625,166094.5625,163330.640625,685854.25,161459.0,-0.076904296875,0.99609375,-0.18017578125,-0.6408690810203552,-0.6103515028953552,0.6103515028953552,100.0,126273.0,1.0
15:36:57.816500,176894.9375,171001.21875,162595.265625,204695.859375,166109.59375,163361.390625,685847.6875,161466.0625,-0.07666015625,0.994384765625,-0.17822265625,-0.7934569716453552,-0.6103515028953552,0.6408690810203552,100.0,126274.0,1.0
15:36:57.819113,176851.296875,170981.375,162577.5625,204598.84375,166091.703125,163352.71875,685816.9375,161394.796875,-0.077392578125,0.99365234375,-0.18212890625,-0.7934569716453552,-0.6103515028953552,0.6103515028953552,100.0,126275.0,1.0
15:36:57.826522,176838.421875,170992.375,162581.953125,204620.125,166095.734375,163353.796875,685805.8125,161394.4375,-0.074462890625,0.992919921875,-0.180419921875,-0.7934569716453552,-0.6408690810203552,0.4882812201976776,100.0,126276.0,1.0
15:36:57.833355,176799.09375,170948.921875,162552.890625,204623.34375,166070.25,163314.734375,685832.125,161385.0625,-0.07470703125,0.994384765625,-0.178466796875,-0.7629393935203552,-0.6713866591453552,0.4272460639476776,100.0,126277.0,1.0
15:36:57.833430,176847.8125,170940.25,162554.671875,204619.5,166072.9375,163314.28125,685836.5625,161379.25,-0.076171875,0.9951171875,-0.177490234375,-0.6713866591453552,-0.7324218153953552,0.4272460639476776,100.0,126278.0,1.0
15:36:57.840832,176875.359375,170982.453125,162584.0,204626.65625,166093.765625,163346.640625,685829.0625,161386.125,-0.076416015625,0.9951171875,-0.178466796875,-0.7019042372703552,-0.6713866591453552,0.4577636420726776,100.0,126279.0,1.0
15:36:57.840897,176833.59375,170967.25,162573.90625,204633.1875,166087.953125,163335.015625,685839.0625,161391.9375,-0.07763671875,0.994873046875,-0.18017578125,-0.7324218153953552,-0.6713866591453552,0.3967284858226776,100.0,126280.0,1.0
15:36:57.847425,176783.0,170934.34375,162541.171875,204593.484375,166063.90625,163305.15625,685872.875,161378.53125,-0.07666015625,0.99609375,-0.178955078125,-0.8239745497703552,-0.6713866591453552,0.3356933295726776,100.0,126281.0,1.0
15:36:57.847568,176841.734375,170958.125,162555.21875,204603.3125,166073.203125,163324.65625,685811.875,161379.953125,-0.076904296875,0.995361328125,-0.177734375,-0.9155272841453552,-0.7019042372703552,0.3356933295726776,100.0,126282.0,1.0
15:36:57.848997,176877.5,170986.921875,162581.765625,204624.0625,166095.375,163353.625,685840.875,161397.84375,-0.07666015625,0.994384765625,-0.17529296875,-0.9155272841453552,-0.6713866591453552,0.1525878757238388,100.0,126283.0,1.0
15:36:57.863902,176832.34375,170975.5625,162576.21875,204617.359375,166091.53125,163343.0625,685841.6875,161391.40625,-0.077392578125,0.99365234375,-0.1806640625,-1.0375975370407104,-0.7019042372703552,0.2136230319738388,100.0,126284.0,1.0
15:36:57.868273,176820.453125,170975.5625,162572.46875,204647.125,166091.4375,163338.421875,685912.6875,161416.703125,-0.077880859375,0.993408203125,-0.178955078125,-1.0681151151657104,-0.6408690810203552,0.1831054538488388,100.0,126285.0,1.0
15:36:57.868339,176858.28125,170987.546875,162584.0,204665.359375,166100.109375,163351.5625,685835.0625,161432.0,-0.076171875,0.995361328125,-0.179931640625,-1.1291502714157104,-0.6713866591453552,0.1831054538488388,100.0,126286.0,1.0
15:36:57.868366,176908.796875,171003.546875,162609.21875,204706.578125,166120.671875,163368.734375,685833.375,161475.09375,-0.07568359375,0.995361328125,-0.179443359375,-1.2512205839157104,-0.6408690810203552,0.1831054538488388,100.0,126287.0,1.0
15:36:57.874583,176830.828125,170959.734375,162571.046875,204611.546875,166088.578125,163335.203125,685797.9375,161407.140625,-0.07568359375,0.995849609375,-0.177001953125,-1.3122557401657104,-0.6408690810203552,0.1831054538488388,100.0,126288.0,1.0
15:36:57.874651,176794.796875,170940.875,162548.953125,204602.328125,166073.015625,163310.171875,685871.0,161390.59375,-0.074951171875,0.995361328125,-0.17724609375,-1.3122557401657104,-0.5187987685203552,0.2136230319738388,100.0,126289.0,1.0
15:36:57.904021,176830.5625,170959.296875,162564.515625,204627.8125,166083.21875,163326.890625,685823.0,161393.734375,-0.076416015625,0.99560546875,-0.177978515625,-1.3122557401657104,-0.5493163466453552,0.0915527269244194,100.0,126290.0,1.0
15:36:57.928303,176899.046875,170985.84375,162595.0,204669.484375,166110.390625,163353.171875,685850.6875,161464.625,-0.074951171875,0.994140625,-0.175537109375,-1.3122557401657104,-0.5493163466453552,0.2136230319738388,100.0,126291.0,1.0
15:36:57.928357,176846.03125,170981.109375,162581.859375,204614.21875,166097.703125,163351.734375,685820.1875,161415.546875,-0.073974609375,0.99560546875,-0.177490234375,-1.4038084745407104,-0.5493163466453552,0.2746581733226776,100.0,126292.0,1.0
15:36:57.928370,176825.546875,170979.3125,162576.046875,204646.328125,166095.90625,163341.375,685868.9375,161426.625,-0.07470703125,0.994384765625,-0.1787109375,-1.5563963651657104,-0.6103515028953552,0.3051757514476776,100.0,126293.0,1.0
15:36:57.928384,176809.015625,170937.5625,162553.78125,204633.71875,166074.09375,163309.359375,685816.1875,161402.21875,-0.07421875,0.9951171875,-0.179931640625,-1.6174315214157104,-0.4882812201976776,0.3662109076976776,100.0,126294.0,1.0
15:36:57.930775,176885.1875,170969.03125,162576.21875,204636.75,166090.015625,163336.71875,685855.4375,161389.078125,-0.07470703125,0.995849609375,-0.18017578125,-1.6479490995407104,-0.3356933295726776,0.3662109076976776,100.0,126295.0,1.0
15:36:57.930783,176845.671875,170977.359375,162570.859375,204580.25,166084.109375,163343.25,685807.5,161366.28125,-0.073486328125,0.996337890625,-0.1826171875,-1.6174315214157104,-0.2136230319738388,0.4272460639476776,100.0,126296.0,1.0
15:36:57.930784,176827.4375,170963.9375,162574.4375,204641.671875,166094.390625,163329.84375,685845.5,161442.453125,-0.074462890625,0.996826171875,-0.181884765625,-1.8005369901657104,-0.1525878757238388,0.5187987685203552,100.0,126297.0,1.0
15:36:57.933382,176828.765625,170964.828125,162580.703125,204658.65625,166100.65625,163333.0625,685852.25,161460.515625,-0.075927734375,0.997314453125,-0.1796875,-1.7395018339157104,-0.0610351525247097,0.4882812201976776,100.0,126298.0,1.0
15:36:57.933429,176893.0625,170980.125,162589.8125,204672.25,166103.875,163345.75,685834.625,161428.78125,-0.073486328125,0.997314453125,-0.178955078125,-1.7395018339157104,-0.03051757626235485,0.5798339247703552,100.0,126299.0,1.0
15:36:57.935221,176856.578125,170984.78125,162579.0,204613.875,166092.328125,163350.671875,685818.4375,161398.5625,-0.076171875,0.9970703125,-0.179443359375,-1.8005369901657104,-0.0610351525247097,0.6103515028953552,100.0,126300.0,1.0
15:36:57.940656,176820.09375,170966.09375,162565.59375,204587.046875,166084.640625,163335.734375,685844.8125,161368.421875,-0.075439453125,0.997314453125,-0.176025390625,-1.8310545682907104,0.0,0.6408690810203552,100.0,126301.0,1.0
15:36:57.942734,176808.125,170956.078125,162564.0625,204620.3125,166084.109375,163324.296875,685867.6875,161409.203125,-0.075439453125,0.99755859375,-0.177734375,-1.9226073026657104,0.1220703050494194,0.6713866591453552,100.0,126302.0,1.0
15:36:57.945382,176862.390625,170967.078125,162569.703125,204629.25,166087.421875,163337.53125,685830.9375,161406.0625,-0.0751953125,0.99658203125,-0.179931640625,-1.9531248807907104,0.1220703050494194,0.7019042372703552,100.0,126303.0,1.0
15:36:57.947705,176874.546875,170990.671875,162587.3125,204620.390625,166099.484375,163358.890625,685842.1875,161380.5,-0.075439453125,0.99462890625,-0.179931640625,-2.014159917831421,0.1831054538488388,0.6408690810203552,100.0,126304.0,1.0
15:36:57.950266,176842.546875,170989.78125,162584.265625,204617.796875,166099.046875,163350.765625,685828.0625,161399.8125,-0.075439453125,0.99560546875,-0.178955078125,-2.014159917831421,0.2441406100988388,0.6103515028953552,100.0,126305.0,1.0
15:36:57.952793,176815.546875,170965.28125,162572.5625,204649.8125,166093.578125,163330.1875,685866.8125,161434.953125,-0.074951171875,0.99462890625,-0.17919921875,-1.9836424589157104,0.3356933295726776,0.6103515028953552,100.0,126306.0,1.0
15:36:57.955296,176849.15625,170956.078125,162564.875,204616.109375,166084.5625,163326.078125,685809.5625,161400.875,-0.07421875,0.99365234375,-0.177978515625,-2.014159917831421,0.4272460639476776,0.6408690810203552,100.0,126307.0,1.0
15:36:57.958297,176860.15625,170964.65625,162565.046875,204576.3125,166080.078125,163334.21875,685806.875,161361.625,-0.075439453125,0.993408203125,-0.177978515625,-2.014159917831421,0.4882812201976776,0.5798339247703552,100.0,126308.0,1.0
15:36:57.958344,176828.6875,170967.96875,162570.765625,204589.109375,166087.859375,163335.296875,685822.1875,161396.5,-0.0751953125,0.993896484375,-0.1806640625,-1.9836424589157104,0.4577636420726776,0.6103515028953552,100.0,126309.0,1.0
15:36:57.960195,176799.984375,170942.21875,162554.234375,204603.765625,166076.6875,163311.328125,685897.375,161392.03125,-0.075439453125,0.994384765625,-0.18017578125,-1.9531248807907104,0.4882812201976776,0.6713866591453552,100.0,126310.0,1.0
15:36:57.966628,176848.4375,170972.4375,162577.921875,204636.84375,166097.34375,163341.375,685833.6875,161420.90625,-0.0771484375,0.992919921875,-0.178466796875,-2.075195074081421,0.5798339247703552,0.7324218153953552,100.0,126311.0,1.0
15:36:57.970850,176908.515625,171012.578125,162613.15625,204674.578125,166126.3125,163378.65625,685869.9375,161453.90625,-0.074951171875,0.994873046875,-0.1767578125,-2.075195074081421,0.6713866591453552,0.5187987685203552,100.0,126312.0,1.0
15:36:57.970865,176865.34375,170999.96875,162610.109375,204676.71875,166124.25,163370.96875,685819.5625,161485.015625,-0.073974609375,0.9931640625,-0.17724609375,-2.105712652206421,0.6408690810203552,0.5493163466453552,100.0,126313.0,1.0
15:36:57.996576,176803.46875,170955.453125,162559.6875,204616.1875,166082.40625,163322.859375,685889.75,161414.828125,-0.074951171875,0.991455078125,-0.180908203125,-2.105712652206421,0.6408690810203552,0.5798339247703552,100.0,126314.0,1.0
15:36:58.012006,176825.90625,170960.640625,162565.59375,204617.4375,166085.890625,163330.28125,685830.6875,161399.359375,-0.075927734375,0.990966796875,-0.180419921875,-1.9836424589157104,0.6103515028953552,0.5187987685203552,100.0,126315.0,1.0
15:36:58.012017,176879.90625,170974.9375,162578.734375,204627.09375,166095.828125,163346.015625,685852.875,161402.765625,-0.074462890625,0.990478515625,-0.177001953125,-2.044677495956421,0.6713866591453552,0.4882812201976776,100.0,126316.0,1.0
15:36:58.012018,176837.53125,170979.953125,162571.390625,204577.296875,166085.1875,163347.71875,685790.625,161379.0625,-0.074951171875,0.990478515625,-0.18017578125,-2.014159917831421,0.7629393935203552,0.7324218153953552,100.0,126317.0,1.0
15:36:58.014063,176812.671875,170957.6875,162560.484375,204598.21875,166082.59375,163323.125,685848.0,161404.015625,-0.074462890625,0.9912109375,-0.178466796875,-2.014159917831421,0.8850097060203552,0.6408690810203552,100.0,126318.0,1.0
15:36:58.018901,176823.40625,170967.875,162567.015625,204608.859375,166088.21875,163334.75,685828.0625,161391.84375,-0.0751953125,0.99072265625,-0.177490234375,-2.014159917831421,0.8544921278953552,0.5798339247703552,100.0,126319.0,1.0
15:36:58.023980,176890.015625,170983.796875,162584.1875,204634.796875,166101.8125,163351.921875,685856.25,161402.578125,-0.076416015625,0.9921875,-0.176025390625,-1.9836424589157104,0.8850097060203552,0.6103515028953552,100.0,126320.0,1.0
15:36:58.026493,176852.109375,170977.265625,162578.90625,204604.578125,166094.5625,163347.359375,685818.625,161395.34375,-0.076171875,0.993408203125,-0.176025390625,-1.9836424589157104,0.9155272841453552,0.7019042372703552,100.0,126321.0,1.0
15:36:58.029010,176833.0625,170977.625,162581.046875,204629.78125,166101.90625,163340.75,685815.75,161445.3125,-0.07568359375,0.99267578125,-0.17431640625,-1.9226073026657104,1.0070799589157104,0.6713866591453552,100.0,126322.0,1.0
15:36:58.031522,176815.625,170962.0625,162568.171875,204629.609375,166090.1875,163328.234375,685815.3125,161421.265625,-0.0751953125,0.991943359375,-0.177490234375,-1.9531248807907104,1.0681151151657104,0.6713866591453552,100.0,126323.0,1.0
15:36:58.034089,176879.734375,170976.28125,162576.84375,204619.328125,166094.5625,163340.828125,685823.6875,161386.578125,-0.076904296875,0.9921875,-0.17626953125,-1.9836424589157104,1.0375975370407104,0.7324218153953552,100.0,126324.0,1.0
15:36:58.036514,176891.171875,171009.546875,162610.46875,204644.890625,166123.8125,163374.890625,685830.4375,161432.625,-0.077392578125,0.9912109375,-0.176025390625,-1.9836424589157104,1.0375975370407104,0.8239745497703552,100.0,126325.0,1.0
15:36:58.038936,176834.21875,170977.703125,162579.0,204602.96875,166101.0,163344.140625,685841.75,161416.609375,-0.078857421875,0.99072265625,-0.1767578125,-1.9531248807907104,0.9765624403953552,0.7629393935203552,100.0,126326.0,1.0
15:36:58.049558,176814.828125,170963.21875,162566.5625,204609.046875,166090.09375,163330.28125,685838.8125,161401.859375,-0.08056640625,0.99267578125,-0.1796875,-1.8615721464157104,0.9765624403953552,0.8239745497703552,100.0,126327.0,1.0
15:36:58.049567,176872.40625,170982.265625,162576.21875,204612.890625,166093.5,163344.859375,685827.4375,161402.3125,-0.07861328125,0.99267578125,-0.1767578125,-1.8310545682907104,1.0375975370407104,0.8544921278953552,100.0,126328.0,1.0
15:36:58.049569,176884.734375,170999.96875,162594.546875,204638.8125,166105.5625,163361.390625,685826.5,161412.765625,-0.076904296875,0.99267578125,-0.177734375,-1.7395018339157104,0.9155272841453552,0.8850097060203552,100.0,126329.0,1.0
15:36:58.049570,176841.375,170974.9375,162582.65625,204630.140625,166097.96875,163340.921875,685831.6875,161419.03125,-0.0791015625,0.989990234375,-0.177001953125,-1.7089842557907104,0.8850097060203552,0.7934569716453552,100.0,126330.0,1.0
15:36:58.049572,176798.8125,170948.46875,162555.84375,204604.125,166080.0,163316.6875,685877.8125,161409.640625,-0.079345703125,0.9912109375,-0.175048828125,-1.7700194120407104,0.9460448622703552,0.7934569716453552,100.0,126331.0,1.0
15:36:58.052000,176851.390625,170962.59375,162567.46875,204602.0625,166088.125,163332.703125,685812.1875,161396.328125,-0.080322265625,0.990966796875,-0.17822265625,-1.6479490995407104,1.0375975370407104,0.9765624403953552,100.0,126332.0,1.0
15:36:58.052004,176888.5,170993.796875,162591.421875,204610.03125,166106.640625,163363.28125,685836.3125,161399.1875,-0.07861328125,0.990478515625,-0.17626953125,-1.6174315214157104,0.9765624403953552,0.9460448622703552,100.0,126333.0,1.0
15:36:58.055156,176834.671875,170982.625,162575.0625,204576.40625,166092.609375,163350.046875,685808.625,161378.984375,-0.07958984375,0.989501953125,-0.1767578125,-1.5258787870407104,0.8850097060203552,1.0986326932907104,100.0,126334.0,1.0
15:36:58.070787,176817.5,170972.34375,162570.328125,204604.296875,166091.265625,163335.734375,685883.3125,161397.125,-0.080810546875,0.98876953125,-0.17724609375,-1.4038084745407104,0.7934569716453552,1.1596678495407104,100.0,126335.0,1.0
15:36:58.070799,176841.015625,170961.703125,162568.453125,204612.796875,166090.359375,163334.390625,685820.125,161405.265625,-0.081787109375,0.991943359375,-0.177734375,-1.4038084745407104,0.7934569716453552,1.0681151151657104,100.0,126336.0,1.0
15:36:58.073455,176891.53125,170982.359375,162592.046875,204636.40625,166107.890625,163351.921875,685851.625,161423.046875,-0.08056640625,0.9921875,-0.176025390625,-1.3732908964157104,0.7324218153953552,1.0681151151657104,100.0,126337.0,1.0
15:36:58.073516,176853.625,170989.15625,162590.4375,204598.046875,166105.296875,163356.21875,685802.25,161400.609375,-0.080322265625,0.992919921875,-0.175537109375,-1.2817381620407104,0.6408690810203552,1.0681151151657104,100.0,126338.0,1.0
15:36:58.075210,176822.953125,170968.046875,162573.640625,204608.59375,166095.46875,163331.71875,685866.875,161415.453125,-0.079345703125,0.9931640625,-0.177001953125,-1.1596678495407104,0.6713866591453552,1.1291502714157104,100.0,126339.0,1.0
