Timestamp,Fz,FC3,FCz,FC4,Cz,C3,C4
15:39:50.673526,176277.40625,170171.609375,160942.3125,198805.1875,163283.4375,163512.859375,686629.0,160356.875,-0.060302734375,1.00244140625,-0.076416015625,-2.777099370956421,0.3356933295726776,0.6713866591453552,100.0,169514.0,1.0
15:39:50.673542,176268.453125,170156.78125,160929.34375,198817.609375,163277.71875,163494.53125,686630.75,160364.46875,-0.059814453125,1.002197265625,-0.07568359375,-2.716064214706421,0.3356933295726776,0.7019042372703552,100.0,169515.0,1.0
15:39:50.679464,176288.578125,170165.1875,160934.171875,198819.140625,163281.296875,163504.265625,686639.625,160362.78125,-0.05859375,1.002197265625,-0.073486328125,-2.624511480331421,0.3356933295726776,0.6408690810203552,100.0,169516.0,1.0
15:39:50.683631,176324.0625,170174.75,160942.484375,198811.796875,163283.796875,163514.46875,686579.5625,160354.28125,-0.058349609375,1.002197265625,-0.073486328125,-2.471923589706421,0.4272460639476776,0.5493163466453552,100.0,169517.0,1.0
15:39:50.683658,176293.484375,170192.265625,160954.5625,198808.859375,163293.0,163530.828125,686597.25,160360.453125,-0.056640625,1.000244140625,-0.073974609375,-2.380370855331421,0.3967284858226776,0.6408690810203552,100.0,169518.0,1.0
15:39:50.690528,176280.078125,170168.671875,160938.109375,198822.4375,163284.234375,163504.71875,686631.3125,160368.046875,-0.056640625,1.0,-0.074462890625,-2.380370855331421,0.5493163466453552,0.6103515028953552,100.0,169519.0,1.0
15:39:50.694874,176285.625,170172.25,160937.65625,198820.75,163283.171875,163507.671875,686649.125,160364.46875,-0.0576171875,0.997802734375,-0.07275390625,-2.227782964706421,0.5187987685203552,0.4272460639476776,100.0,169520.0,1.0
15:39:50.694948,176324.34375,170171.890625,160939.359375,198812.875,163281.375,163512.5,686608.875,160354.640625,-0.059326171875,0.9990234375,-0.07177734375,-2.075195074081421,0.5493163466453552,0.4882812201976776,100.0,169521.0,1.0
15:39:50.700520,176286.703125,170180.734375,160944.546875,198800.265625,163283.703125,163520.546875,686588.5,160350.96875,-0.06103515625,0.9990234375,-0.0751953125,-2.014159917831421,0.4882812201976776,0.5493163466453552,100.0,169522.0,1.0
15:39:50.725362,176273.46875,170160.0,160931.3125,198815.015625,163276.90625,163497.125,686627.5625,160362.234375,-0.062255859375,1.0029296875,-0.070556640625,-1.8920897245407104,0.4882812201976776,0.5187987685203552,100.0,169523.0,1.0
15:39:50.757963,176263.546875,170148.28125,160923.453125,198818.515625,163271.984375,163489.703125,686625.3125,160361.4375,-0.0634765625,1.003173828125,-0.0712890625,-1.8310545682907104,0.4577636420726776,0.4882812201976776,100.0,169524.0,1.0
15:39:50.760491,176324.0625,170166.875,160939.0,198820.03125,163281.109375,163508.109375,686602.5,160358.484375,-0.062255859375,1.003173828125,-0.0703125,-1.7395018339157104,0.4272460639476776,0.6713866591453552,100.0,169525.0,1.0
15:39:50.763837,176295.734375,170184.046875,160946.15625,198802.140625,163283.96875,163524.5625,686585.1875,160348.65625,-0.061279296875,1.00146484375,-0.074951171875,-1.7395018339157104,0.4272460639476776,0.6713866591453552,100.0,169526.0,1.0
15:39:50.765616,176275.703125,170162.9375,160931.765625,198808.3125,163276.640625,163502.921875,686648.125,160354.90625,-0.062744140625,1.002197265625,-0.07568359375,-1.6174315214157104,0.3356933295726776,0.8239745497703552,100.0,169527.0,1.0
15:39:50.767867,176255.84375,170145.6875,160918.359375,198811.171875,163266.984375,163487.46875,686616.625,160354.46875,-0.06298828125,1.004150390625,-0.0751953125,-1.4343260526657104,0.2746581733226776,0.8239745497703552,100.0,169528.0,1.0
15:39:50.770810,176314.5,170166.34375,160933.28125,198816.90625,163277.0,163507.578125,686614.6875,160357.5,-0.063720703125,1.00390625,-0.072509765625,-1.3732908964157104,0.2746581733226776,0.7324218153953552,100.0,169529.0,1.0
15:39:50.772945,176301.0,170177.78125,160940.25,198798.296875,163280.125,163521.171875,686594.9375,160346.765625,-0.064208984375,1.005615234375,-0.073486328125,-1.2817381620407104,0.2746581733226776,0.7934569716453552,100.0,169530.0,1.0
15:39:50.775887,176274.453125,170172.15625,160933.015625,198802.765625,163276.734375,163510.625,686630.6875,160355.09375,-0.06396484375,1.00537109375,-0.07421875,-1.2207030057907104,0.2136230319738388,0.7629393935203552,100.0,169531.0,1.0
15:39:50.778240,176253.4375,170151.046875,160915.140625,198811.625,163264.5625,163489.609375,686600.375,160356.515625,-0.065185546875,1.0078125,-0.072265625,-1.2207030057907104,0.0,0.9155272841453552,100.0,169532.0,1.0
15:39:50.780744,176291.171875,170152.125,160917.90625,198802.953125,163263.5,163495.6875,686616.9375,160345.703125,-0.06591796875,1.0078125,-0.07373046875,-1.1901854276657104,-0.03051757626235485,0.7019042372703552,100.0,169533.0,1.0
15:39:50.782911,176299.296875,170168.046875,160934.265625,198797.40625,163274.9375,163513.65625,686561.5,160343.734375,-0.067138671875,1.007080078125,-0.073974609375,-1.1596678495407104,-0.1525878757238388,0.6713866591453552,100.0,169534.0,1.0
15:39:50.810604,176265.78125,170164.90625,160928.640625,198792.9375,163272.078125,163511.0625,686620.0625,160347.3125,-0.06640625,1.0078125,-0.074462890625,-1.2207030057907104,-0.2746581733226776,0.7629393935203552,100.0,169535.0,1.0
15:39:50.813008,176254.875,170148.8125,160916.828125,198809.03125,163265.015625,163490.140625,686621.375,160354.015625,-0.06591796875,1.009033203125,-0.07666015625,-1.2512205839157104,-0.4577636420726776,0.9155272841453552,100.0,169536.0,1.0
15:39:50.815427,176288.125,170161.609375,160923.890625,198811.984375,163268.328125,163500.96875,686631.125,160351.515625,-0.06689453125,1.0107421875,-0.07470703125,-1.1291502714157104,-0.4577636420726776,0.7629393935203552,100.0,169537.0,1.0
15:39:50.820424,176299.84375,170159.1875,160927.109375,198798.125,163269.046875,163507.578125,686576.25,160341.859375,-0.067626953125,1.011962890625,-0.073486328125,-1.1291502714157104,-0.6408690810203552,0.7324218153953552,100.0,169538.0,1.0
15:39:50.823646,176272.578125,170174.390625,160935.96875,198796.609375,163277.4375,163519.5625,686605.1875,160349.984375,-0.066162109375,1.011962890625,-0.073974609375,-1.1291502714157104,-0.7019042372703552,0.6713866591453552,100.0,169539.0,1.0
15:39:50.823711,176254.515625,170141.125,160913.875,198802.234375,163262.515625,163485.9375,686597.25,160348.296875,-0.063720703125,1.011962890625,-0.075439453125,-1.2512205839157104,-0.7629393935203552,0.7324218153953552,100.0,169540.0,1.0
15:39:50.826751,176265.15625,170144.265625,160915.046875,198802.328125,163261.265625,163488.796875,686629.375,160346.59375,-0.06396484375,1.010009765625,-0.074462890625,-1.3122557401657104,-0.7934569716453552,0.8239745497703552,100.0,169541.0,1.0
15:39:50.826830,176320.671875,170175.640625,160939.71875,198809.75,163279.140625,163517.0625,686596.0,160352.234375,-0.064208984375,1.010009765625,-0.07373046875,-1.3732908964157104,-0.7629393935203552,0.7629393935203552,100.0,169542.0,1.0
15:39:50.826862,176289.5625,170194.59375,160950.359375,198804.65625,163286.75,163532.171875,686618.5625,160355.453125,-0.062744140625,1.00732421875,-0.0732421875,-1.3732908964157104,-0.7934569716453552,0.7324218153953552,100.0,169543.0,1.0
15:39:50.832333,176271.765625,170162.234375,160932.203125,198823.34375,163278.421875,163503.203125,686637.375,160371.0,-0.06005859375,1.007080078125,-0.077392578125,-1.2512205839157104,-0.8239745497703552,0.8239745497703552,100.0,169544.0,1.0
15:39:50.832419,176267.921875,170152.578125,160924.515625,198820.390625,163271.453125,163494.609375,686634.625,160364.296875,-0.05712890625,1.005615234375,-0.07958984375,-1.2207030057907104,-0.8850097060203552,0.9155272841453552,100.0,169545.0,1.0
15:39:50.835392,176330.6875,170190.578125,160947.234375,198819.140625,163288.078125,163527.96875,686606.4375,160359.921875,-0.0556640625,1.006591796875,-0.08056640625,-1.1901854276657104,-0.8850097060203552,1.0681151151657104,100.0,169546.0,1.0
15:39:50.835446,176293.046875,170198.96875,160954.296875,198803.671875,163291.21875,163537.53125,686611.125,160352.671875,-0.053955078125,1.00830078125,-0.080078125,-1.0986326932907104,-0.7934569716453552,1.0681151151657104,100.0,169547.0,1.0
15:39:50.835456,176278.65625,170166.34375,160938.734375,198817.703125,163284.5,163507.75,686632.0625,160365.453125,-0.0537109375,1.00830078125,-0.075927734375,-1.1291502714157104,-0.6713866591453552,1.1901854276657104,100.0,169548.0,1.0
15:39:50.839378,176265.953125,170151.046875,160930.15625,198814.03125,163277.71875,163496.84375,686638.8125,160359.375,-0.05419921875,1.006103515625,-0.07763671875,-1.0681151151657104,-0.6103515028953552,1.1596678495407104,100.0,169549.0,1.0
15:39:50.839412,176333.8125,170177.609375,160953.21875,198827.71875,163295.859375,163522.234375,686616.625,160368.59375,-0.055419921875,1.006103515625,-0.079833984375,-1.0375975370407104,-0.4577636420726776,1.0986326932907104,100.0,169550.0,1.0
15:39:50.839421,176312.0,170197.984375,160963.765625,198820.203125,163301.3125,163537.796875,686578.6875,160367.25,-0.054443359375,1.0048828125,-0.076416015625,-0.9765624403953552,-0.4577636420726776,1.1596678495407104,100.0,169551.0,1.0
15:39:50.842239,176294.75,170180.46875,160950.984375,198829.234375,163293.890625,163515.453125,686659.9375,160372.703125,-0.053955078125,1.006591796875,-0.076416015625,-0.9155272841453552,-0.2746581733226776,1.0070799589157104,100.0,169552.0,1.0
15:39:50.842267,176276.6875,170166.078125,160938.46875,198824.046875,163283.609375,163500.78125,686659.9375,160364.65625,-0.054443359375,1.007568359375,-0.076904296875,-0.8850097060203552,-0.2136230319738388,0.9460448622703552,100.0,169553.0,1.0
15:39:50.844193,176337.03125,170188.34375,160952.5,198829.859375,163292.734375,163520.8125,686608.3125,160365.546875,-0.05615234375,1.00537109375,-0.078857421875,-0.9155272841453552,-0.1525878757238388,0.8850097060203552,100.0,169554.0,1.0
15:39:50.846688,176307.0,170180.828125,160949.375,198809.484375,163288.171875,163522.328125,686577.375,160352.234375,-0.05615234375,1.00390625,-0.08056640625,-0.9155272841453552,-0.1220703050494194,0.8850097060203552,100.0,169555.0,1.0
15:39:50.849732,176280.34375,170169.03125,160942.3125,198811.984375,163286.296875,163510.53125,686628.5625,160360.1875,-0.05517578125,1.003662109375,-0.0810546875,-0.8239745497703552,-0.0610351525247097,0.8850097060203552,100.0,169556.0,1.0
15:39:50.849756,176279.640625,170166.25,160940.078125,198834.953125,163287.90625,163501.765625,686620.6875,160376.453125,-0.056396484375,1.003173828125,-0.079345703125,-0.7629393935203552,0.0610351525247097,0.7629393935203552,100.0,169557.0,1.0
15:39:50.851727,176303.421875,170162.3125,160932.390625,198813.6875,163278.703125,163502.921875,686629.25,160354.109375,-0.056640625,1.00390625,-0.080322265625,-0.7019042372703552,0.0915527269244194,0.7324218153953552,100.0,169558.0,1.0
15:39:50.857920,176313.078125,170180.828125,160950.0,198816.0,163290.40625,163523.40625,686591.5,160356.515625,-0.055908203125,1.004150390625,-0.08056640625,-0.6713866591453552,0.1525878757238388,0.5798339247703552,100.0,169559.0,1.0
15:39:50.860410,176284.28125,170179.125,160949.203125,198812.609375,163289.0625,163518.578125,686627.125,160364.203125,-0.05419921875,1.00439453125,-0.081787109375,-0.5798339247703552,0.2441406100988388,0.6713866591453552,100.0,169560.0,1.0
15:39:50.862864,176273.90625,170165.09375,160938.015625,198824.671875,163282.984375,163501.3125,686593.5625,160369.296875,-0.052978515625,1.0068359375,-0.0810546875,-0.5187987685203552,0.1831054538488388,0.7629393935203552,100.0,169561.0,1.0
15:39:50.865974,176307.703125,170179.484375,160946.34375,198826.828125,163289.0625,163514.8125,686630.0625,160365.90625,-0.05322265625,1.006103515625,-0.082763671875,-0.5493163466453552,0.4882812201976776,0.7019042372703552,100.0,169562.0,1.0
15:39:50.866002,176334.796875,170197.546875,160961.53125,198830.3125,163301.140625,163535.734375,686561.125,160369.578125,-0.05322265625,1.005859375,-0.083251953125,-0.5187987685203552,0.4882812201976776,0.6408690810203552,100.0,169563.0,1.0
15:39:50.869132,176290.1875,170183.328125,160957.609375,198828.515625,163300.59375,163530.640625,686633.375,160377.703125,-0.05419921875,1.00732421875,-0.0830078125,-0.4577636420726776,0.6408690810203552,0.7019042372703552,100.0,169564.0,1.0
15:39:50.879769,176270.609375,170154.8125,160936.40625,198827.71875,163286.109375,163500.421875,686646.0,160372.34375,-0.05517578125,1.00830078125,-0.080810546875,-0.4577636420726776,0.6408690810203552,0.8544921278953552,100.0,169565.0,1.0
15:39:50.879797,176293.3125,170171.265625,160944.90625,198825.75,163290.3125,163514.90625,686625.625,160367.421875,-0.054931640625,1.00927734375,-0.084716796875,-0.5493163466453552,0.6713866591453552,0.9765624403953552,100.0,169566.0,1.0
15:39:50.886042,176347.046875,170205.5,160966.0,198825.578125,163305.96875,163544.5,686595.9375,160365.546875,-0.05712890625,1.010009765625,-0.0830078125,-0.5187987685203552,0.8850097060203552,1.0070799589157104,100.0,169567.0,1.0
15:39:50.886069,176299.296875,170201.5625,160963.953125,198813.046875,163304.359375,163545.578125,686616.8125,160364.5625,-0.0595703125,1.010498046875,-0.07861328125,-0.6103515028953552,0.8239745497703552,1.0986326932907104,100.0,169568.0,1.0
15:39:50.887878,176288.21875,170179.125,160949.640625,198836.296875,163297.46875,163519.828125,686636.5,160379.765625,-0.060791015625,1.00927734375,-0.07861328125,-0.6408690810203552,0.8544921278953552,1.0070799589157104,100.0,169569.0,1.0
15:39:50.899132,176287.40625,170171.078125,160945.171875,198834.328125,163292.90625,163515.625,686620.0625,160376.359375,-0.0615234375,1.00927734375,-0.08056640625,-0.7934569716453552,0.9155272841453552,1.0986326932907104,100.0,169570.0,1.0
15:39:50.903563,176342.578125,170194.59375,160959.484375,198837.375,163302.390625,163537.53125,686595.1875,160376.546875,-0.061279296875,1.009521484375,-0.081298828125,-0.7629393935203552,0.7629393935203552,1.1291502714157104,100.0,169571.0,1.0
15:39:50.903578,176288.75,170186.015625,160949.203125,198798.578125,163290.5,163532.875,686587.3125,160351.6875,-0.061767578125,1.0078125,-0.07958984375,-0.8239745497703552,0.7934569716453552,1.0986326932907104,100.0,169572.0,1.0
15:39:50.910992,176285.0,170170.90625,160944.90625,198822.703125,163292.28125,163514.28125,686647.25,160370.28125,-0.063232421875,1.010498046875,-0.078857421875,-0.9155272841453552,0.7629393935203552,1.0681151151657104,100.0,169573.0,1.0
15:39:50.911010,176283.75,170173.9375,160946.875,198843.28125,163293.890625,163515.0,686636.5625,160383.515625,-0.063232421875,1.011474609375,-0.08349609375,-1.0375975370407104,0.8239745497703552,0.9460448622703552,100.0,169574.0,1.0
15:39:50.918568,176336.234375,170183.15625,160955.28125,198847.46875,163296.671875,163523.84375,686604.875,160385.484375,-0.061767578125,1.012451171875,-0.0830078125,-1.0681151151657104,0.6103515028953552,0.9460448622703552,100.0,169575.0,1.0
15:39:50.918591,176307.890625,170196.296875,160957.6875,198812.078125,163295.0625,163535.390625,686586.25,160363.40625,-0.059814453125,1.012451171875,-0.08447265625,-1.1291502714157104,0.5187987685203552,0.9765624403953552,100.0,169576.0,1.0
15:39:50.925999,176289.46875,170184.21875,160948.296875,198820.390625,163292.375,163521.703125,686636.5625,160365.640625,-0.060302734375,1.010986328125,-0.082275390625,-1.1901854276657104,0.4577636420726776,0.9765624403953552,100.0,169577.0,1.0
15:39:50.926018,176276.0625,170168.671875,160940.4375,198836.125,163288.984375,163508.296875,686639.4375,160374.40625,-0.05859375,1.011474609375,-0.08056640625,-1.1901854276657104,0.4882812201976776,0.9765624403953552,100.0,169578.0,1.0
15:39:50.932262,176321.125,170175.28125,160943.125,198817.875,163288.53125,163518.84375,686602.4375,160358.84375,-0.0576171875,1.0107421875,-0.079345703125,-1.2817381620407104,0.5187987685203552,0.9155272841453552,100.0,169579.0,1.0
15:39:50.932295,176296.359375,170181.09375,160940.96875,198793.296875,163282.0,163523.046875,686573.375,160341.765625,-0.0576171875,1.011474609375,-0.08154296875,-1.3732908964157104,0.3967284858226776,0.9155272841453552,100.0,169580.0,1.0
15:39:50.934186,176290.453125,170197.28125,160949.90625,198812.15625,163292.203125,163529.390625,686652.875,160361.96875,-0.056396484375,1.0087890625,-0.080322265625,-1.3427733182907104,0.3662109076976776,0.7934569716453552,100.0,169581.0,1.0
15:39:50.951668,176281.59375,170183.859375,160942.671875,198830.21875,163289.78125,163515.984375,686583.3125,160370.015625,-0.058349609375,1.007568359375,-0.079833984375,-1.3427733182907104,0.2441406100988388,0.9460448622703552,100.0,169582.0,1.0
15:39:50.955530,176302.34375,170154.546875,160933.109375,198824.3125,163279.046875,163499.359375,686609.5,160363.3125,-0.05908203125,1.007568359375,-0.077880859375,-1.3732908964157104,0.3356933295726776,0.8239745497703552,100.0,169583.0,1.0
15:39:50.955553,176323.171875,170180.46875,160954.5625,198834.875,163294.4375,163523.9375,686572.125,160375.109375,-0.059814453125,1.0068359375,-0.07958984375,-1.3427733182907104,0.2746581733226776,0.7324218153953552,100.0,169584.0,1.0
15:39:50.955561,176284.375,170176.265625,160946.78125,198815.203125,163289.875,163518.390625,686648.0625,160373.859375,-0.06005859375,1.005859375,-0.07763671875,-1.4343260526657104,0.2441406100988388,0.8850097060203552,100.0,169585.0,1.0
15:39:50.960394,176270.875,170162.3125,160932.75,198822.53125,163280.65625,163499.0,686613.375,160368.046875,-0.0595703125,1.00732421875,-0.079833984375,-1.3732908964157104,0.2441406100988388,0.7934569716453552,100.0,169586.0,1.0
15:39:50.962853,176298.59375,170168.21875,160939.90625,198829.859375,163285.3125,163507.21875,686631.9375,160370.90625,-0.058349609375,1.0078125,-0.08154296875,-1.3427733182907104,0.2136230319738388,0.7324218153953552,100.0,169587.0,1.0
15:39:50.965446,176327.90625,170187.265625,160954.203125,198827.984375,163294.15625,163525.734375,686568.8125,160367.25,-0.059814453125,1.005615234375,-0.08203125,-1.2512205839157104,0.0610351525247097,0.7324218153953552,100.0,169588.0,1.0
15:39:50.971643,176289.640625,170193.4375,160952.59375,198814.65625,163290.9375,163529.578125,686621.1875,160361.609375,-0.05859375,1.00634765625,-0.08251953125,-1.2512205839157104,0.1220703050494194,0.7019042372703552,100.0,169589.0,1.0
15:39:50.975240,176272.578125,170160.890625,160933.734375,198825.390625,163282.265625,163499.265625,686658.875,160372.34375,-0.059326171875,1.005859375,-0.081298828125,-1.1901854276657104,-0.03051757626235485,0.6103515028953552,100.0,169590.0,1.0
15:39:50.975290,176277.84375,170152.75,160928.640625,198821.734375,163276.8125,163495.515625,686643.125,160365.90625,-0.057861328125,1.005859375,-0.0810546875,-1.1901854276657104,-0.0915527269244194,0.5493163466453552,100.0,169591.0,1.0
15:39:50.980409,176328.890625,170172.328125,160946.96875,198833.265625,163288.890625,163514.46875,686603.9375,160370.015625,-0.05908203125,1.003173828125,-0.08056640625,-1.1901854276657104,-0.1220703050494194,0.5493163466453552,100.0,169592.0,1.0
15:39:50.989759,176288.9375,170187.359375,160953.671875,198812.34375,163292.640625,163528.40625,686609.6875,160363.40625,-0.058349609375,1.004638671875,-0.080810546875,-1.1901854276657104,-0.1220703050494194,0.5493163466453552,100.0,169593.0,1.0
15:39:50.989777,176276.0625,170163.125,160937.21875,198823.34375,163283.796875,163502.84375,686616.8125,160371.359375,-0.0595703125,1.00537109375,-0.08251953125,-1.2207030057907104,-0.1220703050494194,0.4577636420726776,100.0,169594.0,1.0
15:39:50.991753,176279.984375,170167.859375,160940.25,198834.15625,163286.390625,163508.109375,686633.4375,160382.09375,-0.060791015625,1.0068359375,-0.08203125,-1.1596678495407104,-0.1831054538488388,0.4577636420726776,100.0,169595.0,1.0
15:39:50.997895,176335.25,170189.40625,160954.828125,198831.5625,163296.84375,163527.78125,686582.875,160373.328125,-0.059814453125,1.00927734375,-0.08056640625,-1.1291502714157104,-0.3356933295726776,0.3356933295726776,100.0,169596.0,1.0
15:39:51.013591,176292.78125,170186.015625,160954.5625,198822.265625,163294.15625,163528.140625,686609.25,160362.421875,-0.060302734375,1.009033203125,-0.078125,-1.1596678495407104,-0.3356933295726776,0.3967284858226776,100.0,169597.0,1.0
15:39:51.013616,176296.890625,170184.84375,160957.6875,198856.78125,163302.296875,163520.71875,686622.9375,160398.8125,-0.06005859375,1.0078125,-0.079833984375,-1.1901854276657104,-0.4577636420726776,0.3967284858226776,100.0,169598.0,1.0
15:39:51.015368,176274.71875,170166.15625,160939.359375,198817.53125,163287.640625,163506.328125,686595.9375,160365.90625,-0.060791015625,1.00830078125,-0.07958984375,-1.1901854276657104,-0.4577636420726776,0.3662109076976776,100.0,169599.0,1.0
15:39:51.017886,176318.53125,170170.28125,160942.046875,198810.015625,163285.9375,163512.40625,686580.6875,160352.859375,-0.060546875,1.00830078125,-0.082275390625,-1.2817381620407104,-0.4882812201976776,0.3051757514476776,100.0,169600.0,1.0
15:39:51.020431,176305.390625,170192.265625,160956.34375,198805.90625,163294.34375,163533.328125,686582.9375,160356.78125,-0.060302734375,1.00830078125,-0.07958984375,-1.2512205839157104,-0.4577636420726776,0.3051757514476776,100.0,169601.0,1.0
15:39:51.022884,176288.390625,170174.921875,160948.125,198832.453125,163290.671875,163513.84375,686660.375,160378.421875,-0.06005859375,1.0087890625,-0.08203125,-1.2512205839157104,-0.4272460639476776,0.4272460639476776,100.0,169602.0,1.0
15:39:51.026677,176278.03125,170163.03125,160942.21875,198857.3125,163286.46875,163501.59375,686618.0,160389.328125,-0.05810546875,1.00927734375,-0.081787109375,-1.2512205839157104,-0.4882812201976776,0.3967284858226776,100.0,169603.0,1.0
15:39:51.034731,176314.953125,170171.609375,160939.90625,198823.25,163282.546875,163512.5,686622.75,160366.359375,-0.056884765625,1.010498046875,-0.0830078125,-1.3427733182907104,-0.5493163466453552,0.3967284858226776,100.0,169604.0,1.0
15:39:51.034748,176301.265625,170187.078125,160945.265625,198797.5,163282.453125,163523.140625,686561.25,160343.46875,-0.0576171875,1.010986328125,-0.0830078125,-1.4038084745407104,-0.5187987685203552,0.3967284858226776,100.0,169605.0,1.0
15:39:51.037222,176297.515625,170197.28125,160960.109375,198828.609375,163301.046875,163532.703125,686628.0,160377.34375,-0.05908203125,1.010009765625,-0.085693359375,-1.3427733182907104,-0.6408690810203552,0.3967284858226776,100.0,169606.0,1.0
15:39:51.037243,176300.375,170192.1875,160962.078125,198864.1875,163306.765625,163525.546875,686618.6875,160400.15625,-0.058837890625,1.0087890625,-0.082763671875,-1.3122557401657104,-0.7019042372703552,0.3967284858226776,100.0,169607.0,1.0
15:39:51.046962,176333.71875,170184.671875,160964.9375,198885.46875,163306.140625,163523.40625,686646.0,160410.15625,-0.059326171875,1.0107421875,-0.083984375,-1.4648436307907104,-0.6408690810203552,0.5187987685203552,100.0,169608.0,1.0
15:39:51.049735,176317.546875,170188.34375,160952.78125,198816.984375,163292.109375,163527.515625,686575.5,160358.03125,-0.05810546875,1.01025390625,-0.079833984375,-1.4953612089157104,-0.5798339247703552,0.4577636420726776,100.0,169609.0,1.0
15:39:51.049760,176280.265625,170180.296875,160948.296875,198811.71875,163290.9375,163523.046875,686640.6875,160365.015625,-0.05859375,1.01025390625,-0.078857421875,-1.4038084745407104,-0.6103515028953552,0.4577636420726776,100.0,169610.0,1.0
15:39:51.052906,176275.34375,170163.65625,160942.765625,198840.328125,163291.65625,163504.625,686632.5625,160397.28125,-0.056884765625,1.01171875,-0.080322265625,-1.5258787870407104,-0.6103515028953552,0.4882812201976776,100.0,169611.0,1.0
15:39:51.062970,176293.578125,170161.421875,160935.78125,198817.703125,163282.359375,163503.734375,686637.3125,160370.734375,-0.0546875,1.010986328125,-0.083740234375,-1.5869139432907104,-0.5493163466453552,0.4577636420726776,100.0,169612.0,1.0
15:39:51.067255,176323.890625,170180.734375,160947.5,198824.140625,163287.71875,163517.859375,686573.625,160356.421875,-0.0556640625,1.010986328125,-0.081787109375,-1.6479490995407104,-0.6103515028953552,0.4272460639476776,100.0,169613.0,1.0
15:39:51.067286,176289.296875,170191.28125,160952.140625,198822.625,163293.890625,163528.40625,686608.0,160364.921875,-0.055908203125,1.009521484375,-0.082275390625,-1.6784666776657104,-0.6713866591453552,0.4272460639476776,100.0,169614.0,1.0
15:39:51.092918,176269.078125,170149.09375,160929.34375,198829.421875,163279.40625,163492.375,686620.25,160371.1875,-0.0556640625,1.009033203125,-0.082275390625,-1.7700194120407104,-0.4882812201976776,0.3967284858226776,100.0,169615.0,1.0
15:39:51.115557,176296.984375,170176.71875,160949.375,198859.09375,163295.5,163516.34375,686637.5,160392.90625,-0.0556640625,1.009033203125,-0.081787109375,-1.8615721464157104,-0.3967284858226776,0.3051757514476776,100.0,169616.0,1.0
15:39:51.118535,176340.515625,170198.078125,160960.734375,198845.6875,163302.84375,163536.375,686597.4375,160380.921875,-0.055419921875,1.009033203125,-0.082763671875,-1.8005369901657104,-0.3662109076976776,0.3356933295726776,100.0,169617.0,1.0
15:39:51.121197,176302.875,170205.0625,160969.671875,198853.109375,163310.703125,163546.734375,686606.625,160392.734375,-0.055419921875,1.007568359375,-0.083251953125,-1.8310545682907104,-0.2746581733226776,0.3662109076976776,100.0,169618.0,1.0
15:39:51.123061,176282.578125,170173.765625,160943.75,198829.953125,163291.75,163511.15625,686627.125,160370.46875,-0.057373046875,1.008056640625,-0.08056640625,-1.7395018339157104,-0.2441406100988388,0.3356933295726776,100.0,169619.0,1.0
15:39:51.125423,176269.890625,170156.953125,160933.8125,198816.625,163282.546875,163501.140625,686606.5625,160363.140625,-0.054443359375,1.008056640625,-0.08056640625,-1.8615721464157104,-0.2136230319738388,0.3662109076976776,100.0,169620.0,1.0
15:39:51.127915,176334.078125,170181.265625,160955.09375,198828.25,163298.640625,163521.4375,686594.1875,160375.203125,-0.056396484375,1.009765625,-0.08349609375,-1.9226073026657104,-0.2136230319738388,0.3662109076976776,100.0,169621.0,1.0
15:39:51.130672,176306.546875,170202.109375,160966.1875,198815.46875,163306.328125,163541.1875,686563.4375,160370.828125,-0.057861328125,1.0087890625,-0.083740234375,-1.8615721464157104,-0.1831054538488388,0.2746581733226776,100.0,169622.0,1.0
15:39:51.132865,176291.078125,170182.875,160952.6875,198835.234375,163298.8125,163518.84375,686622.0,160384.40625,-0.057861328125,1.0087890625,-0.081298828125,-1.7395018339157104,-0.03051757626235485,0.1831054538488388,100.0,169623.0,1.0
15:39:51.135408,176285.265625,170179.3125,160950.71875,198870.984375,163297.828125,163515.359375,686620.5625,160403.546875,-0.056884765625,1.00732421875,-0.08251953125,-1.7395018339157104,-0.0610351525247097,0.3662109076976776,100.0,169624.0,1.0
15:39:51.137926,176330.953125,170178.046875,160952.328125,198847.46875,163299.53125,163522.515625,686607.375,160382.625,-0.05712890625,1.007080078125,-0.083740234375,-1.8615721464157104,0.03051757626235485,0.2136230319738388,100.0,169625.0,1.0
15:39:51.140406,176300.28125,170190.578125,160952.78125,198800.09375,163296.84375,163534.40625,686569.1875,160347.671875,-0.057373046875,1.0087890625,-0.081787109375,-1.9226073026657104,0.0,0.3662109076976776,100.0,169626.0,1.0
15:39:51.142860,176288.9375,170186.09375,160950.71875,198818.59375,163298.09375,163525.28125,686635.1875,160372.796875,-0.05859375,1.007568359375,-0.08349609375,-1.9531248807907104,0.03051757626235485,0.3967284858226776,100.0,169627.0,1.0
15:39:51.145441,176276.6875,170176.71875,160946.34375,198848.1875,163297.828125,163515.171875,686625.875,160396.484375,-0.059326171875,1.006591796875,-0.079833984375,-1.8920897245407104,0.0915527269244194,0.3662109076976776,100.0,169628.0,1.0
15:39:51.150946,176336.40625,170191.5625,160963.0625,198869.734375,163306.953125,163529.484375,686631.875,160393.984375,-0.05810546875,1.00634765625,-0.080322265625,-1.9226073026657104,0.03051757626235485,0.3967284858226776,100.0,169629.0,1.0
15:39:51.150959,176319.421875,170200.859375,160961.09375,198821.09375,163300.515625,163537.078125,686562.75,160359.375,-0.0576171875,1.005615234375,-0.0830078125,-1.9226073026657104,0.2136230319738388,0.3662109076976776,100.0,169630.0,1.0
15:39:51.152862,176290.625,170190.921875,160954.5625,198820.65625,163300.328125,163529.65625,686637.375,160369.125,-0.05712890625,1.00830078125,-0.081787109375,-1.8920897245407104,0.1220703050494194,0.4577636420726776,100.0,169631.0,1.0
15:39:51.155986,176285.0,170181.0,160952.234375,198846.765625,163302.03125,163518.9375,686646.1875,160390.5,-0.059326171875,1.008544921875,-0.082275390625,-1.9531248807907104,0.03051757626235485,0.4577636420726776,100.0,169632.0,1.0
15:39:51.155997,176324.6875,170183.859375,160957.953125,198847.75,163302.84375,163523.9375,686647.75,160389.515625,-0.057861328125,1.009765625,-0.0791015625,-1.9531248807907104,0.0915527269244194,0.6713866591453552,100.0,169633.0,1.0
15:39:51.157895,176332.46875,170201.921875,160966.0,198834.15625,163307.3125,163540.921875,686600.9375,160384.140625,-0.05859375,1.01171875,-0.079345703125,-1.9531248807907104,0.03051757626235485,0.6408690810203552,100.0,169634.0,1.0
15:39:51.160931,176287.40625,170194.5,160951.25,198809.5625,163293.453125,163529.296875,686641.875,160363.5,-0.057373046875,1.010986328125,-0.077880859375,-2.044677495956421,0.1525878757238388,0.6713866591453552,100.0,169635.0,1.0
15:39:51.160937,176281.421875,170175.015625,160943.46875,198844.609375,163289.875,163507.125,686624.5,160383.609375,-0.058837890625,1.009765625,-0.078369140625,-2.075195074081421,0.1525878757238388,0.7019042372703552,100.0,169636.0,1.0
15:39:51.162894,176304.75,170174.5625,160947.140625,198842.109375,163291.390625,163514.1875,686632.5,160377.703125,-0.05908203125,1.009521484375,-0.0810546875,-2.105712652206421,0.1525878757238388,0.7019042372703552,100.0,169637.0,1.0
15:39:51.165365,176345.4375,170197.640625,160970.828125,198871.703125,163309.359375,163536.8125,686562.1875,160401.671875,-0.05810546875,1.00830078125,-0.07861328125,-2.105712652206421,0.1220703050494194,0.7324218153953552,100.0,169638.0,1.0
15:39:51.170447,176285.625,170181.625,160952.140625,198812.96875,163293.453125,163526.0,686622.4375,160367.875,-0.059326171875,1.0078125,-0.078125,-2.105712652206421,0.0915527269244194,0.7629393935203552,100.0,169639.0,1.0
15:39:51.177943,176281.875,170175.375,160945.796875,198833.625,163293.53125,163513.03125,686614.0,160389.875,-0.059814453125,1.007080078125,-0.078857421875,-2.014159917831421,0.1831054538488388,0.7324218153953552,100.0,169640.0,1.0
15:39:51.178519,176310.21875,170187.796875,160961.09375,198864.734375,163303.734375,163522.234375,686624.875,160398.890625,-0.060302734375,1.005615234375,-0.08056640625,-2.014159917831421,0.1525878757238388,0.7629393935203552,100.0,169641.0,1.0
15:39:51.183523,176360.09375,170202.015625,160973.6875,198866.609375,163309.90625,163537.890625,686618.5625,160393.09375,-0.06005859375,1.00634765625,-0.082275390625,-2.044677495956421,0.1220703050494194,0.7629393935203552,100.0,169642.0,1.0
15:39:51.183541,176301.71875,170194.0625,160961.265625,198818.234375,163298.71875,163535.65625,686588.5,160370.28125,-0.06005859375,1.007568359375,-0.080078125,-1.9836424589157104,0.0610351525247097,0.7629393935203552,100.0,169643.0,1.0
15:39:51.187370,176284.546875,170165.53125,160942.671875,198842.375,163288.53125,163504.8125,686640.25,160387.8125,-0.058837890625,1.0048828125,-0.079833984375,-2.044677495956421,0.2136230319738388,0.7934569716453552,100.0,169644.0,1.0
15:39:51.194091,176273.734375,170154.71875,160931.140625,198839.421875,163277.625,163495.0625,686651.6875,160379.3125,-0.059814453125,1.006103515625,-0.077880859375,-2.014159917831421,0.2746581733226776,0.7934569716453552,100.0,169645.0,1.0
15:39:51.203525,176329.34375,170173.3125,160941.328125,198830.484375,163284.59375,163512.3125,686626.25,160369.75,-0.057861328125,1.0068359375,-0.077880859375,-1.9226073026657104,0.1831054538488388,0.7019042372703552,100.0,169646.0,1.0
15:39:51.203534,176299.578125,170184.046875,160952.953125,198841.3125,163291.03125,163524.921875,686603.875,160380.84375,-0.059326171875,1.006591796875,-0.077880859375,-1.8920897245407104,0.1220703050494194,0.6408690810203552,100.0,169647.0,1.0
15:39:51.205404,176283.921875,170167.421875,160941.234375,198848.734375,163284.6875,163502.03125,686614.0625,160393.625,-0.0595703125,1.006103515625,-0.078125,-1.9531248807907104,0.1831054538488388,0.7324218153953552,100.0,169648.0,1.0
15:39:51.207917,176266.671875,170157.765625,160928.28125,198826.203125,163275.390625,163493.09375,686628.125,160377.171875,-0.059814453125,1.005126953125,-0.078125,-1.9226073026657104,0.1831054538488388,0.5187987685203552,100.0,169649.0,1.0
15:39:51.219292,176323.171875,170169.5625,160941.0625,198825.390625,163282.90625,163506.328125,686634.4375,160373.234375,-0.059326171875,1.004150390625,-0.078857421875,-1.9226073026657104,0.2441406100988388,0.5493163466453552,100.0,169650.0,1.0
15:39:51.224163,176304.578125,170178.859375,160951.34375,198820.203125,163288.359375,163521.53125,686565.8125,160362.421875,-0.05908203125,1.0048828125,-0.079345703125,-1.8310545682907104,0.1831054538488388,0.5493163466453552,100.0,169651.0,1.0
15:39:51.224174,176286.703125,170172.421875,160944.015625,198831.65625,163285.21875,163510.34375,686636.3125,160374.484375,-0.06201171875,1.005615234375,-0.0751953125,-1.8310545682907104,0.1220703050494194,0.4882812201976776,100.0,169652.0,1.0
15:39:51.224176,176263.890625,170153.375,160925.0625,198834.421875,163269.75,163487.90625,686639.0,160367.78125,-0.05908203125,1.007568359375,-0.078857421875,-1.7395018339157104,0.1220703050494194,0.4577636420726776,100.0,169653.0,1.0
15:39:51.226629,176323.625,170170.8125,160944.09375,198864.46875,163283.609375,163504.8125,686613.1875,160391.125,-0.057861328125,1.006591796875,-0.07861328125,-1.7089842557907104,0.0610351525247097,0.4577636420726776,100.0,169654.0,1.0
15:39:51.232926,176310.390625,170179.3125,160947.765625,198830.9375,163285.578125,163517.234375,686571.5,160383.34375,-0.05859375,1.00830078125,-0.07568359375,-1.7395018339157104,0.0915527269244194,0.3051757514476776,100.0,169655.0,1.0
15:39:51.243633,176273.203125,170172.15625,160933.46875,198793.5625,163275.125,163506.6875,686648.375,160354.734375,-0.058349609375,1.007080078125,-0.0732421875,-1.7089842557907104,0.0610351525247097,0.3051757514476776,100.0,169656.0,1.0
15:39:51.243710,176269.265625,170166.875,160927.5625,198822.171875,163272.171875,163495.78125,686631.5,160358.21875,-0.056884765625,1.00732421875,-0.07666015625,-1.7089842557907104,0.1220703050494194,0.2746581733226776,100.0,169657.0,1.0
15:39:51.245758,176303.234375,170160.359375,160932.125,198834.953125,163275.75,163500.421875,686630.3125,160369.65625,-0.057861328125,1.00732421875,-0.07763671875,-1.8005369901657104,0.1220703050494194,0.4577636420726776,100.0,169658.0,1.0
15:39:51.256433,176324.25,170181.265625,160950.0,198836.484375,163287.375,163520.359375,686560.3125,160368.671875,-0.056640625,1.00732421875,-0.07763671875,-1.9226073026657104,0.1831054538488388,0.5187987685203552,100.0,169659.0,1.0
15:39:51.256529,176295.640625,170176.265625,160952.953125,198854.71875,163291.296875,163514.28125,686628.125,160386.296875,-0.0576171875,1.0068359375,-0.07763671875,-1.8615721464157104,0.2441406100988388,0.5798339247703552,100.0,169660.0,1.0
15:39:51.259395,176270.875,170149.4375,160931.046875,198842.734375,163278.421875,163487.1875,686638.125,160385.21875,-0.06005859375,1.005859375,-0.076416015625,-1.8310545682907104,0.1831054538488388,0.6103515028953552,100.0,169661.0,1.0
15:39:51.259483,176287.859375,170152.484375,160929.796875,198836.75,163275.125,163493.0,686641.625,160376.015625,-0.059326171875,1.005126953125,-0.07763671875,-1.8310545682907104,0.1220703050494194,0.4882812201976776,100.0,169662.0,1.0
15:39:51.265564,176326.578125,170176.171875,160945.703125,198836.296875,163286.203125,163514.640625,686578.6875,160374.21875,-0.0615234375,1.00341796875,-0.076416015625,-1.8310545682907104,0.1525878757238388,0.4882812201976776,100.0,169663.0,1.0
15:39:51.274968,176305.921875,170199.0625,160964.3125,198858.390625,163304.0,163535.109375,686586.25,160400.859375,-0.061767578125,1.0048828125,-0.075439453125,-1.6784666776657104,0.1220703050494194,0.3051757514476776,100.0,169664.0,1.0
15:39:51.275065,176282.234375,170167.59375,160937.390625,198846.578125,163286.203125,163504.8125,686669.0625,160385.84375,-0.062744140625,1.00537109375,-0.07763671875,-1.5869139432907104,0.0915527269244194,0.3051757514476776,100.0,169665.0,1.0
15:39:51.282636,176277.40625,170154.265625,160923.0,198813.859375,163270.109375,163494.96875,686639.625,160350.796875,-0.060302734375,1.00390625,-0.0771484375,-1.5563963651657104,-0.0610351525247097,0.3356933295726776,100.0,169666.0,1.0
15:39:51.282714,176317.90625,170170.09375,160932.921875,198813.140625,163276.1875,163510.265625,686579.75,160355.984375,-0.058837890625,1.00634765625,-0.078857421875,-1.5258787870407104,-0.03051757626235485,0.3356933295726776,100.0,169667.0,1.0
15:39:51.284922,176280.796875,170171.796875,160938.921875,198813.140625,163278.875,163512.5,686615.25,160367.25,-0.058349609375,1.005615234375,-0.077392578125,-1.4648436307907104,-0.0610351525247097,0.3356933295726776,100.0,169668.0,1.0
15:39:51.285007,176273.546875,170154.265625,160925.859375,198815.015625,163271.90625,163492.015625,686624.5,160358.484375,-0.05859375,1.00634765625,-0.074462890625,-1.4038084745407104,-0.1525878757238388,0.3356933295726776,100.0,169669.0,1.0
15:39:51.297403,176278.734375,170160.53125,160929.53125,198822.625,163274.3125,163496.671875,686625.3125,160357.59375,-0.060302734375,1.00634765625,-0.078369140625,-1.4038084745407104,-0.0915527269244194,0.3356933295726776,100.0,169670.0,1.0
15:39:51.302657,176344.546875,170180.296875,160950.53125,198853.5625,163289.421875,163518.3125,686615.75,160385.578125,-0.060302734375,1.00634765625,-0.077880859375,-1.3732908964157104,-0.1220703050494194,0.3051757514476776,100.0,169671.0,1.0
15:39:51.302747,176319.0625,170201.84375,160966.453125,198880.828125,163300.6875,163538.421875,686585.4375,160409.453125,-0.059326171875,1.00732421875,-0.079833984375,-1.2817381620407104,-0.0915527269244194,0.3662109076976776,100.0,169672.0,1.0
15:39:51.304908,176275.15625,170159.71875,160925.328125,198827.984375,163269.9375,163500.0625,686637.75,160364.203125,-0.058837890625,1.00732421875,-0.07763671875,-1.2817381620407104,-0.1525878757238388,0.3051757514476776,100.0,169673.0,1.0
15:39:51.305011,176264.875,170151.859375,160920.765625,198821.375,163265.734375,163490.59375,686612.1875,160359.375,-0.06005859375,1.00927734375,-0.07470703125,-1.2207030057907104,-0.1831054538488388,0.2136230319738388,100.0,169674.0,1.0
15:39:51.319405,176328.1875,170171.703125,160938.375,198831.46875,163279.40625,163511.953125,686598.875,160368.765625,-0.062255859375,1.009765625,-0.076904296875,-1.0986326932907104,-0.3356933295726776,0.0915527269244194,100.0,169675.0,1.0
15:39:51.325635,176297.875,170175.28125,160941.953125,198817.34375,163279.140625,163519.109375,686577.5,160365.546875,-0.062255859375,1.011474609375,-0.076416015625,-1.1596678495407104,-0.2441406100988388,-0.0610351525247097,100.0,169676.0,1.0
15:39:51.325718,176283.484375,170176.625,160938.734375,198825.125,163280.9375,163514.46875,686647.9375,160378.609375,-0.06298828125,1.008544921875,-0.076171875,-1.2512205839157104,-0.3662109076976776,-0.1220703050494194,100.0,169677.0,1.0
15:39:51.325741,176269.078125,170153.375,160928.90625,198834.59375,163276.28125,163495.953125,686627.9375,160377.171875,-0.063720703125,1.009521484375,-0.07470703125,-1.2817381620407104,-0.3967284858226776,-0.1220703050494194,100.0,169678.0,1.0
15:39:51.328004,176315.390625,170163.75,160933.28125,198822.171875,163276.90625,163506.140625,686615.75,160358.125,-0.06298828125,1.009765625,-0.0732421875,-1.2817381620407104,-0.5187987685203552,-0.1525878757238388,100.0,169679.0,1.0
15:39:51.330484,176308.25,170179.84375,160940.4375,198809.921875,163279.40625,163520.8125,686579.125,160350.53125,-0.06298828125,1.010498046875,-0.075439453125,-1.3427733182907104,-0.6103515028953552,-0.1525878757238388,100.0,169680.0,1.0
15:39:51.340602,176281.0625,170166.15625,160936.953125,198830.046875,163278.078125,163505.4375,686655.125,160375.390625,-0.0634765625,1.013671875,-0.078125,-1.4038084745407104,-0.6103515028953552,-0.1831054538488388,100.0,169681.0,1.0
15:39:51.344842,176305.46875,170179.21875,160958.765625,198912.75,163299.96875,163508.65625,686667.875,160429.828125,-0.060546875,1.012451171875,-0.073974609375,-1.4038084745407104,-0.5798339247703552,-0.0610351525247097,100.0,169682.0,1.0
15:39:51.344912,176335.953125,170185.65625,160960.546875,198879.390625,163302.65625,163522.953125,686663.5625,160416.953125,-0.061279296875,1.0126953125,-0.077392578125,-1.4343260526657104,-0.6713866591453552,-0.03051757626235485,100.0,169683.0,1.0
15:39:51.351128,176319.515625,170172.59375,160942.21875,198808.140625,163282.453125,163517.5,686592.0625,160361.078125,-0.06103515625,1.01171875,-0.075439453125,-1.6174315214157104,-0.7324218153953552,0.1220703050494194,100.0,169684.0,1.0
15:39:51.351193,176286.25,170175.546875,160942.9375,198816.8125,163283.609375,163517.859375,686587.3125,160365.640625,-0.061279296875,1.014404296875,-0.0771484375,-1.6784666776657104,-0.6408690810203552,0.2136230319738388,100.0,169685.0,1.0
15:39:51.356922,176286.875,170163.390625,160942.21875,198855.34375,163290.5,163502.921875,686605.3125,160409.09375,-0.05908203125,1.01513671875,-0.077880859375,-1.7700194120407104,-0.7324218153953552,0.3051757514476776,100.0,169686.0,1.0
15:39:51.363888,176302.875,170172.0625,160943.203125,198852.125,163290.765625,163513.84375,686618.875,160400.0625,-0.059326171875,1.01513671875,-0.075927734375,-1.8615721464157104,-0.7324218153953552,0.4272460639476776,100.0,169687.0,1.0
15:39:51.363982,176340.78125,170183.953125,160960.375,198892.984375,163302.390625,163526.890625,686562.1875,160409.53125,-0.058349609375,1.013916015625,-0.075927734375,-1.9531248807907104,-0.5493163466453552,0.4577636420726776,100.0,169688.0,1.0
15:39:51.372939,176286.515625,170172.875,160941.59375,198833.34375,163282.09375,163512.671875,686608.625,160383.15625,-0.05712890625,1.012451171875,-0.0751953125,-2.014159917831421,-0.5493163466453552,0.5493163466453552,100.0,169689.0,1.0
15:39:51.382886,176305.921875,170174.921875,160955.28125,198884.3125,163301.40625,163510.265625,686601.1875,160432.515625,-0.0576171875,1.01025390625,-0.074951171875,-2.136230230331421,-0.5187987685203552,0.6103515028953552,100.0,169690.0,1.0
15:39:51.382926,176314.0625,170172.59375,160960.46875,198901.828125,163309.28125,163514.46875,686610.1875,160456.125,-0.06005859375,1.01123046875,-0.075927734375,-2.258300542831421,-0.4882812201976776,0.6103515028953552,100.0,169691.0,1.0
15:39:51.382939,176324.0625,170161.78125,160932.03125,198811.4375,163275.828125,163502.84375,686581.625,160351.6875,-0.061279296875,1.00830078125,-0.074951171875,-2.319335699081421,-0.4577636420726776,0.5798339247703552,100.0,169692.0,1.0
15:39:51.386165,176293.21875,170175.28125,160943.125,198824.40625,163279.859375,163512.671875,686639.5625,160359.015625,-0.0615234375,1.010009765625,-0.073486328125,-2.380370855331421,-0.4272460639476776,0.6713866591453552,100.0,169693.0,1.0
15:39:51.386235,176283.484375,170155.4375,160933.734375,198844.796875,163278.703125,163493.0,686630.9375,160376.8125,-0.06201171875,1.007080078125,-0.076904296875,-2.319335699081421,-0.4272460639476776,0.7324218153953552,100.0,169694.0,1.0
15:39:51.393048,176298.59375,170166.875,160949.640625,198880.109375,163294.96875,163505.609375,686637.9375,160422.765625,-0.060546875,1.00927734375,-0.07666015625,-2.410888433456421,-0.3356933295726776,0.7324218153953552,100.0,169695.0,1.0
15:39:51.403570,176345.53125,170174.203125,160951.875,198860.0,163293.453125,163515.265625,686617.4375,160396.65625,-0.059814453125,1.00732421875,-0.076171875,-2.441406011581421,-0.3051757514476776,0.7629393935203552,100.0,169696.0,1.0
15:39:51.403593,176310.84375,170186.546875,160957.953125,198859.640625,163295.421875,163526.359375,686574.375,160398.453125,-0.059814453125,1.005615234375,-0.075927734375,-2.349853277206421,-0.3662109076976776,0.8544921278953552,100.0,169697.0,1.0
15:39:51.411668,176301.265625,170171.96875,160953.84375,198890.21875,163298.640625,163509.640625,686644.4375,160426.796875,-0.057861328125,1.00439453125,-0.073486328125,-2.258300542831421,-0.3662109076976776,0.8239745497703552,100.0,169698.0,1.0
15:39:51.414177,176301.984375,170176.890625,160960.640625,198903.625,163307.84375,163514.015625,686615.125,160453.4375,-0.055419921875,1.00341796875,-0.076416015625,-2.288818120956421,-0.3051757514476776,0.7629393935203552,100.0,169699.0,1.0
15:39:51.417369,176356.078125,170188.96875,160968.234375,198897.640625,163312.046875,163529.484375,686608.3125,160451.109375,-0.05712890625,1.0029296875,-0.076171875,-2.288818120956421,-0.1525878757238388,0.7324218153953552,100.0,169700.0,1.0
15:39:51.417416,176328.453125,170194.0625,160969.3125,198858.828125,163309.0,163537.171875,686570.4375,160413.203125,-0.056396484375,1.005126953125,-0.075439453125,-2.227782964706421,-0.03051757626235485,0.8239745497703552,100.0,169701.0,1.0
15:39:51.419197,176314.140625,170191.5625,160966.90625,198877.15625,163309.09375,163529.578125,686658.5625,160410.34375,-0.05615234375,1.00537109375,-0.078369140625,-2.166747808456421,0.0915527269244194,0.7629393935203552,100.0,169702.0,1.0
15:39:51.451040,176262.828125,170145.875,160920.59375,198814.75,163268.6875,163487.109375,686625.3125,160354.734375,-0.05517578125,1.00732421875,-0.076171875,-2.044677495956421,0.0,0.7629393935203552,100.0,169703.0,1.0
15:39:51.451075,176335.6875,170177.609375,160955.1875,198859.71875,163298.09375,163518.84375,686613.8125,160401.671875,-0.0546875,1.006103515625,-0.072509765625,-1.9531248807907104,0.0610351525247097,0.8850097060203552,100.0,169704.0,1.0
15:39:51.476013,176354.5625,170210.6875,160984.6875,198887.078125,163320.984375,163550.140625,686574.0,160413.03125,-0.05322265625,1.00634765625,-0.075439453125,-1.9531248807907104,0.0915527269244194,0.9460448622703552,100.0,169705.0,1.0
15:39:51.476032,176306.71875,170196.03125,160960.375,198844.796875,163300.875,163533.0625,686660.0,160383.96875,-0.05517578125,1.005126953125,-0.07470703125,-2.014159917831421,0.2136230319738388,0.8850097060203552,100.0,169706.0,1.0
15:39:51.501723,176292.328125,170165.71875,160951.171875,198893.703125,163299.34375,163506.6875,686627.0,160440.109375,-0.0556640625,1.00390625,-0.075927734375,-1.9226073026657104,0.2441406100988388,0.9765624403953552,100.0,169707.0,1.0
15:39:51.501767,176332.5625,170182.875,160963.6875,198884.140625,163311.515625,163527.515625,686637.6875,160448.25,-0.055419921875,1.004638671875,-0.07666015625,-1.8615721464157104,0.2136230319738388,0.9460448622703552,100.0,169708.0,1.0
15:39:51.501779,176356.078125,170200.40625,160976.375,198885.75,163316.0625,163543.875,686587.75,160417.9375,-0.054443359375,1.00341796875,-0.075927734375,-1.8615721464157104,0.3662109076976776,1.0375975370407104,100.0,169709.0,1.0
15:39:51.507909,176309.9375,170194.765625,160963.953125,198849.796875,163305.15625,163536.90625,686633.8125,160387.90625,-0.056396484375,1.00390625,-0.076904296875,-1.8310545682907104,0.4577636420726776,0.9460448622703552,100.0,169710.0,1.0
15:39:51.510558,176299.390625,170176.796875,160947.859375,198853.375,163295.140625,163514.375,686631.6875,160389.6875,-0.057861328125,1.00390625,-0.077392578125,-1.6784666776657104,0.4577636420726776,0.9155272841453552,100.0,169711.0,1.0
15:39:51.512926,176316.828125,170177.34375,160951.703125,198866.78125,163297.46875,163518.21875,686646.8125,160402.65625,-0.057373046875,1.00439453125,-0.078857421875,-1.6784666776657104,0.5798339247703552,0.7934569716453552,100.0,169712.0,1.0
15:39:51.515398,176355.359375,170193.25,160969.84375,198884.578125,163311.859375,163533.328125,686590.875,160420.796875,-0.05712890625,1.003662109375,-0.079345703125,-1.5869139432907104,0.6408690810203552,0.7934569716453552,100.0,169713.0,1.0
15:39:51.518061,176311.734375,170190.921875,160966.8125,198869.015625,163307.75,163533.0625,686613.0625,160404.0,-0.059814453125,1.003662109375,-0.076416015625,-1.5258787870407104,0.6103515028953552,0.8239745497703552,100.0,169714.0,1.0
15:39:51.520410,176289.296875,170163.03125,160938.46875,198842.5625,163288.53125,163503.109375,686644.375,160391.5625,-0.05810546875,1.00439453125,-0.076904296875,-1.4648436307907104,0.5493163466453552,0.7934569716453552,100.0,169715.0,1.0
15:39:51.522902,176308.421875,170176.53125,160951.703125,198874.125,163300.59375,163517.859375,686639.1875,160408.28125,-0.0576171875,1.004638671875,-0.07568359375,-1.4038084745407104,0.4577636420726776,0.7629393935203552,100.0,169716.0,1.0
15:39:51.526074,176350.359375,170185.5625,160956.625,198856.328125,163303.375,163529.125,686590.0,160404.0,-0.059814453125,1.00390625,-0.07763671875,-1.3732908964157104,0.4882812201976776,0.7019042372703552,100.0,169717.0,1.0
15:39:51.528265,176308.421875,170193.4375,160963.328125,198857.21875,163308.203125,163537.265625,686605.75,160421.703125,-0.06005859375,1.0068359375,-0.07568359375,-1.3122557401657104,0.4272460639476776,0.6408690810203552,100.0,169718.0,1.0
15:39:51.530473,176311.1875,170183.0625,160963.6875,198904.875,163314.734375,163521.796875,686632.5625,160453.703125,-0.061279296875,1.007568359375,-0.07421875,-1.2512205839157104,0.4577636420726776,0.5798339247703552,100.0,169719.0,1.0
15:39:51.532904,176307.53125,170181.90625,160958.140625,198889.234375,163306.40625,163520.453125,686647.3125,160418.125,-0.063720703125,1.007080078125,-0.07470703125,-1.1901854276657104,0.3051757514476776,0.5798339247703552,100.0,169720.0,1.0
15:39:51.535496,176343.65625,170180.375,160949.90625,198850.78125,163295.6875,163520.984375,686616.375,160387.28125,-0.062744140625,1.00634765625,-0.07470703125,-1.2512205839157104,0.3051757514476776,0.5798339247703552,100.0,169721.0,1.0
15:39:51.538878,176311.46875,170193.609375,160958.3125,198841.125,163302.390625,163536.546875,686587.0,160398.546875,-0.06201171875,1.005615234375,-0.07763671875,-1.1901854276657104,0.1831054538488388,0.5798339247703552,100.0,169722.0,1.0
15:39:51.540975,176302.4375,170180.015625,160956.4375,198876.265625,163307.84375,163522.328125,686605.9375,160432.515625,-0.06396484375,1.00537109375,-0.08251953125,-1.1596678495407104,0.0610351525247097,0.5187987685203552,100.0,169723.0,1.0
15:39:51.542995,176284.90625,170168.75,160940.96875,198854.359375,163292.109375,163509.1875,686616.0,160385.390625,-0.0615234375,1.005859375,-0.078369140625,-1.1291502714157104,0.0,0.5493163466453552,100.0,169724.0,1.0
15:39:51.545570,176330.859375,170174.484375,160943.390625,198847.5625,163288.796875,163516.34375,686597.625,160377.265625,-0.062255859375,1.005859375,-0.080078125,-1.0986326932907104,-0.0915527269244194,0.6103515028953552,100.0,169725.0,1.0
15:39:51.547909,176316.640625,170185.125,160957.25,198867.140625,163299.53125,163529.03125,686569.375,160399.703125,-0.06103515625,1.004638671875,-0.079833984375,-0.9765624403953552,-0.03051757626235485,0.6408690810203552,100.0,169726.0,1.0
15:39:51.551024,176298.3125,170179.9375,160950.890625,198864.109375,163298.453125,163521.890625,686653.5625,160411.5,-0.06298828125,1.00927734375,-0.080078125,-1.0681151151657104,-0.1220703050494194,0.7934569716453552,100.0,169727.0,1.0
15:39:51.551080,176291.25,170171.53125,160945.625,198880.015625,163297.828125,163511.78125,686635.9375,160433.140625,-0.062255859375,1.009765625,-0.079833984375,-1.0375975370407104,-0.2136230319738388,0.7629393935203552,100.0,169728.0,1.0
15:39:51.554104,176319.421875,170171.796875,160938.296875,198833.265625,163287.8125,163515.890625,686652.3125,160394.25,-0.06396484375,1.009033203125,-0.076904296875,-1.0375975370407104,-0.3051757514476776,0.7629393935203552,100.0,169729.0,1.0
15:39:51.554122,176331.40625,170197.71875,160961.71875,198848.640625,163304.984375,163541.46875,686607.0625,160392.1875,-0.064208984375,1.009521484375,-0.079345703125,-1.1596678495407104,-0.4577636420726776,0.7629393935203552,100.0,169730.0,1.0
15:39:51.554129,176311.90625,170200.40625,160966.984375,198867.59375,163311.953125,163541.46875,686617.4375,160415.96875,-0.063232421875,1.009521484375,-0.08154296875,-1.2512205839157104,-0.5493163466453552,0.8239745497703552,100.0,169731.0,1.0
15:39:51.557202,176299.75,170180.828125,160956.078125,198892.8125,163306.328125,163519.296875,686609.875,160427.59375,-0.0625,1.009765625,-0.081298828125,-1.3427733182907104,-0.5798339247703552,0.9460448622703552,100.0,169732.0,1.0
15:39:51.557226,176332.65625,170189.859375,160959.03125,198884.9375,163305.421875,163527.875,686623.1875,160407.5625,-0.0634765625,1.00927734375,-0.07958984375,-1.3732908964157104,-0.7019042372703552,0.7934569716453552,100.0,169733.0,1.0
15:39:51.559726,176354.640625,170201.5625,160974.40625,198894.140625,163315.171875,163541.46875,686573.125,160429.03125,-0.06396484375,1.009033203125,-0.080078125,-1.4648436307907104,-0.8544921278953552,0.6103515028953552,100.0,169734.0,1.0
15:39:51.559742,176300.734375,170190.125,160958.5,198835.234375,163304.359375,163532.515625,686629.1875,160393.625,-0.06396484375,1.00927734375,-0.081298828125,-1.4343260526657104,-0.8544921278953552,0.5187987685203552,100.0,169735.0,1.0
15:39:51.561637,176297.96875,170175.015625,160953.21875,198877.515625,163304.359375,163515.0,686619.0,160409.8125,-0.063232421875,1.00830078125,-0.078369140625,-1.4953612089157104,-0.8544921278953552,0.4577636420726776,100.0,169736.0,1.0
15:39:51.564137,176308.875,170170.640625,160944.453125,198866.96875,163291.75,163511.421875,686639.75,160386.109375,-0.061279296875,1.006591796875,-0.07861328125,-1.4953612089157104,-0.9460448622703552,0.3662109076976776,100.0,169737.0,1.0
15:39:51.566663,176346.234375,170189.40625,160957.953125,198851.5,163302.125,163531.71875,686592.6875,160389.234375,-0.06201171875,1.006591796875,-0.078125,-1.4343260526657104,-1.0375975370407104,0.2746581733226776,100.0,169738.0,1.0
15:39:51.569146,176310.84375,170197.546875,160966.71875,198856.78125,163310.703125,163540.5625,686610.1875,160413.5625,-0.06201171875,1.005615234375,-0.07763671875,-1.4038084745407104,-1.1596678495407104,0.2746581733226776,100.0,169739.0,1.0
15:39:51.579220,176294.75,170172.875,160947.140625,198867.328125,163298.1875,163514.109375,686610.5625,160414.359375,-0.05908203125,1.006103515625,-0.078857421875,-1.3732908964157104,-1.1291502714157104,0.1831054538488388,100.0,169740.0,1.0
15:39:51.596601,176277.671875,170153.640625,160926.3125,198839.703125,163275.390625,163494.875,686615.3125,160382.796875,-0.05615234375,1.0068359375,-0.078369140625,-1.3427733182907104,-1.0681151151657104,0.3051757514476776,100.0,169741.0,1.0
15:39:51.596614,176344.625,170178.859375,160952.59375,198872.515625,163295.6875,163520.984375,686595.375,160401.046875,-0.05517578125,1.0087890625,-0.07666015625,-1.4343260526657104,-1.0070799589157104,0.3051757514476776,100.0,169742.0,1.0
15:39:51.596618,176297.421875,170185.125,160951.34375,198839.875,163292.828125,163528.765625,686616.0,160377.53125,-0.054443359375,1.00830078125,-0.077880859375,-1.4648436307907104,-1.0070799589157104,0.3051757514476776,100.0,169743.0,1.0
15:39:51.599428,176305.390625,170178.328125,160959.296875,198907.640625,163306.6875,163519.921875,686633.4375,160435.546875,-0.0556640625,1.00927734375,-0.079833984375,-1.4953612089157104,-0.9155272841453552,0.3356933295726776,100.0,169744.0,1.0
15:39:51.602220,176308.875,170181.359375,160967.96875,198934.015625,163318.75,163525.90625,686655.25,160478.921875,-0.055419921875,1.009765625,-0.079833984375,-1.5258787870407104,-0.8850097060203552,0.4882812201976776,100.0,169745.0,1.0
15:39:51.602241,176339.890625,170180.46875,160953.671875,198855.96875,163302.125,163526.890625,686610.5,160404.625,-0.053955078125,1.009765625,-0.077392578125,-1.4648436307907104,-0.7629393935203552,0.5493163466453552,100.0,169746.0,1.0
15:39:51.604216,176312.53125,170193.703125,160961.0,198848.28125,163304.625,163540.65625,686568.4375,160374.21875,-0.05517578125,1.01025390625,-0.0771484375,-1.5563963651657104,-0.7934569716453552,0.5493163466453552,100.0,169747.0,1.0
15:39:51.606851,176300.734375,170188.0625,160959.296875,198865.625,163308.109375,163531.265625,686626.25,160399.96875,-0.05615234375,1.008544921875,-0.076416015625,-1.5563963651657104,-0.6713866591453552,0.4577636420726776,100.0,169748.0,1.0
15:39:51.609131,176299.03125,170178.859375,160961.984375,198911.3125,163311.859375,163519.375,686610.9375,160446.109375,-0.056396484375,1.0078125,-0.077392578125,-1.5563963651657104,-0.6408690810203552,0.6408690810203552,100.0,169749.0,1.0
15:39:51.615394,176355.453125,170194.59375,160973.421875,198903.0,163319.90625,163534.125,686619.9375,160458.4375,-0.057861328125,1.0087890625,-0.0791015625,-1.6479490995407104,-0.4577636420726776,0.6713866591453552,100.0,169750.0,1.0
15:39:51.623594,176317.8125,170187.625,160959.921875,198860.4375,163301.9375,163529.75,686587.4375,160392.375,-0.05712890625,1.008544921875,-0.079345703125,-1.6174315214157104,-0.4577636420726776,0.6103515028953552,100.0,169751.0,1.0
15:39:51.623618,176288.125,170172.25,160944.90625,198838.09375,163290.765625,163513.484375,686665.5625,160374.3125,-0.056396484375,1.00830078125,-0.07861328125,-1.6784666776657104,-0.3662109076976776,0.6408690810203552,100.0,169752.0,1.0
15:39:51.625996,176284.109375,170165.53125,160947.046875,198872.953125,163296.84375,163506.421875,686623.1875,160402.46875,-0.055908203125,1.007568359375,-0.0771484375,-1.6479490995407104,-0.3356933295726776,0.7019042372703552,100.0,169753.0,1.0
15:39:51.626019,176344.453125,170191.015625,160966.28125,198872.515625,163310.609375,163531.890625,686627.375,160398.71875,-0.056884765625,1.009033203125,-0.075439453125,-1.6784666776657104,-0.3051757514476776,0.7019042372703552,100.0,169754.0,1.0
15:39:51.638604,176344.8125,170207.734375,160980.484375,198881.71875,163322.78125,163549.15625,686576.6875,160419.28125,-0.05419921875,1.01123046875,-0.074951171875,-1.6784666776657104,-0.2441406100988388,0.7324218153953552,100.0,169755.0,1.0
15:39:51.641000,176309.5,170196.375,160971.453125,198874.296875,163317.3125,163538.78125,686636.5625,160411.0625,-0.056884765625,1.009765625,-0.074462890625,-1.6479490995407104,-0.1831054538488388,0.6103515028953552,100.0,169756.0,1.0
15:39:51.641024,176294.03125,170173.671875,160956.171875,198874.828125,163306.5,163514.015625,686608.1875,160419.734375,-0.057373046875,1.009765625,-0.074951171875,-1.6784666776657104,0.0,0.7629393935203552,100.0,169757.0,1.0
15:39:51.642901,176335.6875,170187.171875,160968.59375,198898.4375,163313.125,163527.421875,686632.75,160430.71875,-0.058349609375,1.008056640625,-0.0751953125,-1.8005369901657104,0.0610351525247097,0.6713866591453552,100.0,169758.0,1.0
15:39:51.653072,176362.0625,170208.0,160985.859375,198896.46875,163329.296875,163549.15625,686589.1875,160444.234375,-0.055908203125,1.009033203125,-0.07470703125,-1.9226073026657104,0.1220703050494194,0.6713866591453552,100.0,169759.0,1.0
15:39:51.657239,176309.234375,170197.71875,160968.953125,198856.421875,163311.0625,163538.0625,686622.625,160390.40625,-0.05810546875,1.006591796875,-0.077392578125,-1.9531248807907104,0.1525878757238388,0.7324218153953552,100.0,169760.0,1.0
15:39:51.657259,176286.515625,170164.109375,160944.015625,198865.171875,163293.265625,163502.921875,686639.0,160403.015625,-0.0576171875,1.006591796875,-0.07568359375,-1.9531248807907104,0.2746581733226776,0.8239745497703552,100.0,169761.0,1.0
15:39:51.664678,176315.9375,170181.09375,160957.875,198885.65625,163304.453125,163520.1875,686630.4375,160424.015625,-0.056884765625,1.00537109375,-0.071044921875,-1.8920897245407104,0.2746581733226776,0.7629393935203552,100.0,169762.0,1.0
15:39:51.668531,176364.03125,170205.140625,160977.265625,198889.5,163319.640625,163544.328125,686582.25,160416.953125,-0.05859375,1.0078125,-0.07275390625,-1.8920897245407104,0.2136230319738388,0.7629393935203552,100.0,169763.0,1.0
15:39:51.668556,176313.34375,170208.09375,160970.46875,198858.03125,163312.671875,163547.546875,686614.625,160398.453125,-0.0576171875,1.0087890625,-0.07568359375,-1.9836424589157104,0.3967284858226776,0.7019042372703552,100.0,169764.0,1.0
15:39:51.679922,176290.546875,170168.84375,160945.796875,198853.203125,163298.28125,163512.765625,686630.9375,160406.765625,-0.0576171875,1.0078125,-0.07568359375,-1.9531248807907104,0.3356933295726776,0.7934569716453552,100.0,169765.0,1.0
15:39:51.679952,176297.6875,170167.953125,160949.5625,198889.046875,163298.546875,163512.578125,686631.6875,160418.65625,-0.057861328125,1.00830078125,-0.0732421875,-1.9531248807907104,0.3356933295726776,0.7934569716453552,100.0,169766.0,1.0
15:39:51.680396,176346.15625,170184.578125,160956.4375,198861.0625,163299.265625,163528.234375,686606.0,160389.0625,-0.058837890625,1.008056640625,-0.073486328125,-2.014159917831421,0.3967284858226776,0.7019042372703552,100.0,169767.0,1.0
15:39:51.684187,176295.640625,170184.578125,160950.984375,198833.890625,163292.546875,163529.9375,686625.125,160373.953125,-0.05908203125,1.0078125,-0.072509765625,-1.8615721464157104,0.3356933295726776,0.7324218153953552,100.0,169768.0,1.0
15:39:51.692265,176310.65625,170189.40625,160968.859375,198914.890625,163317.140625,163531.09375,686622.0,160472.125,-0.05859375,1.0078125,-0.073974609375,-1.9531248807907104,0.3356933295726776,0.6408690810203552,100.0,169769.0,1.0
15:39:51.692279,176289.015625,170172.0625,160946.875,198878.765625,163296.75,163515.359375,686593.125,160433.3125,-0.059326171875,1.0087890625,-0.073974609375,-1.8615721464157104,0.4882812201976776,0.6103515028953552,100.0,169770.0,1.0
15:39:51.714092,176322.734375,170166.078125,160933.109375,198819.484375,163278.78125,163512.140625,686604.0625,160343.46875,-0.059814453125,1.008056640625,-0.076171875,-1.9226073026657104,0.4577636420726776,0.7019042372703552,100.0,169771.0,1.0
15:39:51.714137,176316.46875,170195.484375,160962.703125,198851.328125,163302.125,163539.859375,686581.625,160382.265625,-0.06103515625,1.0078125,-0.074951171875,-1.9836424589157104,0.3356933295726776,0.7019042372703552,100.0,169772.0,1.0
15:39:51.714149,176318.703125,170194.234375,160971.734375,198905.328125,163315.796875,163536.015625,686638.3125,160440.734375,-0.059814453125,1.010498046875,-0.07421875,-2.044677495956421,0.4272460639476776,0.6408690810203552,100.0,169773.0,1.0
15:39:51.714157,176301.0,170178.40625,160958.40625,198901.828125,163305.34375,163519.921875,686621.5,160442.265625,-0.059814453125,1.0107421875,-0.074462890625,-2.044677495956421,0.3356933295726776,0.6713866591453552,100.0,169774.0,1.0
15:39:51.717216,176328.0,170172.78125,160943.5625,198844.078125,163290.140625,163516.96875,686617.5625,160393.265625,-0.0595703125,1.0107421875,-0.073974609375,-1.9226073026657104,0.2746581733226776,0.6103515028953552,100.0,169775.0,1.0
15:39:51.717240,176304.9375,170180.46875,160944.09375,198809.828125,163286.03125,163526.4375,686572.125,160356.703125,-0.060546875,1.01123046875,-0.0771484375,-1.9531248807907104,0.3051757514476776,0.5187987685203552,100.0,169776.0,1.0
15:39:51.723522,176314.953125,170193.875,160970.390625,198881.359375,163316.34375,163538.875,686643.5,160441.09375,-0.062744140625,1.007568359375,-0.07470703125,-1.8920897245407104,0.3051757514476776,0.5187987685203552,100.0,169777.0,1.0
15:39:51.723527,176283.65625,170167.0625,160943.125,198865.625,163293.890625,163511.421875,686655.1875,160417.9375,-0.0634765625,1.00732421875,-0.0751953125,-1.8920897245407104,0.2746581733226776,0.5187987685203552,100.0,169778.0,1.0
15:39:51.733603,176341.5,170185.828125,160968.234375,198927.140625,163314.015625,163530.015625,686642.375,160470.6875,-0.0634765625,1.008544921875,-0.0732421875,-1.8920897245407104,0.2136230319738388,0.5187987685203552,100.0,169779.0,1.0
15:39:51.733660,176339.890625,170205.234375,160968.6875,198864.109375,163309.28125,163545.484375,686582.3125,160413.375,-0.06298828125,1.008056640625,-0.074951171875,-1.9226073026657104,0.0610351525247097,0.3662109076976776,100.0,169780.0,1.0
15:39:51.759451,176302.703125,170191.828125,160959.296875,198855.171875,163301.765625,163532.796875,686625.75,160391.65625,-0.064208984375,1.008544921875,-0.072998046875,-2.105712652206421,0.0,0.3356933295726776,100.0,169781.0,1.0
15:39:51.759549,176278.203125,170157.84375,160933.109375,198841.671875,163281.015625,163500.15625,686600.75,160368.59375,-0.063232421875,1.00830078125,-0.074951171875,-2.075195074081421,-0.0610351525247097,0.3967284858226776,100.0,169782.0,1.0
15:39:51.759578,176310.65625,170168.21875,160941.421875,198852.390625,163285.21875,163510.4375,686630.75,160385.484375,-0.063232421875,1.0078125,-0.07666015625,-2.105712652206421,-0.2441406100988388,0.3662109076976776,100.0,169783.0,1.0
15:39:51.761971,176340.15625,170189.765625,160961.0,198870.453125,163300.328125,163531.0,686587.75,160402.46875,-0.060791015625,1.0087890625,-0.07568359375,-2.105712652206421,-0.3662109076976776,0.3967284858226776,100.0,169784.0,1.0
15:39:51.764305,176307.703125,170200.40625,160966.453125,198879.390625,163305.421875,163538.25,686645.1875,160429.828125,-0.0615234375,1.0048828125,-0.077880859375,-2.105712652206421,-0.3356933295726776,0.2441406100988388,100.0,169785.0,1.0
15:39:51.767869,176289.203125,170176.171875,160942.140625,198873.578125,163288.359375,163510.4375,686680.125,160403.375,-0.061767578125,1.004638671875,-0.078369140625,-2.014159917831421,-0.3356933295726776,0.2746581733226776,100.0,169786.0,1.0
15:39:51.773469,176295.015625,170162.765625,160933.28125,198833.4375,163280.84375,163505.703125,686656.0,160375.03125,-0.060791015625,1.002197265625,-0.07861328125,-1.9226073026657104,-0.4577636420726776,0.3967284858226776,100.0,169787.0,1.0
15:39:51.775490,176330.953125,170167.859375,160944.09375,198841.03125,163288.796875,163518.84375,686596.0625,160385.046875,-0.05908203125,1.003662109375,-0.078125,-1.9531248807907104,-0.5187987685203552,0.3967284858226776,100.0,169788.0,1.0
15:39:51.778326,176292.6875,170181.546875,160951.96875,198846.140625,163293.71875,163529.296875,686594.6875,160391.75,-0.06005859375,1.003662109375,-0.0771484375,-1.9531248807907104,-0.4882812201976776,0.3662109076976776,100.0,169789.0,1.0
15:39:51.780753,176307.703125,170190.921875,160964.75,198901.296875,163312.046875,163529.21875,686633.125,160437.15625,-0.05859375,1.00341796875,-0.07666015625,-1.8615721464157104,-0.4577636420726776,0.2746581733226776,100.0,169790.0,1.0
15:39:51.783066,176294.203125,170176.53125,160951.703125,198885.46875,163303.8125,163522.515625,686639.1875,160447.453125,-0.060546875,1.004638671875,-0.076416015625,-1.7089842557907104,-0.4882812201976776,0.3051757514476776,100.0,169791.0,1.0
15:39:51.786210,176338.640625,170168.578125,160947.59375,198878.40625,163290.9375,163515.53125,686591.1875,160411.859375,-0.058349609375,1.00439453125,-0.07470703125,-1.6479490995407104,-0.5187987685203552,0.3662109076976776,100.0,169792.0,1.0
15:39:51.786311,176289.46875,170173.5,160936.046875,198806.96875,163275.828125,163516.34375,686624.6875,160356.15625,-0.057373046875,1.004150390625,-0.072998046875,-1.6479490995407104,-0.6103515028953552,0.3662109076976776,100.0,169793.0,1.0
15:39:51.790458,176296.796875,170175.375,160943.65625,198866.4375,163288.078125,163513.203125,686641.25,160401.578125,-0.05810546875,1.004150390625,-0.074462890625,-1.4343260526657104,-0.5798339247703552,0.3967284858226776,100.0,169794.0,1.0
15:39:51.793182,176287.40625,170165.359375,160937.21875,198869.734375,163282.265625,163505.796875,686629.25,160399.609375,-0.059326171875,1.00439453125,-0.074462890625,-1.4038084745407104,-0.5798339247703552,0.3356933295726776,100.0,169795.0,1.0
15:39:51.796697,176332.03125,170177.875,160941.0625,198842.5625,163284.59375,163520.359375,686623.875,160387.09375,-0.06103515625,1.006591796875,-0.079345703125,-1.2817381620407104,-0.6103515028953552,0.3967284858226776,100.0,169796.0,1.0
15:39:51.823599,176315.03125,170192.984375,160962.609375,198882.171875,163301.671875,163536.640625,686585.5625,160422.59375,-0.06103515625,1.00537109375,-0.078857421875,-1.2817381620407104,-0.5187987685203552,0.3356933295726776,100.0,169797.0,1.0
15:39:51.823620,176299.296875,170181.359375,160948.296875,198865.53125,163291.484375,163518.578125,686652.25,160399.609375,-0.057861328125,1.006591796875,-0.076416015625,-1.2817381620407104,-0.4272460639476776,0.4577636420726776,100.0,169798.0,1.0
15:39:51.849737,176285.359375,170183.6875,160942.046875,198869.5625,163287.8125,163516.078125,686639.8125,160406.9375,-0.05615234375,1.006103515625,-0.0771484375,-1.1901854276657104,-0.3967284858226776,0.4882812201976776,100.0,169799.0,1.0
15:39:51.849758,176357.15625,170201.84375,160968.15625,198901.828125,163309.90625,163539.140625,686630.3125,160436.359375,-0.057373046875,1.006103515625,-0.07421875,-1.1291502714157104,-0.3967284858226776,0.4577636420726776,100.0,169800.0,1.0
15:39:51.855393,176314.234375,170181.71875,160947.765625,198833.171875,163287.546875,163527.421875,686586.875,160366.4375,-0.057373046875,1.007568359375,-0.072509765625,-1.0070799589157104,-0.4272460639476776,0.5798339247703552,100.0,169801.0,1.0
15:39:51.857894,176286.078125,170165.8125,160938.640625,198848.375,163283.34375,163510.96875,686630.875,160391.03125,-0.058349609375,1.00634765625,-0.074951171875,-1.0375975370407104,-0.4882812201976776,0.6103515028953552,100.0,169802.0,1.0
15:39:51.860468,176271.046875,170157.40625,160928.8125,198849.4375,163281.375,163499.890625,686589.375,160402.296875,-0.06005859375,1.007568359375,-0.07568359375,-1.0070799589157104,-0.3967284858226776,0.4272460639476776,100.0,169803.0,1.0
15:39:51.862925,176309.578125,170168.390625,160928.1875,198825.296875,163273.421875,163506.6875,686608.1875,160361.53125,-0.058349609375,1.008056640625,-0.07421875,-0.8850097060203552,-0.4272460639476776,0.5187987685203552,100.0,169804.0,1.0
15:39:51.868372,176345.796875,170209.890625,160970.828125,198875.546875,163309.359375,163547.625,686575.5,160413.203125,-0.05712890625,1.00732421875,-0.073974609375,-0.8544921278953552,-0.3662109076976776,0.4882812201976776,100.0,169805.0,1.0
15:39:51.868397,176305.921875,170190.21875,160959.03125,198866.078125,163301.3125,163532.34375,686644.125,160404.0,-0.056640625,1.0068359375,-0.07421875,-0.8544921278953552,-0.2441406100988388,0.3662109076976776,100.0,169806.0,1.0
15:39:51.871197,176298.140625,170175.28125,160952.140625,198903.71875,163299.96875,163513.84375,686630.625,160442.96875,-0.0576171875,1.00830078125,-0.07470703125,-0.8544921278953552,-0.2441406100988388,0.3051757514476776,100.0,169807.0,1.0
15:39:51.871209,176322.453125,170179.21875,160954.109375,198908.0,163298.8125,163520.625,686639.25,160437.796875,-0.05859375,1.009521484375,-0.07470703125,-0.8544921278953552,-0.3356933295726776,0.4272460639476776,100.0,169808.0,1.0
15:39:51.873677,176319.15625,170177.609375,160936.59375,198813.953125,163278.34375,163519.109375,686570.4375,160357.5,-0.058349609375,1.007568359375,-0.074462890625,-0.7934569716453552,-0.2441406100988388,0.4882812201976776,100.0,169809.0,1.0
15:39:51.875407,176296.53125,170187.703125,160951.703125,198835.40625,163291.125,163529.125,686623.625,160380.75,-0.05810546875,1.00732421875,-0.07763671875,-0.8239745497703552,-0.2441406100988388,0.4272460639476776,100.0,169810.0,1.0
15:39:51.877997,176303.78125,170172.6875,160957.421875,198913.546875,163303.640625,163511.421875,686614.875,160458.890625,-0.056640625,1.0078125,-0.0771484375,-0.7324218153953552,-0.2441406100988388,0.3967284858226776,100.0,169811.0,1.0
15:39:51.880388,176298.234375,170168.671875,160937.390625,198858.109375,163281.921875,163506.6875,686622.375,160392.546875,-0.057373046875,1.003662109375,-0.076171875,-0.8239745497703552,-0.2441406100988388,0.3967284858226776,100.0,169812.0,1.0
15:39:51.883511,176341.6875,170185.390625,160951.796875,198858.734375,163289.6875,163524.921875,686586.0,160379.5,-0.057373046875,1.00537109375,-0.078369140625,-0.7629393935203552,-0.1831054538488388,0.4272460639476776,100.0,169813.0,1.0
15:39:51.883534,176327.46875,170216.5,160982.90625,198906.21875,163319.46875,163551.5625,686596.8125,160460.140625,-0.05908203125,1.006103515625,-0.076416015625,-0.7934569716453552,-0.1220703050494194,0.3967284858226776,100.0,169814.0,1.0
15:39:51.885478,176325.328125,170212.390625,160969.671875,198884.140625,163312.765625,163540.296875,686642.25,160438.5,-0.059326171875,1.0078125,-0.078369140625,-0.6713866591453552,-0.0915527269244194,0.4272460639476776,100.0,169815.0,1.0
15:39:51.891997,176300.375,170173.9375,160947.671875,198884.578125,163295.234375,163517.328125,686650.6875,160416.15625,-0.0595703125,1.009033203125,-0.075439453125,-0.7019042372703552,-0.0610351525247097,0.5187987685203552,100.0,169816.0,1.0
15:39:51.892019,176344.09375,170194.6875,160953.21875,198855.515625,163296.3125,163531.625,686605.1875,160386.5625,-0.058349609375,1.009765625,-0.07666015625,-0.7019042372703552,-0.0610351525247097,0.6103515028953552,100.0,169817.0,1.0
15:39:51.892026,176305.734375,170214.171875,160958.5,198829.328125,163297.46875,163544.59375,686616.9375,160379.40625,-0.0576171875,1.00927734375,-0.072998046875,-0.7019042372703552,-0.03051757626235485,0.5493163466453552,100.0,169818.0,1.0
15:39:51.895380,176286.875,170167.953125,160938.5625,198854.359375,163283.703125,163507.671875,686656.875,160392.90625,-0.05810546875,1.01025390625,-0.07080078125,-0.7019042372703552,0.0610351525247097,0.4577636420726776,100.0,169819.0,1.0
15:39:51.902709,176304.75,170183.15625,160959.21875,198919.453125,163301.765625,163519.828125,686625.5,160440.375,-0.05908203125,1.007568359375,-0.072509765625,-0.8544921278953552,0.0,0.6103515028953552,100.0,169820.0,1.0
15:39:51.902730,176361.625,170201.203125,160965.296875,198885.03125,163304.0,163535.03125,686601.75,160414.28125,-0.060791015625,1.0068359375,-0.0732421875,-0.8544921278953552,0.0,0.6103515028953552,100.0,169821.0,1.0
15:39:51.906671,176296.625,170177.78125,160944.1875,198826.109375,163285.40625,163525.453125,686559.25,160376.28125,-0.060791015625,1.008544921875,-0.074951171875,-0.9460448622703552,-0.03051757626235485,0.6103515028953552,100.0,169822.0,1.0
15:39:51.909246,176306.015625,170192.359375,160961.453125,198900.3125,163303.46875,163526.796875,686657.0,160442.96875,-0.061279296875,1.0078125,-0.07470703125,-0.9155272841453552,0.03051757626235485,0.5187987685203552,100.0,169823.0,1.0
15:39:51.914220,176287.140625,170195.21875,160943.390625,198856.5,163290.59375,163521.796875,686643.75,160403.640625,-0.06005859375,1.008544921875,-0.074951171875,-0.9460448622703552,0.03051757626235485,0.3967284858226776,100.0,169824.0,1.0
15:39:51.917377,176323.71875,170175.734375,160940.078125,198846.40625,163285.40625,163518.3125,686628.1875,160382.796875,-0.060302734375,1.008544921875,-0.076171875,-0.9155272841453552,0.0610351525247097,0.5187987685203552,100.0,169825.0,1.0
15:39:51.917400,176313.25,170183.328125,160949.375,198844.890625,163287.90625,163527.421875,686584.4375,160379.859375,-0.060791015625,1.007568359375,-0.07763671875,-0.8850097060203552,0.0,0.4882812201976776,100.0,169826.0,1.0
15:39:51.919337,176302.875,170184.84375,160957.875,198873.3125,163299.4375,163526.796875,686623.375,160418.390625,-0.05908203125,1.0068359375,-0.0751953125,-0.8850097060203552,0.0,0.4272460639476776,100.0,169827.0,1.0
15:39:51.923260,176287.234375,170180.296875,160945.890625,198879.65625,163294.34375,163517.234375,686611.9375,160450.390625,-0.05908203125,1.00537109375,-0.076416015625,-0.9765624403953552,0.0610351525247097,0.3967284858226776,100.0,169828.0,1.0
15:39:51.933596,176327.46875,170190.921875,160950.625,198885.65625,163294.875,163528.59375,686625.3125,160425.546875,-0.05859375,1.007080078125,-0.07763671875,-0.9155272841453552,0.03051757626235485,0.5187987685203552,100.0,169829.0,1.0
15:39:51.933609,176348.125,170207.015625,160973.0625,198900.671875,163309.0,163547.546875,686562.375,160407.125,-0.060546875,1.007568359375,-0.07861328125,-0.9155272841453552,0.0,0.5493163466453552,100.0,169830.0,1.0
15:39:51.935965,176307.0,170194.59375,160960.734375,198870.546875,163301.234375,163535.390625,686649.9375,160401.3125,-0.05859375,1.00830078125,-0.078125,-0.8850097060203552,0.0,0.6713866591453552,100.0,169831.0,1.0
15:39:51.935975,176290.71875,170179.390625,160943.5625,198863.03125,163289.421875,163512.859375,686644.125,160407.484375,-0.05615234375,1.006591796875,-0.07861328125,-0.8850097060203552,0.0610351525247097,0.6103515028953552,100.0,169832.0,1.0
15:39:51.955137,176328.453125,170205.328125,160960.640625,198887.0,163303.109375,163535.734375,686637.875,160426.4375,-0.056884765625,1.0087890625,-0.076904296875,-0.8850097060203552,0.0,0.6713866591453552,100.0,169833.0,1.0
15:39:51.955159,176337.296875,170205.6875,160957.875,198867.140625,163298.453125,163537.796875,686561.875,160407.125,-0.0576171875,1.00732421875,-0.07421875,-0.9155272841453552,0.0,0.6713866591453552,100.0,169834.0,1.0
15:39:51.958290,176317.90625,170206.21875,160976.28125,198892.0,163317.5,163549.875,686596.0,160453.609375,-0.060302734375,1.009765625,-0.07568359375,-0.9155272841453552,-0.0915527269244194,0.6408690810203552,100.0,169835.0,1.0
15:39:51.959331,176301.890625,170179.3125,160957.0625,198903.890625,163306.328125,163522.953125,686636.75,160449.40625,-0.059814453125,1.010498046875,-0.072021484375,-0.9765624403953552,-0.03051757626235485,0.5187987685203552,100.0,169836.0,1.0
15:39:51.961769,176279.359375,170161.515625,160921.390625,198823.0625,163267.078125,163501.3125,686628.0,160360.90625,-0.060302734375,1.009765625,-0.0771484375,-0.9765624403953552,-0.03051757626235485,0.6103515028953552,100.0,169837.0,1.0
15:39:51.964196,176352.046875,170197.8125,160967.171875,198884.3125,163309.09375,163543.78125,686594.6875,160418.75,-0.060546875,1.008056640625,-0.074951171875,-1.0681151151657104,-0.03051757626235485,0.5798339247703552,100.0,169838.0,1.0
15:39:51.970358,176309.765625,170200.671875,160969.5,198878.140625,163308.375,163546.109375,686621.5625,160413.203125,-0.060302734375,1.0078125,-0.075439453125,-0.9765624403953552,0.0610351525247097,0.5493163466453552,100.0,169839.0,1.0
15:39:51.974783,176302.34375,170183.6875,160950.265625,198877.703125,163293.0,163517.859375,686649.125,160402.65625,-0.05859375,1.005126953125,-0.07861328125,-1.0070799589157104,0.1525878757238388,0.5187987685203552,100.0,169840.0,1.0
15:39:51.974794,176291.875,170187.890625,160939.625,198837.1875,163283.609375,163520.28125,686635.4375,160380.296875,-0.0576171875,1.008544921875,-0.07861328125,-1.0681151151657104,0.1525878757238388,0.4882812201976776,100.0,169841.0,1.0
15:39:51.984393,176354.828125,170198.4375,160969.578125,198897.09375,163311.515625,163542.359375,686600.3125,160437.609375,-0.05615234375,1.008544921875,-0.0791015625,-1.0375975370407104,0.2136230319738388,0.5493163466453552,100.0,169842.0,1.0
15:39:51.989325,176333.640625,170226.6875,160990.140625,198925.078125,163326.703125,163563.8125,686576.4375,160478.296875,-0.05712890625,1.007568359375,-0.075439453125,-1.0681151151657104,0.0915527269244194,0.4882812201976776,100.0,169843.0,1.0
15:39:51.989384,176323.625,170233.9375,160969.9375,198871.609375,163310.25,163550.3125,686694.1875,160422.953125,-0.0576171875,1.008056640625,-0.0771484375,-1.1901854276657104,0.0610351525247097,0.4882812201976776,100.0,169844.0,1.0
15:39:51.994788,176290.09375,170172.59375,160944.28125,198891.90625,163289.96875,163516.96875,686681.625,160417.046875,-0.058349609375,1.01025390625,-0.07958984375,-1.2512205839157104,0.03051757626235485,0.4272460639476776,100.0,169845.0,1.0
15:39:51.994897,176349.375,170190.125,160962.78125,198899.59375,163306.59375,163535.03125,686617.0,160450.21875,-0.05810546875,1.0126953125,-0.077392578125,-1.4038084745407104,0.0915527269244194,0.3051757514476776,100.0,169846.0,1.0
15:39:52.000349,176318.34375,170197.984375,160963.953125,198867.140625,163303.734375,163541.28125,686577.3125,160420.0,-0.058837890625,1.012939453125,-0.077880859375,-1.4953612089157104,0.0610351525247097,0.3051757514476776,100.0,169847.0,1.0
15:39:52.010414,176299.03125,170178.234375,160951.609375,198885.46875,163292.640625,163520.0,686630.0625,160418.203125,-0.058837890625,1.013427734375,-0.07958984375,-1.6479490995407104,0.03051757626235485,0.2441406100988388,100.0,169848.0,1.0
15:39:52.012926,176265.78125,170151.328125,160925.421875,198848.1875,163271.359375,163494.609375,686604.5625,160391.921875,-0.0576171875,1.013427734375,-0.08154296875,-1.7700194120407104,0.03051757626235485,0.1831054538488388,100.0,169849.0,1.0
15:39:52.015424,176343.46875,170195.578125,160962.421875,198888.875,163303.90625,163537.34375,686631.25,160429.296875,-0.058349609375,1.01171875,-0.078125,-1.8920897245407104,0.0,0.1525878757238388,100.0,169850.0,1.0
15:39:52.017891,176357.59375,170229.734375,160996.3125,198923.65625,163329.484375,163566.671875,686610.5625,160454.0625,-0.05908203125,1.011962890625,-0.080078125,-2.014159917831421,-0.0610351525247097,0.03051757626235485,100.0,169851.0,1.0
15:39:52.022220,176316.296875,170223.65625,160972.625,198893.515625,163309.90625,163546.46875,686641.5,160447.0,-0.05908203125,1.01318359375,-0.079345703125,-2.044677495956421,-0.1220703050494194,0.0915527269244194,100.0,169852.0,1.0
15:39:52.022248,176299.65625,170190.75,160956.078125,198893.515625,163301.140625,163523.21875,686623.0,160443.421875,-0.05810546875,1.012939453125,-0.0830078125,-2.075195074081421,-0.1525878757238388,0.0610351525247097,100.0,169853.0,1.0
15:39:52.031709,176342.046875,170181.984375,160967.078125,198933.3125,163310.890625,163531.890625,686658.125,160446.015625,-0.05908203125,1.012451171875,-0.08349609375,-2.227782964706421,-0.1525878757238388,0.0,100.0,169854.0,1.0
15:39:52.034749,176377.09375,170230.984375,161003.109375,198959.0625,163339.84375,163571.234375,686629.875,160495.546875,-0.060302734375,1.013671875,-0.082275390625,-2.441406011581421,-0.1831054538488388,-0.1220703050494194,100.0,169855.0,1.0
15:39:52.034755,176290.546875,170188.78125,160946.25,198832.1875,163288.0,163529.65625,686640.1875,160368.671875,-0.062744140625,1.01220703125,-0.08203125,-2.410888433456421,-0.2136230319738388,-0.2136230319738388,100.0,169856.0,1.0
15:39:52.036647,176275.078125,170159.640625,160932.65625,198868.671875,163281.828125,163502.578125,686587.25,160417.859375,-0.061279296875,1.015380859375,-0.083251953125,-2.655029058456421,-0.2136230319738388,-0.3662109076976776,100.0,169857.0,1.0
15:39:52.049184,176301.0,170175.90625,160934.359375,198848.28125,163279.328125,163513.296875,686609.125,160397.109375,-0.06298828125,1.013427734375,-0.080078125,-2.685546636581421,-0.2136230319738388,-0.4577636420726776,100.0,169858.0,1.0
15:39:52.052458,176347.84375,170198.34375,160964.3125,198879.484375,163303.90625,163539.140625,686568.4375,160429.03125,-0.062744140625,1.011962890625,-0.08154296875,-2.807616949081421,-0.3051757514476776,-0.4272460639476776,100.0,169859.0,1.0
15:39:52.052531,176330.234375,170210.0625,160978.96875,198916.3125,163310.171875,163546.734375,686601.4375,160436.265625,-0.063720703125,1.009033203125,-0.0810546875,-2.868652105331421,-0.4577636420726776,-0.5187987685203552,100.0,169860.0,1.0
15:39:52.054180,176310.65625,170199.6875,160956.34375,198894.421875,163297.296875,163528.40625,686616.0,160426.796875,-0.06689453125,1.00927734375,-0.07763671875,-2.960204839706421,-0.5798339247703552,-0.5187987685203552,100.0,169861.0,1.0
15:39:52.092111,176288.65625,170182.34375,160928.90625,198835.140625,163271.546875,163515.359375,686635.875,160367.78125,-0.064697265625,1.009521484375,-0.080078125,-3.021239995956421,-0.5798339247703552,-0.5493163466453552,100.0,169862.0,1.0
15:39:52.092164,176348.921875,170195.484375,160957.953125,198875.1875,163296.40625,163535.734375,686604.0625,160412.671875,-0.064453125,1.00927734375,-0.079833984375,-3.112792730331421,-0.7019042372703552,-0.6103515028953552,100.0,169863.0,1.0
15:39:52.092175,176295.1875,170194.5,160947.953125,198827.1875,163285.40625,163534.84375,686623.875,160382.453125,-0.0625,1.008544921875,-0.080078125,-3.021239995956421,-0.7019042372703552,-0.5798339247703552,100.0,169864.0,1.0
15:39:52.094211,176292.515625,170188.515625,160940.078125,198854.8125,163283.53125,163518.21875,686612.4375,160392.1875,-0.0625,1.0087890625,-0.07763671875,-3.051757574081421,-0.7019042372703552,-0.4882812201976776,100.0,169865.0,1.0
15:39:52.096707,176288.125,170167.328125,160938.921875,198866.703125,163284.234375,163512.3125,686652.25,160405.421875,-0.060791015625,1.008056640625,-0.080078125,-3.082275152206421,-0.7324218153953552,-0.4577636420726776,100.0,169866.0,1.0
15:39:52.102943,176355.09375,170198.4375,160962.515625,198886.09375,163300.78125,163538.78125,686619.25,160417.140625,-0.060791015625,1.0078125,-0.08056640625,-2.990722417831421,-0.7934569716453552,-0.3356933295726776,100.0,169867.0,1.0
15:39:52.109302,176322.546875,170216.046875,160971.109375,198872.234375,163307.125,163554.875,686601.375,160415.96875,-0.060302734375,1.00732421875,-0.078125,-2.960204839706421,-0.8850097060203552,-0.2441406100988388,100.0,169868.0,1.0
15:39:52.110991,176302.25,170185.921875,160951.4375,198867.40625,163294.875,163522.59375,686619.25,160414.90625,-0.058837890625,1.0078125,-0.076904296875,-3.082275152206421,-0.7324218153953552,-0.2136230319738388,100.0,169869.0,1.0
15:39:52.112942,176310.5625,170192.359375,160959.65625,198891.734375,163301.3125,163525.28125,686627.1875,160423.484375,-0.058837890625,1.00732421875,-0.080078125,-3.082275152206421,-0.6408690810203552,-0.1525878757238388,100.0,169870.0,1.0
15:39:52.116286,176358.671875,170201.125,160966.8125,198893.78125,163304.359375,163535.921875,686630.0625,160429.46875,-0.059326171875,1.009033203125,-0.080810546875,-3.082275152206421,-0.7019042372703552,0.1220703050494194,100.0,169871.0,1.0
15:39:52.117898,176332.03125,170210.6875,160975.84375,198879.21875,163310.171875,163549.0625,686578.5,160418.296875,-0.0576171875,1.006591796875,-0.077392578125,-3.082275152206421,-0.5493163466453552,0.2746581733226776,100.0,169872.0,1.0
15:39:52.120817,176311.734375,170202.1875,160962.15625,198867.0625,163300.875,163536.015625,686647.4375,160405.875,-0.056884765625,1.008544921875,-0.078369140625,-3.021239995956421,-0.4272460639476776,0.3356933295726776,100.0,169873.0,1.0
15:39:52.123573,176302.609375,170194.859375,160954.296875,198876.4375,163293.09375,163524.203125,686612.375,160406.5,-0.05810546875,1.008056640625,-0.0771484375,-3.021239995956421,-0.4577636420726776,0.4882812201976776,100.0,169874.0,1.0
15:39:52.123600,176350.796875,170203.71875,160964.578125,198888.0625,163302.65625,163537.0,686615.75,160427.59375,-0.0576171875,1.006103515625,-0.074951171875,-2.929687261581421,-0.4577636420726776,0.4882812201976776,100.0,169875.0,1.0
15:39:52.125518,176339.71875,170208.453125,160975.390625,198890.125,163310.4375,163546.296875,686583.75,160446.015625,-0.058349609375,1.005126953125,-0.07861328125,-3.021239995956421,-0.3662109076976776,0.4577636420726776,100.0,169876.0,1.0
15:39:52.127931,176316.734375,170209.25,160970.125,198873.84375,163307.9375,163542.453125,686683.1875,160420.359375,-0.0595703125,1.006103515625,-0.077880859375,-2.899169683456421,-0.2746581733226776,0.3967284858226776,100.0,169877.0,1.0
15:39:52.130485,176307.53125,170195.046875,160959.65625,198876.0,163301.671875,163526.078125,686615.125,160402.65625,-0.0595703125,1.00537109375,-0.07958984375,-2.990722417831421,-0.1525878757238388,0.4272460639476776,100.0,169878.0,1.0
15:39:52.133564,176330.328125,170189.5,160955.71875,198868.125,163296.75,163528.046875,686646.8125,160403.453125,-0.058837890625,1.00439453125,-0.077392578125,-2.990722417831421,-0.0610351525247097,0.4577636420726776,100.0,169879.0,1.0
15:39:52.133586,176354.28125,170216.859375,160981.296875,198888.6875,163317.3125,163553.890625,686601.75,160431.359375,-0.057861328125,1.005615234375,-0.076904296875,-3.021239995956421,-0.0915527269244194,0.4272460639476776,100.0,169880.0,1.0
15:39:52.139747,176326.65625,170217.03125,160985.9375,198912.296875,163323.125,163554.34375,686621.125,160452.359375,-0.058349609375,1.00634765625,-0.073486328125,-3.021239995956421,0.0,0.4272460639476776,100.0,169881.0,1.0
15:39:52.139769,176294.5625,170176.625,160949.015625,198877.96875,163293.625,163513.65625,686598.75,160402.46875,-0.05859375,1.004638671875,-0.07373046875,-3.051757574081421,0.1220703050494194,0.3662109076976776,100.0,169882.0,1.0
15:39:52.141633,176315.578125,170185.203125,160949.015625,198861.78125,163289.78125,163521.53125,686633.0,160391.5625,-0.05810546875,1.00341796875,-0.076171875,-2.960204839706421,0.2746581733226776,0.2746581733226776,100.0,169883.0,1.0
15:39:52.154186,176351.875,170219.984375,160969.671875,198856.59375,163305.25,163550.9375,686579.5625,160395.40625,-0.056396484375,1.004638671875,-0.075439453125,-2.777099370956421,0.3051757514476776,0.2441406100988388,100.0,169884.0,1.0
15:39:52.159174,176313.078125,170220.875,160970.828125,198859.71875,163305.421875,163551.921875,686630.0,160402.03125,-0.056640625,1.003173828125,-0.075927734375,-2.746581792831421,0.3662109076976776,0.2441406100988388,100.0,169885.0,1.0
15:39:52.159191,176324.25,170206.3125,160975.84375,198895.484375,163317.59375,163544.5,686617.875,160432.328125,-0.05712890625,1.004638671875,-0.074951171875,-2.593993902206421,0.4882812201976776,0.2136230319738388,100.0,169886.0,1.0
15:39:52.159198,176333.015625,170208.0,160977.890625,198904.25,163317.046875,163545.9375,686629.4375,160436.1875,-0.05859375,1.005859375,-0.074462890625,-2.716064214706421,0.4577636420726776,0.1220703050494194,100.0,169887.0,1.0
15:39:52.162867,176346.234375,170198.4375,160962.421875,198864.828125,163298.546875,163537.265625,686600.1875,160400.59375,-0.059814453125,1.0048828125,-0.072265625,-2.685546636581421,0.6103515028953552,0.1220703050494194,100.0,169888.0,1.0
15:39:52.170419,176312.359375,170213.8125,160971.375,198861.953125,163303.640625,163549.421875,686619.3125,160399.609375,-0.057373046875,1.0068359375,-0.07421875,-2.655029058456421,0.7019042372703552,0.2746581733226776,100.0,169889.0,1.0
15:39:52.195997,176321.828125,170208.453125,160975.296875,198902.28125,163312.3125,163540.21875,686627.5625,160432.6875,-0.05908203125,1.00634765625,-0.0732421875,-2.624511480331421,0.8239745497703552,0.3356933295726776,100.0,169890.0,1.0
15:39:52.196019,176327.90625,170210.859375,160983.4375,198934.296875,163320.453125,163543.34375,686615.3125,160460.765625,-0.058837890625,1.005126953125,-0.074951171875,-2.502441167831421,0.8544921278953552,0.3356933295726776,100.0,169891.0,1.0
15:39:52.219741,176356.96875,170199.421875,160970.03125,198879.9375,163304.71875,163536.375,686595.9375,160416.25,-0.060546875,1.005859375,-0.07373046875,-2.471923589706421,0.8544921278953552,0.3967284858226776,100.0,169892.0,1.0
15:39:52.219756,176320.3125,170213.8125,160971.375,198843.625,163301.671875,163547.1875,686610.5625,160389.59375,-0.0615234375,1.006591796875,-0.07275390625,-2.380370855331421,0.8850097060203552,0.5187987685203552,100.0,169893.0,1.0
15:39:52.223396,176314.40625,170199.875,160968.59375,198870.90625,163305.875,163532.609375,686689.5,160422.140625,-0.062255859375,1.0068359375,-0.072265625,-2.441406011581421,0.8850097060203552,0.4272460639476776,100.0,169894.0,1.0
15:39:52.223404,176331.21875,170215.34375,160987.46875,198916.765625,163324.109375,163548.078125,686687.5625,160440.828125,-0.063232421875,1.00732421875,-0.070556640625,-2.227782964706421,0.9460448622703552,0.3967284858226776,100.0,169895.0,1.0
15:39:52.223406,176403.46875,170249.9375,161014.640625,198943.5,163345.578125,163578.65625,686635.9375,160466.21875,-0.06396484375,1.00927734375,-0.0703125,-2.197265386581421,0.8239745497703552,0.3662109076976776,100.0,169896.0,1.0
15:39:52.223408,176386.828125,170271.03125,161030.828125,198935.453125,163358.53125,163601.28125,686613.625,160478.734375,-0.066162109375,1.008544921875,-0.069580078125,-2.319335699081421,0.7324218153953552,0.3662109076976776,100.0,169897.0,1.0
15:39:52.226645,176346.0625,170230.984375,160999.890625,198909.34375,163333.0625,163563.640625,686640.0,160444.765625,-0.06689453125,1.011962890625,-0.06982421875,-2.288818120956421,0.6408690810203552,0.4577636420726776,100.0,169898.0,1.0
15:39:52.226663,176333.71875,170224.28125,160994.265625,198913.015625,163330.90625,163552.015625,686638.5,160443.421875,-0.067138671875,1.009033203125,-0.072021484375,-2.319335699081421,0.5187987685203552,0.3662109076976776,100.0,169899.0,1.0
15:39:52.226665,176421.34375,170272.296875,161043.609375,198970.953125,163375.4375,163600.921875,686644.1875,160503.0625,-0.06640625,1.008544921875,-0.0732421875,-2.380370855331421,0.3967284858226776,0.4272460639476776,100.0,169900.0,1.0
15:39:52.229200,176413.75,170299.46875,161051.75,198950.46875,163378.203125,163619.96875,686606.5625,160493.671875,-0.06640625,1.0087890625,-0.0732421875,-2.380370855331421,0.4882812201976776,0.4272460639476776,100.0,169901.0,1.0
15:39:52.231651,176369.75,170270.234375,161026.359375,198931.515625,163356.484375,163594.296875,686657.25,160463.0,-0.067138671875,1.011962890625,-0.0732421875,-2.410888433456421,0.4882812201976776,0.4272460639476776,100.0,169902.0,1.0
15:39:52.234156,176348.65625,170229.375,161007.3125,198937.59375,163344.234375,163564.796875,686656.0625,160463.09375,-0.06787109375,1.013916015625,-0.071044921875,-2.502441167831421,0.3051757514476776,0.3967284858226776,100.0,169903.0,1.0
15:39:52.236635,176398.28125,170251.90625,161024.65625,198956.90625,163356.65625,163585.453125,686641.125,160479.71875,-0.068115234375,1.013916015625,-0.069580078125,-2.563476324081421,0.0915527269244194,0.4272460639476776,100.0,169904.0,1.0
15:39:52.239169,176390.953125,170253.78125,161014.015625,198913.09375,163343.0625,163585.1875,686549.3125,160452.546875,-0.06884765625,1.0126953125,-0.067138671875,-2.716064214706421,0.1220703050494194,0.3662109076976776,100.0,169905.0,1.0
15:39:52.241658,176342.125,170237.515625,160999.0,198892.171875,163330.90625,163572.484375,686633.1875,160431.359375,-0.06884765625,1.010498046875,-0.06787109375,-2.868652105331421,-0.03051757626235485,0.4272460639476776,100.0,169906.0,1.0
15:39:52.244160,176344.28125,170228.75,160998.90625,198925.890625,163336.1875,163559.34375,686692.5625,160469.34375,-0.068115234375,1.009033203125,-0.068603515625,-2.990722417831421,-0.1525878757238388,0.4882812201976776,100.0,169907.0,1.0
15:39:52.248541,176398.09375,170274.171875,161031.546875,198937.421875,163365.875,163601.1875,686687.0,160483.46875,-0.0673828125,1.0048828125,-0.071533203125,-2.868652105331421,-0.3356933295726776,0.5187987685203552,100.0,169908.0,1.0
15:39:52.248564,176390.40625,170252.703125,161004.890625,198895.046875,163334.3125,163582.5,686607.875,160425.453125,-0.06689453125,1.003173828125,-0.07421875,-2.868652105331421,-0.3967284858226776,0.5798339247703552,100.0,169909.0,1.0
15:39:52.257233,176368.859375,170259.140625,161024.484375,198927.9375,163352.1875,163592.515625,686623.5625,160465.328125,-0.066650390625,0.998779296875,-0.080078125,-2.716064214706421,-0.4882812201976776,0.6103515028953552,100.0,169910.0,1.0
15:39:52.257246,176346.421875,170232.328125,160996.3125,198924.1875,163331.453125,163559.609375,686619.5,160452.1875,-0.064697265625,0.99609375,-0.0771484375,-2.441406011581421,-0.5187987685203552,0.5798339247703552,100.0,169911.0,1.0
15:39:52.259153,176341.328125,170225.34375,160983.625,198901.5625,163317.59375,163553.359375,686644.5625,160432.609375,-0.065185546875,0.997314453125,-0.07275390625,-2.136230230331421,-0.6408690810203552,0.6103515028953552,100.0,169912.0,1.0
15:39:52.265402,176398.640625,170240.640625,161006.0625,198915.421875,163333.765625,163572.84375,686621.75,160440.734375,-0.06298828125,0.99853515625,-0.0712890625,-1.9531248807907104,-0.6713866591453552,0.6103515028953552,100.0,169913.0,1.0
15:39:52.269753,176361.703125,170256.28125,161014.546875,198904.25,163339.3125,163586.875,686621.125,160439.046875,-0.06201171875,0.99951171875,-0.07275390625,-1.8005369901657104,-0.7019042372703552,0.4882812201976776,100.0,169914.0,1.0
15:39:52.269775,176353.3125,170230.453125,161001.234375,198927.5,163333.5,163560.15625,686596.25,160462.203125,-0.060302734375,1.0,-0.0732421875,-1.6784666776657104,-0.6408690810203552,0.5493163466453552,100.0,169915.0,1.0
15:39:52.277910,176337.921875,170214.171875,160989.078125,198930.359375,163323.578125,163545.578125,686600.125,160465.78125,-0.059326171875,1.0087890625,-0.0712890625,-1.5563963651657104,-0.6408690810203552,0.4272460639476776,100.0,169916.0,1.0
15:39:52.287633,176390.859375,170233.9375,160997.03125,198906.125,163327.25,163564.53125,686597.5,160437.96875,-0.0595703125,1.0048828125,-0.0693359375,-1.5869139432907104,-0.5798339247703552,0.4272460639476776,100.0,169917.0,1.0
15:39:52.287648,176359.75,170250.75,161006.6875,198891.90625,163333.40625,163582.046875,686584.1875,160431.359375,-0.06005859375,1.004638671875,-0.06884765625,-1.5869139432907104,-0.5493163466453552,0.2441406100988388,100.0,169918.0,1.0
15:39:52.288518,176338.828125,170225.4375,160991.3125,198909.171875,163326.078125,163557.734375,686685.75,160449.59375,-0.0595703125,1.005126953125,-0.0703125,-1.5258787870407104,-0.5187987685203552,0.2441406100988388,100.0,169919.0,1.0
15:39:52.288528,176326.65625,170213.90625,160983.53125,198917.03125,163320.0,163545.75,686663.0625,160449.6875,-0.06103515625,1.00634765625,-0.070556640625,-1.4343260526657104,-0.5493163466453552,0.0,100.0,169920.0,1.0
15:39:52.298051,176363.3125,170207.015625,160975.75,198895.75,163309.28125,163542.71875,686630.75,160427.5,-0.06298828125,1.00732421875,-0.07080078125,-1.3732908964157104,-0.5798339247703552,-0.0915527269244194,100.0,169921.0,1.0
15:39:52.302551,176348.828125,170231.34375,160990.859375,198878.765625,163319.5625,163567.03125,686572.5625,160417.21875,-0.060546875,1.0078125,-0.0703125,-1.1901854276657104,-0.5187987685203552,-0.0915527269244194,100.0,169922.0,1.0
15:39:52.302620,176343.46875,170233.046875,160994.171875,198898.96875,163327.421875,163567.296875,686630.5,160438.5,-0.0576171875,1.0087890625,-0.068359375,-1.1291502714157104,-0.4272460639476776,-0.1220703050494194,100.0,169923.0,1.0
15:39:52.309630,176325.859375,170216.5,160982.015625,198915.25,163319.5625,163548.890625,686605.8125,160452.0,-0.058837890625,1.0107421875,-0.06884765625,-1.1901854276657104,-0.3662109076976776,-0.2441406100988388,100.0,169924.0,1.0
15:39:52.313528,176353.9375,170209.25,160973.421875,198896.109375,163308.5625,163545.21875,686621.375,160429.921875,-0.05908203125,1.01416015625,-0.06884765625,-1.2512205839157104,-0.3051757514476776,-0.2441406100988388,100.0,169925.0,1.0
15:39:52.313541,176335.515625,170213.109375,160971.375,198868.046875,163304.0,163550.9375,686580.1875,160409.453125,-0.06005859375,1.015380859375,-0.0712890625,-1.2817381620407104,-0.2441406100988388,-0.2136230319738388,100.0,169926.0,1.0
15:39:52.319144,176307.703125,170205.234375,160965.5625,198872.78125,163302.484375,163542.984375,686680.125,160419.1875,-0.060302734375,1.01611328125,-0.0703125,-1.4953612089157104,-0.1831054538488388,-0.1525878757238388,100.0,169927.0,1.0
15:39:52.325427,176304.84375,170196.828125,160960.640625,198891.546875,163301.859375,163531.546875,686603.6875,160430.453125,-0.06103515625,1.0146484375,-0.0693359375,-1.6174315214157104,-0.1831054538488388,-0.1831054538488388,100.0,169928.0,1.0
15:39:52.329721,176353.390625,170219.1875,160980.046875,198907.375,163317.40625,163553.625,686636.125,160441.1875,-0.059326171875,1.015380859375,-0.068603515625,-1.7700194120407104,-0.1831054538488388,-0.2136230319738388,100.0,169929.0,1.0
15:39:52.329731,176365.375,170231.78125,160989.609375,198891.546875,163323.578125,163567.75,686580.25,160427.78125,-0.061767578125,1.016357421875,-0.06884765625,-2.075195074081421,-0.2136230319738388,0.0,100.0,169930.0,1.0
15:39:52.344164,176334.53125,170231.25,160990.59375,198887.703125,163324.921875,163566.140625,686611.3125,160431.890625,-0.06396484375,1.014892578125,-0.069091796875,-2.075195074081421,-0.1831054538488388,0.0610351525247097,100.0,169931.0,1.0
15:39:52.347206,176315.75,170203.71875,160969.3125,198894.140625,163311.421875,163536.375,686660.625,160433.59375,-0.066650390625,1.013427734375,-0.07177734375,-2.197265386581421,-0.1525878757238388,0.0915527269244194,100.0,169932.0,1.0
15:39:52.347241,176331.40625,170207.296875,160967.703125,198892.53125,163307.484375,163540.21875,686659.125,160429.109375,-0.067626953125,1.012451171875,-0.0712890625,-2.319335699081421,-0.0915527269244194,0.1220703050494194,100.0,169933.0,1.0
15:39:52.349141,176367.609375,170226.25,160983.4375,198895.484375,163318.296875,163560.421875,686591.1875,160434.21875,-0.0673828125,1.0107421875,-0.068603515625,-2.319335699081421,-0.2441406100988388,0.2746581733226776,100.0,169934.0,1.0
15:39:52.351658,176326.125,170226.6875,160983.4375,198878.59375,163317.59375,163562.296875,686630.5,160423.84375,-0.0654296875,1.009765625,-0.070068359375,-2.410888433456421,-0.2136230319738388,0.3967284858226776,100.0,169935.0,1.0
15:39:52.354157,176314.765625,170205.328125,160968.234375,198888.609375,163309.71875,163538.15625,686623.625,160428.484375,-0.063232421875,1.008544921875,-0.068603515625,-2.502441167831421,-0.2441406100988388,0.3662109076976776,100.0,169936.0,1.0
15:39:52.368807,176306.359375,170191.203125,160954.65625,198874.921875,163294.703125,163526.359375,686629.8125,160413.46875,-0.0625,1.0078125,-0.069580078125,-2.593993902206421,-0.2746581733226776,0.4272460639476776,100.0,169937.0,1.0
15:39:52.368890,176354.015625,170206.390625,160965.015625,198873.40625,163299.796875,163539.3125,686595.8125,160409.890625,-0.063720703125,1.008056640625,-0.06787109375,-2.593993902206421,-0.3662109076976776,0.5798339247703552,100.0,169938.0,1.0
15:39:52.368919,176334.625,170233.484375,160988.625,198879.65625,163320.71875,163567.21875,686610.75,160424.203125,-0.062744140625,1.008544921875,-0.068359375,-2.471923589706421,-0.4577636420726776,0.5798339247703552,100.0,169939.0,1.0
15:39:52.369595,176320.046875,170208.359375,160973.515625,198895.125,163313.828125,163540.65625,686677.875,160434.65625,-0.064697265625,1.009033203125,-0.070068359375,-2.593993902206421,-0.4577636420726776,0.5493163466453552,100.0,169940.0,1.0
15:39:52.385194,176294.390625,170181.984375,160950.359375,198878.5,163292.46875,163516.78125,686644.25,160418.125,-0.062744140625,1.010009765625,-0.070556640625,-2.532958745956421,-0.3662109076976776,0.5493163466453552,100.0,169941.0,1.0
15:39:52.385277,176349.375,170196.296875,160962.875,198881.0,163300.328125,163532.078125,686612.1875,160417.40625,-0.060302734375,1.009765625,-0.06787109375,-2.532958745956421,-0.4272460639476776,0.5798339247703552,100.0,169942.0,1.0
15:39:52.386690,176321.65625,170213.734375,160973.78125,198871.796875,163309.359375,163549.59375,686600.125,160415.703125,-0.060546875,1.008544921875,-0.07080078125,-2.593993902206421,-0.3051757514476776,0.4882812201976776,100.0,169943.0,1.0
15:39:52.390151,176293.3125,170183.234375,160948.21875,198863.296875,163290.765625,163516.875,686655.5625,160410.703125,-0.0595703125,1.006103515625,-0.070556640625,-2.471923589706421,-0.2746581733226776,0.4577636420726776,100.0,169944.0,1.0
15:39:52.390231,176279.640625,170172.328125,160939.359375,198865.359375,163283.25,163507.671875,686651.1875,160407.65625,-0.057861328125,1.005859375,-0.07275390625,-2.563476324081421,-0.3051757514476776,0.5187987685203552,100.0,169945.0,1.0
15:39:52.396724,176332.390625,170184.484375,160950.0,198870.984375,163290.046875,163521.609375,686629.0,160409.171875,-0.058349609375,1.00732421875,-0.06884765625,-2.502441167831421,-0.0915527269244194,0.5187987685203552,100.0,169946.0,1.0
15:39:52.407256,176308.421875,170197.015625,160956.796875,198852.65625,163292.28125,163534.84375,686587.0,160401.484375,-0.056884765625,1.0078125,-0.0693359375,-2.502441167831421,0.0915527269244194,0.4272460639476776,100.0,169947.0,1.0
15:39:52.407280,176284.109375,170181.09375,160944.28125,198852.03125,163285.140625,163517.859375,686648.5,160403.375,-0.056884765625,1.01123046875,-0.067626953125,-2.441406011581421,0.1220703050494194,0.5493163466453552,100.0,169948.0,1.0
15:39:52.409796,176284.28125,170183.78125,160949.28125,198873.578125,163295.140625,163520.984375,686622.375,160417.859375,-0.05712890625,1.010009765625,-0.06787109375,-2.441406011581421,0.2136230319738388,0.5187987685203552,100.0,169949.0,1.0
15:39:52.409821,176327.640625,170195.84375,160959.03125,198870.71875,163302.75,163536.640625,686645.5625,160414.640625,-0.056640625,1.0087890625,-0.071044921875,-2.502441167831421,0.1525878757238388,0.3967284858226776,100.0,169950.0,1.0
15:39:52.418022,176317.984375,170199.875,160961.890625,198856.234375,163301.9375,163542.71875,686591.4375,160402.109375,-0.05712890625,1.008056640625,-0.068603515625,-2.441406011581421,0.3356933295726776,0.3662109076976776,100.0,169951.0,1.0
15:39:52.423695,176301.09375,170200.671875,160963.0625,198868.578125,163303.640625,163539.046875,686682.875,160417.046875,-0.057373046875,1.006591796875,-0.068115234375,-2.441406011581421,0.4882812201976776,0.3967284858226776,100.0,169952.0,1.0
15:39:52.423785,176298.234375,170189.671875,160958.765625,198893.34375,163305.34375,163528.046875,686641.3125,160434.390625,-0.058349609375,1.00146484375,-0.0654296875,-2.349853277206421,0.4882812201976776,0.5187987685203552,100.0,169953.0,1.0
15:39:52.433053,176330.421875,170199.0625,160966.453125,198892.359375,163310.25,163540.84375,686652.4375,160430.09375,-0.058837890625,1.0009765625,-0.064453125,-2.319335699081421,0.5493163466453552,0.4272460639476776,100.0,169954.0,1.0
15:39:52.436616,176362.875,170230.890625,160991.671875,198894.140625,163330.828125,163572.671875,686612.4375,160435.46875,-0.058349609375,1.001708984375,-0.06787109375,-2.105712652206421,0.6713866591453552,0.3662109076976776,100.0,169955.0,1.0
15:39:52.436707,176290.453125,170193.171875,160954.03125,198845.0625,163295.859375,163536.1875,686659.0625,160396.65625,-0.056884765625,1.00146484375,-0.0712890625,-2.044677495956421,0.6713866591453552,0.3967284858226776,100.0,169956.0,1.0
15:39:52.438034,176256.65625,170146.3125,160917.453125,198847.828125,163265.46875,163486.65625,686650.4375,160390.84375,-0.056640625,1.001220703125,-0.072265625,-1.8615721464157104,0.7019042372703552,0.4882812201976776,100.0,169957.0,1.0
15:39:52.445625,176293.046875,170166.4375,160936.140625,198876.265625,163280.75,163506.859375,686665.625,160412.75,-0.058837890625,1.0009765625,-0.069091796875,-1.7395018339157104,0.9460448622703552,0.4272460639476776,100.0,169958.0,1.0
15:39:52.454556,176329.875,170186.28125,160948.921875,198856.859375,163288.703125,163527.875,686613.0625,160397.109375,-0.05810546875,1.00341796875,-0.0732421875,-1.6174315214157104,1.0070799589157104,0.4577636420726776,100.0,169959.0,1.0
15:39:52.454704,176299.296875,170198.96875,160962.875,198861.421875,163299.96875,163539.859375,686629.0625,160415.796875,-0.05810546875,1.002685546875,-0.06982421875,-1.4953612089157104,1.1291502714157104,0.3967284858226776,100.0,169960.0,1.0
15:39:52.456126,176280.625,170162.40625,160936.140625,198863.125,163279.6875,163499.703125,686653.5625,160411.859375,-0.06005859375,1.00341796875,-0.069091796875,-1.4038084745407104,1.1291502714157104,0.3967284858226776,100.0,169961.0,1.0
15:39:52.456179,176296.625,170175.015625,160945.265625,198870.0,163287.453125,163512.40625,686666.25,160409.890625,-0.059326171875,1.004150390625,-0.06884765625,-1.3122557401657104,1.0375975370407104,0.3356933295726776,100.0,169962.0,1.0
15:39:52.469599,176343.015625,170189.234375,160956.796875,198868.9375,163296.84375,163528.859375,686622.1875,160410.4375,-0.062255859375,1.003173828125,-0.070556640625,-1.1291502714157104,1.1291502714157104,0.4882812201976776,100.0,169963.0,1.0
15:39:52.474266,176295.8125,170192.09375,160957.515625,198852.390625,163294.34375,163533.234375,686621.5625,160405.328125,-0.063720703125,1.00048828125,-0.072021484375,-1.0986326932907104,1.1596678495407104,0.3967284858226776,100.0,169964.0,1.0
15:39:52.474376,176289.734375,170168.84375,160944.640625,198875.1875,163286.109375,163506.328125,686642.75,160421.515625,-0.06494140625,1.001708984375,-0.071533203125,-0.9155272841453552,1.1901854276657104,0.4272460639476776,100.0,169965.0,1.0
15:39:52.477973,176280.078125,170161.96875,160934.71875,198865.53125,163279.046875,163500.15625,686652.875,160411.6875,-0.064208984375,1.00390625,-0.0703125,-0.8239745497703552,1.2207030057907104,0.4577636420726776,100.0,169966.0,1.0
15:39:52.482984,176340.609375,170188.96875,160954.203125,198866.703125,163293.984375,163527.34375,686622.4375,160408.203125,-0.06494140625,1.004150390625,-0.069580078125,-0.7324218153953552,1.1901854276657104,0.4577636420726776,100.0,169967.0,1.0
15:39:52.489269,176302.796875,170196.109375,160956.171875,198844.078125,163293.625,163536.375,686598.4375,160391.5625,-0.066162109375,1.00634765625,-0.0712890625,-0.6408690810203552,1.0986326932907104,0.3967284858226776,100.0,169968.0,1.0
15:39:52.491730,176289.921875,170176.265625,160946.78125,198868.3125,163289.15625,163515.171875,686634.8125,160416.59375,-0.066650390625,1.0087890625,-0.07177734375,-0.7324218153953552,1.0986326932907104,0.3967284858226776,100.0,169969.0,1.0
15:39:52.494240,176281.875,170175.375,160941.515625,198861.0625,163284.859375,163512.765625,686636.75,160404.796875,-0.067138671875,1.012939453125,-0.068603515625,-0.6103515028953552,1.0070799589157104,0.2746581733226776,100.0,169970.0,1.0
15:39:52.496763,176346.78125,170195.671875,160962.515625,198878.140625,163299.625,163532.96875,686616.1875,160417.671875,-0.066650390625,1.008544921875,-0.06884765625,-0.6103515028953552,0.9155272841453552,0.1831054538488388,100.0,169971.0,1.0
15:39:52.500461,176329.25,170210.0625,160971.640625,198866.4375,163304.265625,163546.921875,686591.4375,160408.734375,-0.066650390625,1.0087890625,-0.06982421875,-0.7324218153953552,0.8239745497703552,0.1525878757238388,100.0,169972.0,1.0
15:39:52.516336,176301.453125,170188.15625,160959.65625,198868.125,163295.859375,163525.453125,686657.125,160411.859375,-0.0673828125,1.00830078125,-0.069580078125,-0.7629393935203552,0.7324218153953552,0.1525878757238388,100.0,169973.0,1.0
15:39:52.516414,176292.328125,170175.734375,160953.9375,198887.34375,163294.796875,163511.15625,686647.5,160431.171875,-0.068115234375,1.00439453125,-0.067626953125,-0.6103515028953552,0.6408690810203552,0.2136230319738388,100.0,169974.0,1.0
15:39:52.520127,176346.15625,170196.5625,160968.59375,198887.078125,163308.015625,163534.40625,686642.75,160429.296875,-0.06689453125,1.004638671875,-0.071044921875,-0.5798339247703552,0.6713866591453552,0.2441406100988388,100.0,169975.0,1.0
15:39:52.520587,176339.09375,170209.078125,160974.5,198864.015625,163309.546875,163548.890625,686579.8125,160407.84375,-0.068359375,1.00537109375,-0.069580078125,-0.6408690810203552,0.5493163466453552,0.3356933295726776,100.0,169976.0,1.0
15:39:52.520645,176314.234375,170207.828125,160975.84375,198874.296875,163313.296875,163548.078125,686639.625,160424.28125,-0.068603515625,1.007568359375,-0.071533203125,-0.5798339247703552,0.4882812201976776,0.3967284858226776,100.0,169977.0,1.0
15:39:52.522988,176290.359375,170179.390625,160954.03125,198878.140625,163298.015625,163520.71875,686624.0625,160422.6875,-0.067138671875,1.00927734375,-0.06689453125,-0.5798339247703552,0.4272460639476776,0.4882812201976776,100.0,169978.0,1.0
15:39:52.530185,176326.125,170190.578125,160962.609375,198885.46875,163304.359375,163535.03125,686626.0625,160422.765625,-0.067138671875,1.010009765625,-0.068115234375,-0.7019042372703552,0.3356933295726776,0.6103515028953552,100.0,169979.0,1.0
15:39:52.539879,176352.5,170215.34375,160981.5625,198884.3125,163318.484375,163559.25,686585.8125,160427.234375,-0.0693359375,1.010986328125,-0.068603515625,-0.7324218153953552,0.2746581733226776,0.5493163466453552,100.0,169980.0,1.0
15:39:52.539898,176305.203125,170203.265625,160967.171875,198863.65625,163304.171875,163544.859375,686645.375,160412.9375,-0.0673828125,1.00732421875,-0.06884765625,-0.7629393935203552,0.2136230319738388,0.7324218153953552,100.0,169981.0,1.0
15:39:52.570955,176275.34375,170161.96875,160933.90625,198860.625,163279.234375,163502.21875,686651.25,160404.4375,-0.066650390625,1.006591796875,-0.06884765625,-0.7629393935203552,0.2746581733226776,0.7629393935203552,100.0,169982.0,1.0
15:39:52.570981,176301.453125,170176.625,160945.890625,198870.09375,163290.3125,163517.765625,686646.8125,160414.09375,-0.06494140625,1.0048828125,-0.068603515625,-0.7629393935203552,0.2441406100988388,0.6408690810203552,100.0,169983.0,1.0
15:39:52.570987,176344.0,170196.828125,160962.34375,198868.125,163302.203125,163538.0625,686606.8125,160410.96875,-0.06396484375,1.00634765625,-0.06689453125,-0.6713866591453552,0.1220703050494194,0.6103515028953552,100.0,169984.0,1.0
15:39:52.570993,176300.375,170199.515625,160962.421875,198851.765625,163301.9375,163541.375,686620.9375,160406.5,-0.066162109375,1.007080078125,-0.0693359375,-0.5798339247703552,0.0915527269244194,0.6408690810203552,100.0,169985.0,1.0
15:39:52.589186,176301.0,170188.515625,160958.3125,198877.15625,163304.453125,163527.34375,686602.8125,160423.9375,-0.06689453125,1.0087890625,-0.068115234375,-0.7324218153953552,0.03051757626235485,0.6408690810203552,100.0,169986.0,1.0
15:39:52.593405,176299.921875,170181.453125,160952.78125,198878.234375,163297.65625,163520.984375,686620.6875,160421.96875,-0.065185546875,1.009033203125,-0.069580078125,-0.6103515028953552,0.03051757626235485,0.7019042372703552,100.0,169987.0,1.0
15:39:52.593419,176337.65625,170187.359375,160954.65625,198867.6875,163294.796875,163526.625,686573.625,160411.140625,-0.064208984375,1.01025390625,-0.069091796875,-0.6713866591453552,0.0,0.7934569716453552,100.0,169988.0,1.0
15:39:52.593422,176297.34375,170194.59375,160957.15625,198848.1875,163294.4375,163534.84375,686599.6875,160403.09375,-0.06298828125,1.009765625,-0.07080078125,-0.6103515028953552,-0.03051757626235485,0.8239745497703552,100.0,169989.0,1.0
15:39:52.593425,176300.5625,170187.4375,160955.71875,198868.578125,163298.640625,163525.28125,686634.0,160419.109375,-0.063720703125,1.010009765625,-0.07177734375,-0.7019042372703552,-0.0610351525247097,0.7324218153953552,100.0,169990.0,1.0
15:39:52.595446,176290.1875,170179.390625,160949.46875,198870.28125,163292.375,163516.421875,686640.0,160416.953125,-0.064697265625,1.01171875,-0.06884765625,-0.7019042372703552,0.03051757626235485,0.7019042372703552,100.0,169991.0,1.0
15:39:52.598642,176341.953125,170188.0625,160958.671875,198870.453125,163296.484375,163525.734375,686613.5,160413.921875,-0.063232421875,1.0107421875,-0.06787109375,-0.7019042372703552,0.0,0.7019042372703552,100.0,169992.0,1.0
15:39:52.598645,176318.4375,170209.25,160973.421875,198860.34375,163308.828125,163548.96875,686592.0625,160413.03125,-0.061767578125,1.011474609375,-0.06982421875,-0.7934569716453552,0.1220703050494194,0.7324218153953552,100.0,169993.0,1.0
15:39:52.600364,176304.125,170191.375,160962.875,198877.609375,163304.984375,163528.765625,686648.5625,160427.78125,-0.06201171875,1.009765625,-0.072509765625,-0.8239745497703552,0.1831054538488388,0.7019042372703552,100.0,169994.0,1.0
15:39:52.602924,176288.390625,170175.375,160950.8125,198891.90625,163294.96875,163511.328125,686610.375,160431.984375,-0.06103515625,1.00732421875,-0.072998046875,-0.8544921278953552,0.2136230319738388,0.6408690810203552,100.0,169995.0,1.0
15:39:52.605986,176343.46875,170189.953125,160961.453125,198882.703125,163301.3125,163528.671875,686619.1875,160424.921875,-0.0625,1.00830078125,-0.071044921875,-0.8544921278953552,0.2136230319738388,0.6408690810203552,100.0,169996.0,1.0
15:39:52.605997,176338.46875,170219.359375,160980.9375,198869.5625,163316.6875,163558.265625,686592.6875,160421.875,-0.062744140625,1.010498046875,-0.07080078125,-0.8544921278953552,0.2136230319738388,0.6408690810203552,100.0,169997.0,1.0
15:39:52.607926,176314.328125,170207.921875,160971.453125,198866.875,163311.6875,163545.578125,686655.75,160421.875,-0.06298828125,1.011474609375,-0.072021484375,-0.8544921278953552,0.3051757514476776,0.6408690810203552,100.0,169998.0,1.0
15:39:52.614777,176284.734375,170178.140625,160947.234375,198868.9375,163292.109375,163515.53125,686653.875,160418.296875,-0.06396484375,1.009765625,-0.071533203125,-1.0681151151657104,0.3356933295726776,0.5493163466453552,100.0,169999.0,1.0
15:39:52.622840,176338.640625,170201.296875,160965.46875,198878.40625,163306.59375,163539.9375,686647.3125,160422.6875,-0.063720703125,1.0107421875,-0.072998046875,-1.1596678495407104,0.2746581733226776,0.6408690810203552,100.0,170000.0,1.0
15:39:52.622850,176334.53125,170206.84375,160969.9375,198868.046875,163304.71875,163545.3125,686590.4375,160413.109375,-0.062744140625,1.01025390625,-0.07421875,-1.1596678495407104,0.2746581733226776,0.6103515028953552,100.0,170001.0,1.0
15:39:52.622852,176281.59375,170177.609375,160941.15625,198839.515625,163279.5,163514.109375,686663.0625,160393.53125,-0.06298828125,1.01123046875,-0.076171875,-1.0681151151657104,0.3051757514476776,0.6713866591453552,100.0,170002.0,1.0
15:39:52.626436,176262.921875,170152.390625,160922.203125,198847.46875,163267.515625,163487.109375,686654.1875,160395.59375,-0.063720703125,1.01123046875,-0.074951171875,-1.2207030057907104,0.2746581733226776,0.7934569716453552,100.0,170003.0,1.0
15:39:52.626479,176316.734375,170183.15625,160948.390625,198867.40625,163289.96875,163519.375,686649.5625,160411.5,-0.063720703125,1.0087890625,-0.071533203125,-1.1901854276657104,0.2441406100988388,0.7934569716453552,100.0,170004.0,1.0
15:39:52.632491,176338.828125,170200.578125,160960.109375,198859.28125,163295.59375,163537.171875,686574.0,160402.109375,-0.064208984375,1.009033203125,-0.0732421875,-1.0681151151657104,0.3356933295726776,0.8239745497703552,100.0,170005.0,1.0
15:39:52.634156,176293.9375,170193.078125,160952.5,198848.640625,163288.359375,163531.625,686624.0625,160402.03125,-0.06298828125,1.0078125,-0.069580078125,-1.1291502714157104,0.3051757514476776,0.7629393935203552,100.0,170006.0,1.0
15:39:52.637926,176280.4375,170167.421875,160934.984375,198860.703125,163278.421875,163506.0625,686627.1875,160406.3125,-0.0615234375,1.007568359375,-0.073486328125,-1.0681151151657104,0.3967284858226776,0.8544921278953552,100.0,170007.0,1.0
15:39:52.653589,176281.328125,170160.078125,160923.71875,198846.40625,163266.0,163499.890625,686645.625,160390.84375,-0.062744140625,1.0087890625,-0.073486328125,-1.0986326932907104,0.2746581733226776,0.8239745497703552,100.0,170008.0,1.0
15:39:52.653603,176314.5,170170.0,160930.59375,198837.8125,163267.34375,163508.296875,686580.4375,160383.078125,-0.063232421875,1.00927734375,-0.073974609375,-1.1596678495407104,0.3662109076976776,0.7934569716453552,100.0,170009.0,1.0
15:39:52.655999,176289.375,170189.3125,160948.390625,198837.546875,163282.625,163529.03125,686620.9375,160394.421875,-0.062744140625,1.0107421875,-0.07421875,-1.1596678495407104,0.3967284858226776,0.8850097060203552,100.0,170010.0,1.0
15:39:52.656009,176282.140625,170169.203125,160936.59375,198857.3125,163280.21875,163508.734375,686627.625,160410.078125,-0.06298828125,1.0107421875,-0.071044921875,-1.1901854276657104,0.4577636420726776,1.0681151151657104,100.0,170011.0,1.0
15:39:52.657874,176293.3125,170177.609375,160944.375,198866.703125,163286.390625,163517.59375,686650.4375,160416.59375,-0.06298828125,1.011962890625,-0.07275390625,-1.2207030057907104,0.4577636420726776,1.0375975370407104,100.0,170012.0,1.0
15:39:52.661637,176338.375,170187.890625,160952.328125,198859.71875,163290.765625,163530.640625,686603.3125,160404.796875,-0.061279296875,1.013916015625,-0.07275390625,-1.2817381620407104,0.3967284858226776,1.0986326932907104,100.0,170013.0,1.0
15:39:52.677385,176290.09375,170190.296875,160949.828125,198832.90625,163286.03125,163535.109375,686615.5,160390.5,-0.061767578125,1.013916015625,-0.072021484375,-1.2817381620407104,0.3356933295726776,1.0681151151657104,100.0,170014.0,1.0
15:39:52.677460,176271.765625,170162.859375,160929.265625,198841.125,163272.34375,163503.375,686638.625,160395.046875,-0.062255859375,1.0107421875,-0.0732421875,-1.3122557401657104,0.3967284858226776,0.9765624403953552,100.0,170015.0,1.0
