Timestamp,Fz,FC3,FCz,FC4,Cz,C3,C4
15:31:24.456193,181517.90625,176402.296875,171583.703125,208835.21875,172088.765625,163844.46875,684758.0625,164483.1875,-0.07666015625,0.99755859375,-0.193115234375,-2.410888433456421,-0.0610351525247097,-0.3051757514476776,100.0,42876.0,1.0
15:31:24.466152,181508.25,176394.078125,171576.46875,208817.0625,172084.5625,163833.46875,684721.5,164487.03125,-0.0751953125,0.99755859375,-0.19287109375,-2.502441167831421,-0.1525878757238388,-0.1220703050494194,100.0,42877.0,1.0
15:31:24.470696,181497.515625,176374.578125,171561.359375,208867.671875,172073.65625,163814.0625,684714.625,164492.578125,-0.073974609375,0.999755859375,-0.19189453125,-2.563476324081421,-0.2746581733226776,-0.0610351525247097,100.0,42878.0,1.0
15:31:24.470710,181513.875,176388.171875,171575.21875,208880.90625,172082.515625,163829.796875,684698.0,164499.453125,-0.0712890625,0.9970703125,-0.190673828125,-2.624511480331421,-0.4272460639476776,0.1831054538488388,100.0,42879.0,1.0
15:31:24.476178,181522.90625,176403.28125,171586.390625,208864.8125,172088.859375,163844.640625,684780.0625,164488.1875,-0.06982421875,0.996337890625,-0.191162109375,-2.838134527206421,-0.3662109076976776,0.1525878757238388,100.0,42880.0,1.0
15:31:24.479859,181514.140625,176399.890625,171579.859375,208803.390625,172085.109375,163837.9375,684742.875,164482.828125,-0.06982421875,0.998046875,-0.18994140625,-3.051757574081421,-0.4882812201976776,0.2441406100988388,100.0,42881.0,1.0
15:31:24.490474,181499.484375,176374.859375,171560.90625,208868.65625,172072.234375,163812.015625,684721.9375,164490.15625,-0.0703125,0.9970703125,-0.192138671875,-3.173827886581421,-0.4882812201976776,0.5187987685203552,100.0,42882.0,1.0
15:31:24.490486,181509.671875,176386.75,171568.953125,208860.25,172078.40625,163826.9375,684685.625,164491.59375,-0.072509765625,0.996337890625,-0.193603515625,-3.265380620956421,-0.5798339247703552,0.5493163466453552,100.0,42883.0,1.0
15:31:24.496793,181521.5625,176404.359375,171583.359375,208869.109375,172089.3125,163845.984375,684752.0625,164489.265625,-0.07275390625,0.996826171875,-0.19091796875,-3.326415777206421,-0.6103515028953552,0.7629393935203552,100.0,42884.0,1.0
15:31:24.496830,181516.109375,176407.03125,171584.34375,208796.421875,172089.75,163847.765625,684744.5625,164487.75,-0.07373046875,0.998291015625,-0.19140625,-3.479003667831421,-0.5798339247703552,0.8239745497703552,100.0,42885.0,1.0
15:31:24.506739,181501.453125,176382.453125,171566.640625,208867.578125,172078.3125,163821.390625,684721.25,164493.015625,-0.06982421875,0.99755859375,-0.19140625,-3.570556402206421,-0.6103515028953552,0.7629393935203552,100.0,42886.0,1.0
15:31:24.506750,181505.65625,176384.953125,171568.15625,208856.9375,172078.046875,163826.578125,684672.5625,164497.3125,-0.069091796875,0.995849609375,-0.19287109375,-3.753661870956421,-0.7629393935203552,0.8850097060203552,100.0,42887.0,1.0
15:31:24.509240,181520.3125,176400.953125,171581.203125,208881.71875,172086.796875,163844.015625,684746.6875,164488.28125,-0.06787109375,0.995849609375,-0.18994140625,-3.845214605331421,-0.7019042372703552,0.9765624403953552,100.0,42888.0,1.0
15:31:24.509247,181517.359375,176408.203125,171585.953125,208797.3125,172088.234375,163847.953125,684753.25,164484.078125,-0.06689453125,0.993896484375,-0.189453125,-3.997802495956421,-0.6408690810203552,0.9460448622703552,100.0,42889.0,1.0
15:31:24.546232,181504.3125,176383.34375,171570.203125,208871.515625,172078.75,163820.140625,684729.75,164500.4375,-0.065185546875,0.994384765625,-0.190185546875,-3.997802495956421,-0.6408690810203552,1.0070799589157104,100.0,42890.0,1.0
15:31:24.577941,181502.796875,176379.046875,171566.28125,208865.625,172074.828125,163819.4375,684680.75,164499.8125,-0.067138671875,0.992431640625,-0.1865234375,-4.058837413787842,-0.6103515028953552,1.0375975370407104,100.0,42891.0,1.0
15:31:24.577960,181516.921875,176392.90625,171577.0,208888.0625,172082.953125,163835.25,684735.5625,164492.578125,-0.0673828125,0.993896484375,-0.18701171875,-4.058837413787842,-0.5187987685203552,1.0986326932907104,100.0,42892.0,1.0
15:31:24.577962,181511.90625,176399.703125,171578.796875,208794.1875,172081.078125,163841.25,684758.75,164475.859375,-0.066162109375,0.9931640625,-0.18798828125,-4.150390148162842,-0.5493163466453552,0.9460448622703552,100.0,42893.0,1.0
15:31:24.589187,181495.453125,176372.96875,171559.65625,208842.28125,172068.921875,163811.5625,684730.4375,164486.046875,-0.06494140625,0.99072265625,-0.190185546875,-4.058837413787842,-0.6103515028953552,0.8239745497703552,100.0,42894.0,1.0
15:31:24.589203,181487.5,176360.28125,171548.84375,208849.4375,172059.171875,163800.65625,684692.4375,164484.53125,-0.06494140625,0.9892578125,-0.1904296875,-4.089354991912842,-0.5798339247703552,0.8239745497703552,100.0,42895.0,1.0
15:31:24.589207,181507.625,176379.953125,171566.1875,208881.4375,172071.875,163821.3125,684723.0,164485.0625,-0.063720703125,0.98828125,-0.19140625,-4.089354991912842,-0.4577636420726776,0.7934569716453552,100.0,42896.0,1.0
15:31:24.591828,181510.84375,176395.421875,171576.296875,208810.71875,172078.21875,163836.15625,684768.4375,164474.25,-0.06201171875,0.98779296875,-0.186767578125,-3.967284917831421,-0.4577636420726776,0.7629393935203552,100.0,42897.0,1.0
15:31:24.591839,181497.875,176378.515625,171563.328125,208825.109375,172069.546875,163817.1875,684722.1875,164477.46875,-0.06201171875,0.985107421875,-0.18701171875,-3.875732183456421,-0.2441406100988388,0.6713866591453552,100.0,42898.0,1.0
15:31:24.591843,181493.671875,176368.0625,171555.546875,208857.75,172064.09375,163807.8125,684704.9375,164485.25,-0.062744140625,0.9853515625,-0.19140625,-3.814697027206421,-0.3662109076976776,0.6713866591453552,100.0,42899.0,1.0
15:31:24.593732,181510.125,176385.046875,171569.671875,208873.578125,172076.609375,163828.546875,684705.125,164486.140625,-0.061279296875,0.985107421875,-0.192138671875,-3.692626714706421,-0.1831054538488388,0.7019042372703552,100.0,42900.0,1.0
15:31:24.596288,181514.765625,176398.71875,171579.421875,208831.109375,172083.140625,163842.671875,684760.8125,164477.828125,-0.060546875,0.984375,-0.191650390625,-3.540038824081421,-0.1831054538488388,0.6103515028953552,100.0,42901.0,1.0
15:31:24.599036,181504.578125,176387.734375,171569.671875,208812.421875,172077.0625,163827.921875,684724.0625,164484.34375,-0.0615234375,0.984619140625,-0.19140625,-3.479003667831421,-0.1525878757238388,0.6713866591453552,100.0,42902.0,1.0
15:31:24.601383,181497.609375,176371.0,171560.109375,208875.8125,172071.515625,163809.78125,684714.6875,164500.4375,-0.0625,0.98486328125,-0.18896484375,-3.234863042831421,0.0,0.7934569716453552,100.0,42903.0,1.0
15:31:24.603808,181515.484375,176388.890625,171575.671875,208881.625,172083.3125,163829.4375,684689.875,164504.640625,-0.063232421875,0.98583984375,-0.188232421875,-3.143310308456421,0.03051757626235485,0.7019042372703552,100.0,42904.0,1.0
15:31:24.606154,181518.890625,176403.46875,171582.8125,208844.25,172088.140625,163845.984375,684763.0,164481.9375,-0.064697265625,0.987060546875,-0.18505859375,-2.899169683456421,0.1220703050494194,0.7019042372703552,100.0,42905.0,1.0
15:31:24.608603,181512.171875,176400.0625,171580.84375,208799.359375,172086.265625,163840.625,684726.6875,164487.484375,-0.06494140625,0.986083984375,-0.187255859375,-2.777099370956421,0.1831054538488388,0.6408690810203552,100.0,42906.0,1.0
15:31:24.611717,181500.734375,176376.640625,171565.03125,208874.375,172076.171875,163816.484375,684716.875,164497.3125,-0.06494140625,0.985595703125,-0.18994140625,-2.624511480331421,0.2746581733226776,0.5493163466453552,100.0,42907.0,1.0
15:31:24.611728,181510.921875,176384.421875,171571.546875,208868.390625,172080.8125,163829.265625,684679.1875,164496.234375,-0.06591796875,0.9853515625,-0.18701171875,-2.471923589706421,0.3356933295726776,0.5798339247703552,100.0,42908.0,1.0
15:31:24.613708,181525.953125,176403.375,171587.375,208884.484375,172092.25,163848.578125,684765.5625,164495.25,-0.066162109375,0.986083984375,-0.185791015625,-2.349853277206421,0.3356933295726776,0.5798339247703552,100.0,42909.0,1.0
15:31:24.616243,181513.96875,176402.75,171580.765625,208792.390625,172086.625,163845.71875,684742.6875,164482.734375,-0.06640625,0.98681640625,-0.18310546875,-2.258300542831421,0.3051757514476776,0.7019042372703552,100.0,42910.0,1.0
15:31:24.619300,181498.671875,176376.90625,171562.25,208865.96875,172074.109375,163818.09375,684728.3125,164492.671875,-0.066162109375,0.989013671875,-0.185546875,-2.136230230331421,0.3051757514476776,0.5493163466453552,100.0,42911.0,1.0
15:31:24.619316,181508.15625,176387.28125,171572.53125,208857.921875,172081.890625,163833.203125,684676.8125,164498.03125,-0.065673828125,0.990966796875,-0.18505859375,-2.105712652206421,0.3356933295726776,0.5187987685203552,100.0,42912.0,1.0
15:31:24.621820,181528.984375,176408.828125,171592.65625,208893.0625,172097.71875,163855.640625,684729.125,164502.3125,-0.069091796875,0.9892578125,-0.18505859375,-1.9836424589157104,0.3051757514476776,0.5798339247703552,100.0,42913.0,1.0
15:31:24.621840,181526.578125,176415.890625,171595.0625,208807.6875,172098.515625,163859.84375,684737.25,164495.890625,-0.071044921875,0.991455078125,-0.187255859375,-1.9531248807907104,0.2746581733226776,0.5187987685203552,100.0,42914.0,1.0
15:31:24.624247,181514.140625,176392.640625,171578.078125,208875.90625,172087.96875,163831.859375,684722.375,164505.53125,-0.072021484375,0.991943359375,-0.186767578125,-1.8920897245407104,0.3051757514476776,0.5187987685203552,100.0,42915.0,1.0
15:31:24.624263,181510.296875,176387.640625,171571.8125,208863.921875,172082.609375,163829.890625,684675.8125,164500.71875,-0.072509765625,0.9921875,-0.185302734375,-1.8310545682907104,0.1831054538488388,0.4882812201976776,100.0,42916.0,1.0
15:31:24.626172,181519.953125,176398.546875,171579.234375,208881.890625,172087.15625,163843.03125,684726.4375,164490.421875,-0.069091796875,0.992431640625,-0.18505859375,-1.7395018339157104,0.2136230319738388,0.4577636420726776,100.0,42917.0,1.0
15:31:24.634323,181523.71875,176411.6875,171588.8125,208803.84375,172094.3125,163855.734375,684752.8125,164488.8125,-0.068359375,0.9931640625,-0.1865234375,-1.6479490995407104,0.1525878757238388,0.3967284858226776,100.0,42918.0,1.0
15:31:24.634360,181511.546875,176391.21875,171574.140625,208852.125,172085.109375,163831.59375,684738.5,164497.578125,-0.06640625,0.994384765625,-0.1845703125,-1.5869139432907104,0.1525878757238388,0.3967284858226776,100.0,42919.0,1.0
15:31:24.636693,181505.203125,176381.375,171565.5625,208862.484375,172078.21875,163825.59375,684703.0625,164502.5,-0.06591796875,0.994140625,-0.1826171875,-1.6784666776657104,0.1831054538488388,0.4272460639476776,100.0,42920.0,1.0
15:31:24.636699,181522.375,176397.921875,171580.140625,208892.53125,172090.375,163846.078125,684715.6875,164504.015625,-0.06787109375,0.992919921875,-0.18603515625,-1.8005369901657104,0.1525878757238388,0.5493163466453552,100.0,42921.0,1.0
15:31:24.646091,181519.6875,176405.703125,171584.609375,208818.046875,172091.0,163853.40625,684758.5,164489.71875,-0.06591796875,0.992431640625,-0.185546875,-1.8005369901657104,0.0915527269244194,0.5798339247703552,100.0,42922.0,1.0
15:31:24.653033,181505.734375,176386.46875,171571.1875,208835.125,172081.078125,163830.6875,684713.6875,164500.171875,-0.06591796875,0.99169921875,-0.186767578125,-1.7395018339157104,0.1220703050494194,0.5798339247703552,100.0,42923.0,1.0
15:31:24.653068,181496.984375,176373.25,171558.5,208861.859375,172070.796875,163817.1875,684689.1875,164495.34375,-0.064208984375,0.991943359375,-0.186767578125,-1.7700194120407104,0.0915527269244194,0.7324218153953552,100.0,42924.0,1.0
15:31:24.660457,181515.21875,176390.3125,171572.796875,208878.9375,172081.34375,163838.03125,684684.125,164497.140625,-0.064208984375,0.99169921875,-0.18603515625,-1.8005369901657104,0.1220703050494194,0.7629393935203552,100.0,42925.0,1.0
15:31:24.660464,181522.640625,176407.21875,171584.25,208833.078125,172087.4375,163854.03125,684741.6875,164487.5625,-0.064208984375,0.992431640625,-0.18505859375,-1.8615721464157104,0.2746581733226776,0.7324218153953552,100.0,42926.0,1.0
15:31:24.662323,181513.078125,176397.296875,171575.9375,208816.71875,172081.703125,163841.0625,684708.8125,164493.5625,-0.06396484375,0.992431640625,-0.1865234375,-1.8310545682907104,0.3051757514476776,0.7019042372703552,100.0,42927.0,1.0
15:31:24.666108,181499.03125,176375.75,171557.78125,208873.03125,172068.75,163819.15625,684702.4375,164500.0,-0.063720703125,0.99169921875,-0.188232421875,-1.8310545682907104,0.3356933295726776,0.7019042372703552,100.0,42928.0,1.0
15:31:24.676107,181506.28125,176385.765625,171563.140625,208865.890625,172071.78125,163831.953125,684679.3125,164493.640625,-0.06396484375,0.992431640625,-0.185791015625,-1.7395018339157104,0.3356933295726776,0.7934569716453552,100.0,42929.0,1.0
15:31:24.680448,181513.078125,176400.6875,171573.609375,208843.4375,172079.203125,163848.671875,684755.1875,164478.359375,-0.064697265625,0.99169921875,-0.186279296875,-1.7700194120407104,0.3967284858226776,0.8239745497703552,100.0,42930.0,1.0
15:31:24.680460,181504.75,176396.21875,171570.296875,208788.28125,172076.703125,163842.046875,684720.125,164482.203125,-0.064208984375,0.991455078125,-0.18701171875,-1.8615721464157104,0.3356933295726776,0.6103515028953552,100.0,42931.0,1.0
15:31:24.682368,181496.078125,176375.203125,171556.53125,208867.9375,172068.125,163819.34375,684731.3125,164494.984375,-0.065185546875,0.992919921875,-0.187255859375,-1.8005369901657104,0.3967284858226776,0.5493163466453552,100.0,42932.0,1.0
15:31:24.694987,181510.296875,176388.890625,171568.25,208863.109375,172076.96875,163835.34375,684677.3125,164496.15625,-0.06787109375,0.993408203125,-0.185302734375,-1.7395018339157104,0.3356933295726776,0.3662109076976776,100.0,42933.0,1.0
15:31:24.699278,181526.484375,176408.828125,171585.59375,208873.3125,172090.015625,163855.90625,684746.875,164492.21875,-0.068359375,0.993408203125,-0.186279296875,-1.8615721464157104,0.3967284858226776,0.2136230319738388,100.0,42934.0,1.0
15:31:24.699290,181520.140625,176411.234375,171586.21875,208794.625,172090.015625,163857.703125,684742.4375,164490.609375,-0.068603515625,0.99169921875,-0.185546875,-1.8615721464157104,0.3662109076976776,0.0610351525247097,100.0,42935.0,1.0
15:31:24.699294,181505.65625,176384.421875,171567.890625,208875.1875,172078.75,163828.375,684731.0625,164502.953125,-0.069091796875,0.990478515625,-0.18505859375,-1.7395018339157104,0.3051757514476776,-0.0610351525247097,100.0,42936.0,1.0
15:31:24.708748,181509.40625,176385.9375,171568.6875,208869.109375,172078.3125,163831.59375,684674.75,164506.875,-0.06787109375,0.991455078125,-0.1875,-1.7395018339157104,0.4272460639476776,-0.1525878757238388,100.0,42937.0,1.0
15:31:24.713160,181523.265625,176402.921875,171581.296875,208887.25,172087.078125,163850.28125,684744.5,164500.171875,-0.06494140625,0.989990234375,-0.188232421875,-1.7700194120407104,0.3662109076976776,-0.1831054538488388,100.0,42938.0,1.0
15:31:24.713181,181517.28125,176409.453125,171582.1875,208798.296875,172087.15625,163854.203125,684745.125,164490.96875,-0.064453125,0.991943359375,-0.18798828125,-1.6784666776657104,0.2441406100988388,-0.2746581733226776,100.0,42939.0,1.0
15:31:24.714906,181500.546875,176383.25,171561.265625,208861.765625,172072.765625,163824.703125,684720.0625,164498.03125,-0.063232421875,0.99169921875,-0.189697265625,-1.7700194120407104,0.2441406100988388,-0.3051757514476776,100.0,42940.0,1.0
15:31:24.726681,181502.34375,176381.921875,171561.890625,208859.265625,172071.96875,163826.765625,684680.5625,164502.234375,-0.06396484375,0.9921875,-0.184326171875,-1.7395018339157104,0.3967284858226776,-0.2441406100988388,100.0,42941.0,1.0
15:31:24.726689,181526.125,176405.15625,171585.046875,208895.5625,172091.453125,163853.3125,684725.3125,164502.3125,-0.063720703125,0.992431640625,-0.184814453125,-1.7089842557907104,0.3662109076976776,-0.2136230319738388,100.0,42942.0,1.0
15:31:24.740435,181525.59375,176413.75,171591.484375,208812.328125,172094.578125,163862.34375,684748.9375,164495.078125,-0.064697265625,0.993408203125,-0.185546875,-1.7089842557907104,0.3967284858226776,-0.1525878757238388,100.0,42943.0,1.0
15:31:24.740443,181509.859375,176388.265625,171572.796875,208854.171875,172081.078125,163833.828125,684724.625,164503.921875,-0.06494140625,0.995849609375,-0.18701171875,-1.7700194120407104,0.4272460639476776,-0.1220703050494194,100.0,42944.0,1.0
15:31:24.742368,181501.984375,176377.796875,171561.890625,208860.4375,172072.5,163824.53125,684692.0,164500.0,-0.06591796875,0.997802734375,-0.186767578125,-1.8310545682907104,0.4272460639476776,0.03051757626235485,100.0,42945.0,1.0
15:31:24.744885,181515.671875,176391.65625,171572.0,208883.59375,172079.65625,163840.703125,684706.0,164495.609375,-0.0673828125,0.996826171875,-0.1884765625,-1.8005369901657104,0.4272460639476776,0.03051757626235485,100.0,42946.0,1.0
15:31:24.747349,181517.546875,176402.84375,171578.609375,208816.53125,172081.96875,163850.90625,684747.875,164486.9375,-0.067626953125,0.9970703125,-0.187255859375,-1.8310545682907104,0.4272460639476776,0.1525878757238388,100.0,42947.0,1.0
15:31:24.750283,181508.0625,176388.625,171568.515625,208833.078125,172077.234375,163832.390625,684730.25,164497.578125,-0.06689453125,0.998291015625,-0.187255859375,-1.9531248807907104,0.4577636420726776,0.1525878757238388,100.0,42948.0,1.0
15:31:24.754361,181498.3125,176373.6875,171554.65625,208864.015625,172067.578125,163817.828125,684718.75,164499.109375,-0.068603515625,0.9970703125,-0.186279296875,-1.8920897245407104,0.4577636420726776,0.1525878757238388,100.0,42949.0,1.0
15:31:24.760400,181514.765625,176388.078125,171568.875,208885.203125,172077.859375,163835.078125,684704.4375,164503.390625,-0.068603515625,0.99658203125,-0.186279296875,-1.9226073026657104,0.3967284858226776,0.1525878757238388,100.0,42950.0,1.0
15:31:24.760409,181522.1875,176402.921875,171580.5,208849.609375,172084.390625,163850.09375,684765.375,164498.46875,-0.0693359375,0.99853515625,-0.187255859375,-2.105712652206421,0.3662109076976776,0.0,100.0,42951.0,1.0
15:31:24.765189,181505.375,176387.375,171565.828125,208815.375,172072.140625,163831.328125,684727.1875,164494.984375,-0.0673828125,0.995849609375,-0.18798828125,-2.136230230331421,0.3662109076976776,-0.03051757626235485,100.0,42952.0,1.0
15:31:24.768575,181487.953125,176364.296875,171544.8125,208857.125,172056.234375,163807.53125,684728.375,164489.890625,-0.06982421875,0.998046875,-0.18408203125,-2.227782964706421,0.2441406100988388,0.03051757626235485,100.0,42953.0,1.0
15:31:24.776754,181498.234375,176374.765625,171552.59375,208852.828125,172061.953125,163821.9375,684691.4375,164486.140625,-0.069580078125,0.995849609375,-0.185791015625,-2.197265386581421,0.2441406100988388,0.0915527269244194,100.0,42954.0,1.0
15:31:24.776768,181507.796875,176389.25,171564.578125,208844.78125,172069.90625,163838.65625,684761.1875,164482.109375,-0.068603515625,0.994384765625,-0.185791015625,-2.288818120956421,0.3662109076976776,0.1220703050494194,100.0,42955.0,1.0
15:31:24.778842,181496.890625,176381.640625,171557.421875,208788.453125,172064.265625,163829.71875,684734.0,164482.5625,-0.07080078125,0.9931640625,-0.183837890625,-2.288818120956421,0.3051757514476776,0.0915527269244194,100.0,42956.0,1.0
15:31:24.790457,181480.703125,176356.53125,171535.78125,208851.9375,172048.625,163803.25,684733.375,164482.03125,-0.070556640625,0.9931640625,-0.18505859375,-2.319335699081421,0.3051757514476776,0.0,100.0,42957.0,1.0
15:31:24.790473,181490.265625,176367.609375,171543.296875,208841.828125,172053.09375,163817.640625,684678.3125,164478.53125,-0.06884765625,0.992431640625,-0.186279296875,-2.349853277206421,0.2441406100988388,0.03051757626235485,100.0,42958.0,1.0
15:31:24.792944,181506.015625,176386.46875,171559.578125,208856.40625,172064.984375,163838.734375,684749.125,164475.140625,-0.070068359375,0.9912109375,-0.18798828125,-2.380370855331421,0.3356933295726776,-0.1220703050494194,100.0,42959.0,1.0
15:31:24.792957,181503.140625,176389.78125,171562.96875,208782.109375,172066.78125,163839.71875,684735.0625,164476.21875,-0.0712890625,0.991943359375,-0.187744140625,-2.380370855331421,0.2441406100988388,0.0,100.0,42960.0,1.0
15:31:24.802335,181491.34375,176366.265625,171550.625,208872.765625,172062.578125,163815.046875,684709.8125,164500.171875,-0.070556640625,0.990966796875,-0.186279296875,-2.319335699081421,0.1831054538488388,-0.0915527269244194,100.0,42961.0,1.0
15:31:24.805452,181486.15625,176363.40625,171543.296875,208846.9375,172055.25,163815.578125,684664.4375,164487.65625,-0.070068359375,0.989013671875,-0.18505859375,-2.349853277206421,0.2136230319738388,-0.0610351525247097,100.0,42962.0,1.0
15:31:24.805461,181505.921875,176383.796875,171555.90625,208875.1875,172063.296875,163833.46875,684742.875,164482.109375,-0.07080078125,0.989013671875,-0.185302734375,-2.319335699081421,0.2136230319738388,0.0610351525247097,100.0,42963.0,1.0
15:31:24.808623,181501.984375,176390.5,171556.265625,208777.015625,172062.21875,163838.65625,684747.6875,164468.609375,-0.072509765625,0.989501953125,-0.185791015625,-2.319335699081421,0.1831054538488388,0.1220703050494194,100.0,42964.0,1.0
15:31:24.824246,181494.828125,176372.96875,171547.5,208856.046875,172060.078125,163818.09375,684726.4375,164489.71875,-0.07080078125,0.99072265625,-0.184814453125,-2.166747808456421,0.1831054538488388,0.0610351525247097,100.0,42965.0,1.0
15:31:24.824281,181492.234375,176370.296875,171544.640625,208849.53125,172059.359375,163818.0,684681.5,164489.359375,-0.070068359375,0.9892578125,-0.18505859375,-2.197265386581421,0.1525878757238388,0.0,100.0,42966.0,1.0
15:31:24.826077,181511.015625,176389.609375,171560.375,208874.203125,172071.609375,163839.640625,684734.1875,164482.734375,-0.067626953125,0.9912109375,-0.187744140625,-2.197265386581421,0.1831054538488388,0.03051757626235485,100.0,42967.0,1.0
15:31:24.829081,181517.546875,176409.0,171575.03125,208800.0,172080.453125,163857.25,684762.375,164481.21875,-0.068115234375,0.99169921875,-0.186767578125,-2.105712652206421,0.1831054538488388,0.0610351525247097,100.0,42968.0,1.0
15:31:24.834877,181505.5625,176389.0625,171561.71875,208850.328125,172071.25,163833.28125,684709.0625,164494.09375,-0.06787109375,0.992431640625,-0.184814453125,-1.9531248807907104,0.2136230319738388,0.2441406100988388,100.0,42969.0,1.0
15:31:24.837349,181499.75,176378.34375,171551.25,208863.65625,172062.390625,163823.0,684685.4375,164495.796875,-0.068115234375,0.99169921875,-0.1826171875,-1.9531248807907104,0.1525878757238388,0.2746581733226776,100.0,42970.0,1.0
15:31:24.844309,181515.671875,176395.5,171566.015625,208885.828125,172074.828125,163843.484375,684711.3125,164494.1875,-0.0673828125,0.9931640625,-0.185302734375,-1.9226073026657104,0.1831054538488388,0.2441406100988388,100.0,42971.0,1.0
15:31:24.844342,181520.671875,176410.34375,171576.734375,208819.84375,172082.421875,163857.15625,684757.1875,164485.15625,-0.068603515625,0.992919921875,-0.185546875,-1.9836424589157104,0.2136230319738388,0.4272460639476776,100.0,42972.0,1.0
15:31:24.846106,181509.046875,176394.515625,171565.203125,208829.9375,172074.828125,163837.40625,684728.5625,164488.109375,-0.07080078125,0.99169921875,-0.187255859375,-1.9226073026657104,0.0915527269244194,0.4272460639476776,100.0,42973.0,1.0
15:31:24.857353,181501.0,176380.125,171554.296875,208866.421875,172066.515625,163823.09375,684717.8125,164494.984375,-0.07275390625,0.990966796875,-0.18359375,-1.8615721464157104,0.0915527269244194,0.4882812201976776,100.0,42974.0,1.0
15:31:24.861676,181513.703125,176393.53125,171564.484375,208875.0,172074.828125,163841.515625,684704.875,164493.734375,-0.071533203125,0.9931640625,-0.1826171875,-1.8615721464157104,0.0915527269244194,0.4882812201976776,100.0,42975.0,1.0
15:31:24.861699,181517.359375,176408.015625,171574.0625,208828.25,172081.890625,163858.5,684765.375,164482.375,-0.07080078125,0.9921875,-0.185546875,-1.8310545682907104,0.0610351525247097,0.6408690810203552,100.0,42976.0,1.0
15:31:24.861702,181509.859375,176400.515625,171567.625,208806.78125,172079.65625,163848.9375,684726.125,164489.71875,-0.072021484375,0.9921875,-0.187744140625,-1.7395018339157104,0.0610351525247097,0.6103515028953552,100.0,42977.0,1.0
15:31:24.870077,181496.984375,176377.984375,171549.46875,208866.78125,172065.609375,163825.859375,684713.1875,164494.1875,-0.069580078125,0.994140625,-0.18603515625,-1.7700194120407104,-0.03051757626235485,0.5187987685203552,100.0,42978.0,1.0
15:31:24.874370,181506.71875,176388.625,171556.796875,208863.375,172068.921875,163839.546875,684697.6875,164491.0625,-0.069580078125,0.994140625,-0.186767578125,-1.7700194120407104,-0.0610351525247097,0.6408690810203552,100.0,42979.0,1.0
15:31:24.874984,181517.546875,176405.078125,171571.46875,208855.34375,172079.296875,163855.546875,684772.4375,164488.546875,-0.070556640625,0.992431640625,-0.188232421875,-1.7089842557907104,-0.0610351525247097,0.7324218153953552,100.0,42980.0,1.0
15:31:24.906723,181511.734375,176402.296875,171570.125,208802.578125,172076.609375,163850.90625,684741.8125,164487.484375,-0.0693359375,0.99169921875,-0.18603515625,-1.7700194120407104,-0.0915527269244194,0.7934569716453552,100.0,42981.0,1.0
15:31:24.906752,181499.390625,176381.46875,171552.15625,208867.5,172065.796875,163828.1875,684738.5625,164491.234375,-0.0693359375,0.99072265625,-0.185302734375,-1.7395018339157104,-0.0610351525247097,0.8850097060203552,100.0,42982.0,1.0
15:31:24.926076,181508.515625,176391.125,171559.578125,208855.25,172070.703125,163841.0625,684691.5625,164489.265625,-0.072021484375,0.990966796875,-0.184814453125,-1.6784666776657104,-0.0610351525247097,0.8544921278953552,100.0,42983.0,1.0
15:31:24.928618,181525.5,176411.421875,171578.078125,208873.9375,172085.46875,163862.078125,684762.375,164490.875,-0.07177734375,0.990966796875,-0.183349609375,-1.6784666776657104,-0.0915527269244194,0.8544921278953552,100.0,42984.0,1.0
15:31:24.931108,181514.140625,176407.671875,171572.796875,208790.515625,172080.28125,163857.0625,684749.0625,164484.796875,-0.072265625,0.9931640625,-0.185302734375,-1.7089842557907104,-0.2136230319738388,1.0070799589157104,100.0,42985.0,1.0
15:31:24.936106,181498.046875,176381.375,171551.796875,208859.890625,172066.515625,163827.5625,684721.9375,164487.5625,-0.070068359375,0.99267578125,-0.18359375,-1.6174315214157104,-0.1831054538488388,0.9460448622703552,100.0,42986.0,1.0
15:31:24.938565,181503.6875,176384.234375,171555.015625,208855.25,172067.671875,163833.28125,684682.6875,164493.828125,-0.07080078125,0.992431640625,-0.184814453125,-1.6479490995407104,-0.2136230319738388,0.9765624403953552,100.0,42987.0,1.0
15:31:24.941177,181517.90625,176400.515625,171568.15625,208879.03125,172076.078125,163851.34375,684742.4375,164488.109375,-0.070556640625,0.99462890625,-0.182373046875,-1.6174315214157104,-0.1831054538488388,0.9460448622703552,100.0,42988.0,1.0
15:31:24.943583,181509.40625,176402.75,171565.828125,208782.828125,172073.390625,163852.15625,684750.625,164476.296875,-0.07275390625,0.993408203125,-0.1845703125,-1.6479490995407104,-0.1525878757238388,1.0070799589157104,100.0,42989.0,1.0
15:31:24.946079,181496.4375,176378.515625,171548.84375,208850.328125,172063.921875,163823.359375,684723.75,164490.15625,-0.071044921875,0.99365234375,-0.186279296875,-1.6479490995407104,-0.1831054538488388,1.0070799589157104,100.0,42990.0,1.0
15:31:24.948591,181495.453125,176373.25,171545.796875,208850.0625,172059.453125,163820.859375,684686.0625,164493.921875,-0.06982421875,0.99365234375,-0.185546875,-1.6174315214157104,-0.2441406100988388,1.0681151151657104,100.0,42991.0,1.0
15:31:24.951072,181507.96875,176386.5625,171556.4375,208874.203125,172065.96875,163836.328125,684730.0625,164482.375,-0.0693359375,0.993408203125,-0.185546875,-1.5869139432907104,-0.3051757514476776,1.0681151151657104,100.0,42992.0,1.0
15:31:24.953646,181506.359375,176396.484375,171562.4375,208787.75,172067.9375,163845.09375,684756.125,164473.171875,-0.068115234375,0.9921875,-0.184326171875,-1.6174315214157104,-0.0610351525247097,1.1596678495407104,100.0,42993.0,1.0
15:31:24.956169,181494.75,176377.890625,171549.109375,208832.453125,172059.984375,163823.453125,684732.5625,164484.53125,-0.0673828125,0.992919921875,-0.1865234375,-1.5869139432907104,-0.0610351525247097,1.1291502714157104,100.0,42994.0,1.0
15:31:24.958598,181488.21875,176367.875,171539.640625,208843.0,172052.828125,163815.046875,684710.5,164482.5625,-0.068115234375,0.99609375,-0.184814453125,-1.6479490995407104,0.0,1.3122557401657104,100.0,42995.0,1.0
15:31:24.961669,181507.265625,176384.953125,171555.90625,208869.375,172064.984375,163835.4375,684729.75,164482.828125,-0.0693359375,0.993896484375,-0.186767578125,-1.5869139432907104,0.03051757626235485,1.3427733182907104,100.0,42996.0,1.0
15:31:24.961676,181514.234375,176401.3125,171568.6875,208814.03125,172075.453125,163853.140625,684773.875,164480.5,-0.06591796875,0.996337890625,-0.184814453125,-1.6479490995407104,-0.03051757626235485,1.3732908964157104,100.0,42997.0,1.0
15:31:24.963565,181501.453125,176386.03125,171556.703125,208820.375,172070.0,163835.875,684717.0,164487.5625,-0.064697265625,0.996826171875,-0.18408203125,-1.6479490995407104,0.03051757626235485,1.4038084745407104,100.0,42998.0,1.0
15:31:24.966676,181499.75,176377.359375,171553.578125,208869.734375,172069.015625,163828.734375,684699.75,164503.84375,-0.0634765625,0.996337890625,-0.18408203125,-1.6479490995407104,0.1525878757238388,1.5563963651657104,100.0,42999.0,1.0
15:31:24.966689,181510.125,176390.40625,171560.734375,208866.875,172074.015625,163846.609375,684704.0,164486.140625,-0.06494140625,0.99658203125,-0.184814453125,-1.7395018339157104,0.2136230319738388,1.5869139432907104,100.0,43000.0,1.0
15:31:24.968579,181515.75,176405.421875,171571.546875,208823.953125,172080.640625,163860.921875,684767.625,164475.765625,-0.063720703125,0.99658203125,-0.1865234375,-1.7089842557907104,0.3356933295726776,1.7089842557907104,100.0,43001.0,1.0
15:31:24.983831,181507.625,176398.015625,171566.546875,208802.671875,172077.859375,163849.65625,684730.0625,164484.796875,-0.06396484375,0.995849609375,-0.183837890625,-1.8005369901657104,0.3662109076976776,1.7700194120407104,100.0,43002.0,1.0
15:31:24.983859,181494.65625,176374.21875,171548.578125,208860.15625,172064.71875,163824.96875,684717.75,164491.953125,-0.063232421875,0.99658203125,-0.184326171875,-1.8005369901657104,0.3967284858226776,1.7089842557907104,100.0,43003.0,1.0
15:31:24.983865,181506.1875,176384.15625,171555.8125,208859.265625,172069.375,163837.671875,684685.9375,164492.125,-0.0634765625,0.996826171875,-0.18408203125,-1.8615721464157104,0.4882812201976776,1.7700194120407104,100.0,43004.0,1.0
15:31:24.983871,181518.171875,176400.515625,171569.671875,208852.65625,172079.734375,163854.203125,684756.375,164488.375,-0.06201171875,0.99560546875,-0.18701171875,-1.9226073026657104,0.5798339247703552,1.7089842557907104,100.0,43005.0,1.0
15:31:24.983875,181512.53125,176399.96875,171568.78125,208794.0,172079.5625,163851.078125,684736.625,164490.078125,-0.0595703125,0.995361328125,-0.184326171875,-1.8920897245407104,0.5798339247703552,1.7700194120407104,100.0,43006.0,1.0
15:31:24.989163,181499.21875,176376.8125,171551.25,208866.25,172069.1875,163827.203125,684732.5625,164498.921875,-0.061279296875,0.994384765625,-0.185546875,-1.9226073026657104,0.6713866591453552,1.8615721464157104,100.0,43007.0,1.0
15:31:24.989188,181506.984375,176385.484375,171558.671875,208856.9375,172073.921875,163840.625,684682.9375,164499.375,-0.060546875,0.993896484375,-0.184326171875,-1.9531248807907104,0.7324218153953552,1.8005369901657104,100.0,43008.0,1.0
15:31:24.991815,181518.171875,176400.6875,171570.75,208872.5,172081.625,163855.546875,684744.0,164493.5625,-0.0595703125,0.9912109375,-0.1826171875,-1.9226073026657104,0.8850097060203552,1.7700194120407104,100.0,43009.0,1.0
15:31:24.991838,181508.0625,176398.90625,171567.53125,208792.484375,172076.796875,163851.171875,684731.6875,164489.453125,-0.06005859375,0.990478515625,-0.18212890625,-1.8615721464157104,0.9765624403953552,1.7700194120407104,100.0,43010.0,1.0
15:31:24.999821,181496.078125,176376.375,171550.546875,208867.9375,172067.3125,163825.59375,684708.5,164500.359375,-0.06103515625,0.989990234375,-0.184326171875,-1.8310545682907104,1.0375975370407104,1.6174315214157104,100.0,43011.0,1.0
15:31:25.010412,181500.109375,176380.484375,171552.234375,208854.703125,172067.484375,163833.640625,684675.0,164494.625,-0.061279296875,0.98974609375,-0.18310546875,-1.9226073026657104,1.2207030057907104,1.6479490995407104,100.0,43012.0,1.0
15:31:25.010427,181514.234375,176397.375,171566.09375,208877.59375,172077.78125,163852.875,684744.9375,164489.796875,-0.0625,0.990234375,-0.184814453125,-1.9836424589157104,1.2207030057907104,1.4953612089157104,100.0,43013.0,1.0
15:31:25.012925,181510.75,176404.984375,171569.140625,208786.3125,172078.125,163859.9375,684750.125,164481.84375,-0.06201171875,0.98974609375,-0.18798828125,-1.8920897245407104,1.3122557401657104,1.5563963651657104,100.0,43014.0,1.0
15:31:25.012939,181497.609375,176381.109375,171551.703125,208852.390625,172067.671875,163832.484375,684729.4375,164490.609375,-0.062255859375,0.991455078125,-0.1865234375,-1.8005369901657104,1.3732908964157104,1.4343260526657104,100.0,43015.0,1.0
15:31:25.024931,181494.296875,176375.65625,171545.625,208848.359375,172062.75,163828.28125,684687.0625,164488.375,-0.06103515625,0.989990234375,-0.18505859375,-1.6784666776657104,1.4343260526657104,1.3427733182907104,100.0,43016.0,1.0
15:31:25.029357,181514.0625,176395.140625,171564.046875,208882.25,172076.4375,163850.1875,684736.875,164489.265625,-0.06005859375,0.9873046875,-0.184814453125,-1.7395018339157104,1.4953612089157104,1.3122557401657104,100.0,43017.0,1.0
15:31:25.029391,181514.6875,176408.46875,171572.359375,208800.53125,172081.53125,163862.796875,684767.0,164482.5625,-0.061767578125,0.987060546875,-0.184814453125,-1.7089842557907104,1.4648436307907104,1.2512205839157104,100.0,43018.0,1.0
15:31:25.029403,181504.9375,176391.390625,171561.09375,208846.75,172075.265625,163842.140625,684720.125,164498.390625,-0.064208984375,0.988525390625,-0.185546875,-1.5258787870407104,1.5258787870407104,1.3427733182907104,100.0,43019.0,1.0
15:31:25.034868,181497.328125,176379.046875,171551.703125,208862.84375,172066.953125,163832.578125,684694.9375,164502.765625,-0.064453125,0.98828125,-0.1845703125,-1.4953612089157104,1.4648436307907104,1.2512205839157104,100.0,43020.0,1.0
15:31:25.045535,181511.546875,176393.53125,171561.984375,208879.5625,172075.0,163851.53125,684722.75,164495.4375,-0.063720703125,0.987548828125,-0.184814453125,-1.4953612089157104,1.4648436307907104,1.1596678495407104,100.0,43021.0,1.0
15:31:25.045547,181513.875,176406.765625,171570.390625,208815.109375,172080.09375,163864.9375,684769.0625,164485.515625,-0.062255859375,0.990966796875,-0.18408203125,-1.4038084745407104,1.4953612089157104,1.0070799589157104,100.0,43022.0,1.0
15:31:25.049150,181499.578125,176388.984375,171556.0,208821.71875,172068.921875,163842.59375,684729.125,164492.390625,-0.064208984375,0.992431640625,-0.1875,-1.3427733182907104,1.5563963651657104,0.9765624403953552,100.0,43023.0,1.0
15:31:25.049160,181488.390625,176370.375,171542.40625,208859.453125,172058.015625,163823.453125,684720.75,164495.53125,-0.065185546875,0.99169921875,-0.185791015625,-1.2817381620407104,1.4953612089157104,0.9460448622703552,100.0,43024.0,1.0
15:31:25.064981,181507.4375,176387.375,171557.0625,208871.78125,172069.546875,163842.9375,684698.25,164494.8125,-0.063720703125,0.99267578125,-0.18310546875,-1.2512205839157104,1.4648436307907104,1.0070799589157104,100.0,43025.0,1.0
15:31:25.084695,181516.375,176404.71875,171571.1875,208832.984375,172078.578125,163859.3125,684756.0,164488.375,-0.064697265625,0.992431640625,-0.18408203125,-1.1291502714157104,1.5258787870407104,0.8850097060203552,100.0,43026.0,1.0
15:31:25.084782,181510.75,176397.828125,171567.96875,208813.21875,172076.96875,163849.203125,684731.75,164499.8125,-0.065185546875,0.992919921875,-0.184814453125,-1.1291502714157104,1.5258787870407104,1.0681151151657104,100.0,43027.0,1.0
15:31:25.084810,181496.265625,176375.75,171548.21875,208866.6875,172062.9375,163827.125,684730.375,164498.65625,-0.064453125,0.9921875,-0.185791015625,-1.1596678495407104,1.4953612089157104,0.9765624403953552,100.0,43028.0,1.0
15:31:25.084834,181505.203125,176385.578125,171554.828125,208861.0625,172068.296875,163841.515625,684694.6875,164497.21875,-0.0654296875,0.993896484375,-0.1865234375,-1.0986326932907104,1.4953612089157104,1.0681151151657104,100.0,43029.0,1.0
15:31:25.086205,181515.9375,176403.1875,171569.5,208850.953125,172078.671875,163860.46875,684767.0,164489.171875,-0.065185546875,0.994384765625,-0.18505859375,-0.9765624403953552,1.3427733182907104,1.0681151151657104,100.0,43030.0,1.0
15:31:25.089937,181510.484375,176402.5625,171567.625,208796.859375,172077.59375,163856.265625,684739.375,164493.640625,-0.0634765625,0.994384765625,-0.1845703125,-0.8850097060203552,1.3732908964157104,1.1596678495407104,100.0,43031.0,1.0
15:31:25.091008,181492.0625,176372.96875,171544.109375,208866.6875,172060.34375,163826.84375,684733.75,164497.578125,-0.061279296875,0.994873046875,-0.184814453125,-0.8850097060203552,1.3122557401657104,1.1596678495407104,100.0,43032.0,1.0
15:31:25.091082,181498.9375,176379.859375,171549.296875,208858.546875,172062.75,163837.046875,684684.8125,164501.515625,-0.061767578125,0.995361328125,-0.18603515625,-0.8850097060203552,1.2512205839157104,1.2207030057907104,100.0,43033.0,1.0
15:31:25.092641,181510.390625,176395.421875,171561.890625,208869.734375,172071.34375,163852.234375,684762.875,164492.671875,-0.06298828125,0.9951171875,-0.182861328125,-0.9765624403953552,1.4038084745407104,1.2817381620407104,100.0,43034.0,1.0
15:31:25.094919,181505.03125,176398.546875,171561.8125,208785.78125,172070.625,163853.3125,684744.625,164484.96875,-0.0634765625,0.994873046875,-0.1826171875,-1.0070799589157104,1.4648436307907104,1.4038084745407104,100.0,43035.0,1.0
15:31:25.101271,181493.046875,176375.5625,171546.15625,208865.53125,172062.3125,163828.546875,684728.375,164499.734375,-0.064453125,0.993896484375,-0.18359375,-0.9155272841453552,1.4038084745407104,1.4038084745407104,100.0,43036.0,1.0
15:31:25.110617,181496.265625,176378.15625,171547.140625,208855.25,172064.09375,163834.8125,684683.4375,164499.453125,-0.062255859375,0.993408203125,-0.18310546875,-0.8850097060203552,1.4038084745407104,1.3427733182907104,100.0,43037.0,1.0
15:31:25.110707,181515.484375,176399.796875,171564.9375,208885.46875,172078.578125,163857.25,684744.125,164498.203125,-0.061767578125,0.99267578125,-0.186767578125,-0.8850097060203552,1.3732908964157104,1.2817381620407104,100.0,43038.0,1.0
15:31:25.120557,181515.3125,176410.96875,171572.09375,208803.21875,172083.046875,163867.265625,684758.625,164497.140625,-0.06005859375,0.993408203125,-0.18359375,-1.0070799589157104,1.2817381620407104,1.2817381620407104,100.0,43039.0,1.0
15:31:25.120629,181496.890625,176383.4375,171551.078125,208858.640625,172069.453125,163837.484375,684742.125,164501.34375,-0.06005859375,0.9931640625,-0.18408203125,-1.0070799589157104,1.2817381620407104,1.3732908964157104,100.0,43040.0,1.0
15:31:25.123014,181486.875,176371.1875,171537.3125,208844.515625,172057.296875,163827.75,684689.75,164491.234375,-0.06005859375,0.99365234375,-0.1826171875,-1.0070799589157104,1.2512205839157104,1.1901854276657104,100.0,43041.0,1.0
15:31:25.123079,181501.359375,176385.765625,171549.921875,208875.546875,172067.140625,163844.734375,684725.25,164489.71875,-0.06005859375,0.99560546875,-0.18212890625,-0.9765624403953552,1.3122557401657104,1.2817381620407104,100.0,43042.0,1.0
15:31:25.132439,181498.234375,176394.515625,171554.5625,208789.890625,172067.84375,163852.234375,684747.125,164479.796875,-0.0615234375,0.99658203125,-0.18505859375,-1.0681151151657104,1.3427733182907104,1.1901854276657104,100.0,43043.0,1.0
15:31:25.135482,181488.484375,176377.09375,171543.03125,208834.0625,172061.6875,163830.96875,684716.5,164493.921875,-0.058837890625,0.993408203125,-0.18359375,-1.1291502714157104,1.3732908964157104,1.1901854276657104,100.0,43044.0,1.0
15:31:25.135549,181483.390625,176368.0625,171534.625,208846.3125,172056.234375,163824.34375,684693.75,164495.53125,-0.058349609375,0.994140625,-0.18310546875,-1.2207030057907104,1.3427733182907104,1.1291502714157104,100.0,43045.0,1.0
15:31:25.141463,181500.109375,176383.96875,171549.828125,208870.453125,172066.859375,163843.296875,684719.25,164493.921875,-0.06005859375,0.994140625,-0.185791015625,-1.2817381620407104,1.2512205839157104,0.9460448622703552,100.0,43046.0,1.0
15:31:25.148196,181507.34375,176401.046875,171561.984375,208809.921875,172074.734375,163859.65625,684767.4375,164486.140625,-0.05908203125,0.994384765625,-0.184814453125,-1.4343260526657104,1.3427733182907104,0.9460448622703552,100.0,43047.0,1.0
15:31:25.148273,181493.671875,176383.96875,171547.234375,208807.140625,172064.90625,163838.109375,684723.1875,164484.796875,-0.05810546875,0.994384765625,-0.18359375,-1.3732908964157104,1.3732908964157104,0.7324218153953552,100.0,43048.0,1.0
15:31:25.154349,181484.015625,176366.09375,171533.46875,208845.140625,172054.4375,163820.234375,684711.3125,164487.75,-0.056640625,0.9951171875,-0.185546875,-1.3732908964157104,1.3732908964157104,0.7934569716453552,100.0,43049.0,1.0
15:31:25.154416,181497.78125,176379.328125,171545.09375,208852.203125,172062.21875,163836.78125,684696.1875,164486.859375,-0.057861328125,0.9951171875,-0.181396484375,-1.3427733182907104,1.4343260526657104,0.7629393935203552,100.0,43050.0,1.0
15:31:25.160044,181508.78125,176398.71875,171560.734375,208823.953125,172073.390625,163856.71875,684760.8125,164483.1875,-0.0615234375,0.993896484375,-0.181884765625,-1.4038084745407104,1.3732908964157104,0.6408690810203552,100.0,43051.0,1.0
15:31:25.170640,181500.46875,176390.5,171553.9375,208801.15625,172069.734375,163846.15625,684727.9375,164492.578125,-0.061279296875,0.994873046875,-0.18115234375,-1.4343260526657104,1.3122557401657104,0.5493163466453552,100.0,43052.0,1.0
15:31:25.170715,181487.953125,176367.96875,171534.53125,208862.3125,172056.671875,163821.671875,684717.125,164498.203125,-0.060546875,0.9931640625,-0.18115234375,-1.4648436307907104,1.2817381620407104,0.4882812201976776,100.0,43053.0,1.0
15:31:25.178007,181492.6875,176373.875,171536.59375,208844.78125,172056.578125,163832.296875,684685.1875,164486.859375,-0.06005859375,0.9912109375,-0.18310546875,-1.4648436307907104,1.0986326932907104,0.4272460639476776,100.0,43054.0,1.0
15:31:25.178024,181505.65625,176390.953125,171550.71875,208838.890625,172066.515625,163849.5625,684753.4375,164481.84375,-0.0595703125,0.989990234375,-0.18212890625,-1.4648436307907104,1.1596678495407104,0.3051757514476776,100.0,43055.0,1.0
15:31:25.209287,181501.890625,176391.484375,171551.53125,208784.609375,172067.578125,163846.25,684729.8125,164488.90625,-0.0615234375,0.9873046875,-0.18408203125,-1.3732908964157104,0.9765624403953552,0.1831054538488388,100.0,43056.0,1.0
15:31:25.209376,181491.609375,176369.84375,171537.046875,208861.859375,172059.171875,163822.921875,684722.125,164498.75,-0.059814453125,0.9873046875,-0.184814453125,-1.3122557401657104,0.9765624403953552,0.1220703050494194,100.0,43057.0,1.0
15:31:25.211797,181497.875,176377.09375,171541.953125,208845.6875,172060.875,163833.375,684674.3125,164494.90625,-0.059326171875,0.9873046875,-0.18603515625,-1.2817381620407104,0.9460448622703552,-0.03051757626235485,100.0,43058.0,1.0
15:31:25.211873,181516.375,176398.015625,171561.1875,208866.421875,172075.1875,163855.8125,684747.875,164495.796875,-0.059814453125,0.988525390625,-0.184814453125,-1.2207030057907104,0.9155272841453552,-0.1525878757238388,100.0,43059.0,1.0
15:31:25.215015,181512.09375,176402.5625,171562.25,208786.21875,172075.890625,163858.046875,684740.375,164492.671875,-0.06103515625,0.989501953125,-0.184326171875,-1.1596678495407104,0.7934569716453552,-0.3051757514476776,100.0,43060.0,1.0
15:31:25.216439,181491.609375,176372.609375,171538.296875,208851.21875,172059.265625,163826.5,684727.9375,164494.984375,-0.06201171875,0.98876953125,-0.18603515625,-1.0681151151657104,0.9155272841453552,-0.2136230319738388,100.0,43061.0,1.0
15:31:25.218674,181495.015625,176373.953125,171538.375,208838.4375,172057.65625,163831.5,684683.875,164494.453125,-0.0625,0.99267578125,-0.185302734375,-1.1291502714157104,0.8850097060203552,-0.1831054538488388,100.0,43062.0,1.0
15:31:25.221182,181511.28125,176391.390625,171552.515625,208866.6875,172069.09375,163850.28125,684742.125,164493.375,-0.06298828125,0.9921875,-0.18603515625,-1.0681151151657104,0.8850097060203552,-0.1525878757238388,100.0,43063.0,1.0
15:31:25.224810,181503.140625,176394.796875,171551.078125,208773.171875,172065.609375,163853.765625,684752.6875,164482.375,-0.0625,0.99169921875,-0.1865234375,-0.9155272841453552,0.8544921278953552,-0.1220703050494194,100.0,43064.0,1.0
15:31:25.224833,181490.8125,176371.1875,171535.78125,208836.5625,172056.9375,163828.453125,684721.375,164492.390625,-0.063720703125,0.994140625,-0.185546875,-1.0070799589157104,0.7934569716453552,-0.0610351525247097,100.0,43065.0,1.0
15:31:25.224839,181491.171875,176367.796875,171536.953125,208842.015625,172057.484375,163828.375,684684.75,164500.4375,-0.06591796875,0.99267578125,-0.1865234375,-1.0070799589157104,0.6713866591453552,0.0610351525247097,100.0,43066.0,1.0
15:31:25.227430,181508.515625,176385.9375,171553.765625,208877.59375,172070.796875,163849.109375,684730.0,164502.046875,-0.066162109375,0.9921875,-0.185791015625,-1.0070799589157104,0.6713866591453552,0.0915527269244194,100.0,43067.0,1.0
15:31:25.229916,181509.671875,176398.453125,171558.671875,208790.15625,172070.4375,163858.671875,684757.6875,164486.859375,-0.067626953125,0.9912109375,-0.1845703125,-0.8850097060203552,0.5187987685203552,0.1525878757238388,100.0,43068.0,1.0
15:31:25.232394,181502.34375,176381.5625,171545.265625,208828.6875,172062.03125,163835.515625,684725.25,164494.984375,-0.06787109375,0.990234375,-0.185302734375,-0.7019042372703552,0.3967284858226776,0.1525878757238388,100.0,43069.0,1.0
15:31:25.236684,181493.765625,176368.953125,171535.609375,208844.515625,172054.796875,163825.421875,684708.0,164499.375,-0.069580078125,0.989990234375,-0.184814453125,-0.6713866591453552,0.3051757514476776,0.0915527269244194,100.0,43070.0,1.0
15:31:25.236698,181509.140625,176386.125,171550.8125,208866.59375,172066.421875,163845.890625,684727.8125,164497.765625,-0.0673828125,0.99169921875,-0.18505859375,-0.5493163466453552,0.1831054538488388,0.1525878757238388,100.0,43071.0,1.0
15:31:25.243624,181510.84375,176399.171875,171557.25,208800.53125,172069.453125,163858.328125,684775.9375,164480.0625,-0.064697265625,0.993408203125,-0.186279296875,-0.5493163466453552,0.0,0.1831054538488388,100.0,43072.0,1.0
15:31:25.294176,181501.0,176384.859375,171546.078125,208807.140625,172063.296875,163839.453125,684719.875,164487.203125,-0.0634765625,0.993896484375,-0.186279296875,-0.4882812201976776,0.0610351525247097,0.0915527269244194,100.0,43073.0,1.0
15:31:25.294189,181495.375,176371.8125,171536.59375,208855.78125,172057.203125,163827.921875,684707.5625,164494.90625,-0.060546875,0.9951171875,-0.18701171875,-0.4272460639476776,0.0,0.1831054538488388,100.0,43074.0,1.0
15:31:25.297837,181508.0625,176385.671875,171546.703125,208859.890625,172064.359375,163845.625,684699.125,164490.96875,-0.059814453125,0.994384765625,-0.185791015625,-0.4577636420726776,0.0610351525247097,0.1525878757238388,100.0,43075.0,1.0
15:31:25.297848,181514.953125,176399.625,171558.59375,208828.421875,172070.890625,163860.375,684761.625,164485.6875,-0.0595703125,0.9931640625,-0.183837890625,-0.4272460639476776,0.03051757626235485,0.1831054538488388,100.0,43076.0,1.0
15:31:25.297849,181499.921875,176386.65625,171546.15625,208789.796875,172060.609375,163842.59375,684730.25,164483.453125,-0.05712890625,0.9921875,-0.183349609375,-0.4272460639476776,0.1831054538488388,0.1220703050494194,100.0,43077.0,1.0
15:31:25.297851,181488.9375,176366.265625,171530.15625,208853.1875,172050.140625,163820.953125,684738.6875,164491.328125,-0.056884765625,0.991943359375,-0.183837890625,-0.4272460639476776,0.1831054538488388,0.0,100.0,43078.0,1.0
15:31:25.303004,181499.84375,176377.890625,171540.265625,208850.953125,172058.015625,163837.40625,684696.625,164493.109375,-0.05419921875,0.99072265625,-0.186767578125,-0.4272460639476776,0.1831054538488388,-0.0915527269244194,100.0,43079.0,1.0
15:31:25.303083,181512.890625,176397.5625,171556.984375,208850.234375,172071.25,163857.875,684766.75,164491.328125,-0.05419921875,0.99072265625,-0.18603515625,-0.3051757514476776,0.4882812201976776,-0.4272460639476776,100.0,43080.0,1.0
15:31:25.303112,181507.96875,176398.453125,171557.15625,208792.03125,172072.5,163856.53125,684744.5625,164496.0625,-0.05517578125,0.991455078125,-0.188720703125,-0.2746581733226776,0.6713866591453552,-0.5187987685203552,100.0,43081.0,1.0
15:31:25.303656,181486.421875,176366.625,171531.3125,208851.578125,172053.984375,163823.984375,684730.4375,164492.21875,-0.060546875,0.992919921875,-0.18603515625,-0.3051757514476776,0.6713866591453552,-0.7934569716453552,100.0,43082.0,1.0
15:31:25.306106,181491.609375,176372.078125,171534.71875,208834.953125,172056.046875,163833.203125,684693.6875,164487.84375,-0.06494140625,0.99658203125,-0.18603515625,-0.3051757514476776,0.8239745497703552,-0.8850097060203552,100.0,43083.0,1.0
15:31:25.308574,181511.28125,176395.421875,171554.921875,208855.515625,172071.96875,163857.78125,684751.1875,164488.546875,-0.067138671875,0.998046875,-0.1845703125,-0.3662109076976776,0.7324218153953552,-0.8850097060203552,100.0,43084.0,1.0
15:31:25.311202,181506.984375,176400.515625,171558.046875,208773.4375,172072.59375,163861.359375,684745.8125,164488.015625,-0.069091796875,0.998291015625,-0.185791015625,-0.5493163466453552,0.6713866591453552,-0.9460448622703552,100.0,43085.0,1.0
15:31:25.313599,181491.703125,176373.953125,171538.375,208852.5625,172060.25,163832.125,684716.5625,164498.828125,-0.06982421875,0.998046875,-0.181884765625,-0.7019042372703552,0.7019042372703552,-0.8544921278953552,100.0,43086.0,1.0
15:31:25.316094,181491.96875,176374.21875,171536.765625,208837.359375,172056.9375,163835.703125,684679.8125,164493.921875,-0.067138671875,0.99755859375,-0.18408203125,-0.7324218153953552,0.5493163466453552,-1.0070799589157104,100.0,43087.0,1.0
15:31:25.318565,181510.5625,176392.828125,171554.390625,208868.484375,172070.890625,163855.8125,684734.1875,164492.671875,-0.064697265625,0.99755859375,-0.18505859375,-0.7324218153953552,0.4577636420726776,-1.0375975370407104,100.0,43088.0,1.0
15:31:25.321207,181511.546875,176404.265625,171562.796875,208783.09375,172079.03125,163865.65625,684749.5625,164491.0625,-0.06298828125,0.997314453125,-0.1865234375,-0.7934569716453552,0.5493163466453552,-0.9155272841453552,100.0,43089.0,1.0
15:31:25.323674,181498.046875,176381.375,171546.078125,208848.90625,172070.265625,163837.671875,684733.5,164504.109375,-0.062255859375,0.997802734375,-0.185791015625,-0.8544921278953552,0.5798339247703552,-0.8239745497703552,100.0,43090.0,1.0
15:31:25.326785,181494.296875,176374.40625,171539.640625,208846.578125,172063.640625,163833.203125,684697.25,164502.3125,-0.060791015625,0.998291015625,-0.188720703125,-0.9765624403953552,0.7019042372703552,-0.7324218153953552,100.0,43091.0,1.0
15:31:25.326796,181511.90625,176391.578125,171554.5625,208877.59375,172074.375,163852.78125,684724.4375,164500.796875,-0.05810546875,0.998046875,-0.187744140625,-1.0375975370407104,0.7324218153953552,-0.8544921278953552,100.0,43092.0,1.0
15:31:25.329259,181510.84375,176402.03125,171558.9375,208790.96875,172076.4375,163861.1875,684759.0625,164486.578125,-0.061767578125,0.99755859375,-0.184814453125,-1.0986326932907104,0.8544921278953552,-0.8239745497703552,100.0,43093.0,1.0
15:31:25.329269,181501.625,176383.53125,171548.03125,208833.96875,172070.171875,163839.28125,684730.625,164500.71875,-0.066650390625,0.99755859375,-0.184326171875,-1.1596678495407104,0.8239745497703552,-0.6713866591453552,100.0,43094.0,1.0
15:31:25.340038,181496.171875,176374.859375,171539.28125,208850.59375,172062.84375,163831.40625,684714.0625,164500.71875,-0.070556640625,0.996826171875,-0.186767578125,-1.3732908964157104,0.8239745497703552,-0.6408690810203552,100.0,43095.0,1.0
15:31:25.344294,181516.109375,176393.625,171556.265625,208875.71875,172075.265625,163852.234375,684721.25,164504.828125,-0.073486328125,0.996826171875,-0.184326171875,-1.5563963651657104,0.6713866591453552,-0.5187987685203552,100.0,43096.0,1.0
15:31:25.344314,181516.109375,176403.90625,171561.71875,208808.84375,172076.96875,163862.171875,684766.125,164487.203125,-0.076171875,0.99609375,-0.18798828125,-1.6479490995407104,0.5798339247703552,-0.5493163466453552,100.0,43097.0,1.0
15:31:25.350586,181506.28125,176389.609375,171552.328125,208815.109375,172072.59375,163845.09375,684729.125,164494.625,-0.07861328125,0.9970703125,-0.187255859375,-1.6479490995407104,0.3967284858226776,-0.3356933295726776,100.0,43098.0,1.0
15:31:25.350604,181497.609375,176372.265625,171539.359375,208861.859375,172064.1875,163827.46875,684722.5,164500.359375,-0.07763671875,0.994873046875,-0.185302734375,-1.6784666776657104,0.3356933295726776,-0.3662109076976776,100.0,43099.0,1.0
15:31:25.352367,181510.296875,176385.9375,171549.109375,208864.359375,172071.6875,163844.46875,684712.5625,164496.6875,-0.077392578125,0.993896484375,-0.18212890625,-1.7089842557907104,0.0610351525247097,-0.4577636420726776,100.0,43100.0,1.0
15:31:25.359895,181523.359375,176409.1875,171567.796875,208836.296875,172085.015625,163868.25,684774.5,164495.609375,-0.075439453125,0.993896484375,-0.186279296875,-1.7089842557907104,-0.1220703050494194,-0.3356933295726776,100.0,43101.0,1.0
15:31:25.366668,181516.46875,176402.5625,171562.875,208805.625,172081.625,163858.234375,684731.9375,164500.0,-0.0751953125,0.99267578125,-0.18701171875,-1.8005369901657104,-0.3356933295726776,-0.3356933295726776,100.0,43102.0,1.0
15:31:25.366677,181501.8125,176377.53125,171543.390625,208864.90625,172067.9375,163832.03125,684728.8125,164500.171875,-0.07470703125,0.99072265625,-0.185302734375,-1.7700194120407104,-0.5798339247703552,-0.3356933295726776,100.0,43103.0,1.0
15:31:25.372414,181513.078125,176389.34375,171552.6875,208863.921875,172074.28125,163849.109375,684696.375,164503.21875,-0.072998046875,0.992919921875,-0.1865234375,-1.8005369901657104,-0.6103515028953552,-0.2441406100988388,100.0,43104.0,1.0
15:31:25.379213,181526.484375,176409.359375,171568.25,208857.921875,172085.640625,163871.90625,684760.1875,164496.6875,-0.07177734375,0.99267578125,-0.188720703125,-1.8005369901657104,-0.7019042372703552,-0.1525878757238388,100.0,43105.0,1.0
15:31:25.379228,181517.28125,176407.484375,171562.96875,208786.84375,172081.171875,163867.890625,684739.125,164490.609375,-0.072021484375,0.98876953125,-0.188232421875,-1.8920897245407104,-0.7629393935203552,-0.1220703050494194,100.0,43106.0,1.0
15:31:25.389191,181501.265625,176381.109375,171543.484375,208863.734375,172067.84375,163839.09375,684738.6875,164501.6875,-0.072998046875,0.98828125,-0.187255859375,-1.8005369901657104,-0.8239745497703552,-0.1220703050494194,100.0,43107.0,1.0
15:31:25.389200,181507.171875,176388.171875,171548.125,208854.984375,172072.140625,163849.296875,684691.0,164502.671875,-0.0751953125,0.986572265625,-0.18701171875,-1.8310545682907104,-0.8850097060203552,0.0,100.0,43108.0,1.0
15:31:25.391132,181524.421875,176407.84375,171565.5625,208875.625,172085.28125,163872.265625,684755.0,164501.96875,-0.07470703125,0.984619140625,-0.185302734375,-1.6174315214157104,-1.0070799589157104,0.03051757626235485,100.0,43109.0,1.0
15:31:25.399929,181514.140625,176407.84375,171560.828125,208777.1875,172079.296875,163869.859375,684746.625,164485.875,-0.073974609375,0.9853515625,-0.1875,-1.4648436307907104,-1.0681151151657104,0.0915527269244194,100.0,43110.0,1.0
15:31:25.402986,181502.609375,176384.0625,171544.28125,208856.671875,172069.1875,163841.25,684753.4375,164497.3125,-0.072998046875,0.985595703125,-0.188232421875,-1.3122557401657104,-1.1901854276657104,0.0915527269244194,100.0,43111.0,1.0
15:31:25.402997,181509.234375,176388.265625,171549.296875,208851.671875,172072.046875,163848.3125,684704.0625,164502.046875,-0.072021484375,0.9873046875,-0.1875,-1.1596678495407104,-1.2512205839157104,0.1220703050494194,100.0,43112.0,1.0
15:31:25.410954,181525.046875,176404.984375,171563.140625,208875.1875,172081.796875,163866.375,684757.875,164496.234375,-0.070556640625,0.985107421875,-0.183837890625,-1.0681151151657104,-1.3427733182907104,0.1831054538488388,100.0,43113.0,1.0
15:31:25.420620,181523.53125,176415.078125,171568.421875,208786.84375,172084.75,163876.375,684767.6875,164491.0625,-0.07080078125,0.986328125,-0.183837890625,-1.0070799589157104,-1.4343260526657104,0.2136230319738388,100.0,43114.0,1.0
15:31:25.420636,181513.078125,176396.75,171555.90625,208856.40625,172079.921875,163854.484375,684714.0625,164508.21875,-0.070068359375,0.98681640625,-0.18603515625,-0.9155272841453552,-1.5563963651657104,0.3051757514476776,100.0,43115.0,1.0
15:31:25.422973,181505.296875,176390.671875,171547.765625,208844.78125,172076.171875,163853.3125,684685.3125,164501.96875,-0.071044921875,0.984619140625,-0.18896484375,-0.7934569716453552,-1.5869139432907104,0.3662109076976776,100.0,43116.0,1.0
15:31:25.422986,181514.6875,176398.90625,171555.71875,208868.65625,172080.71875,163864.9375,684732.875,164495.34375,-0.0703125,0.98583984375,-0.1884765625,-0.7019042372703552,-1.6174315214157104,0.4577636420726776,100.0,43117.0,1.0
15:31:25.429171,181515.484375,176405.515625,171558.046875,208789.984375,172076.609375,163867.53125,684757.1875,164485.875,-0.0693359375,0.985107421875,-0.18896484375,-0.4882812201976776,-1.5869139432907104,0.4882812201976776,100.0,43118.0,1.0
15:31:25.429182,181504.578125,176385.765625,171544.90625,208830.65625,172070.078125,163843.65625,684723.5625,164499.375,-0.068603515625,0.984619140625,-0.187255859375,-0.4272460639476776,-1.5869139432907104,0.4577636420726776,100.0,43119.0,1.0
15:31:25.434844,181493.140625,176369.9375,171533.90625,208847.734375,172061.140625,163830.515625,684701.75,164495.703125,-0.07080078125,0.98681640625,-0.188720703125,-0.3662109076976776,-1.7089842557907104,0.4272460639476776,100.0,43120.0,1.0
15:31:25.445606,181508.59375,176383.703125,171547.765625,208868.65625,172070.625,163848.21875,684717.1875,164494.625,-0.0693359375,0.986572265625,-0.188232421875,-0.2441406100988388,-1.7395018339157104,0.4882812201976776,100.0,43121.0,1.0
15:31:25.445689,181509.9375,176393.984375,171555.28125,208805.0,172075.0,163859.390625,684761.0,164484.625,-0.071044921875,0.989501953125,-0.18798828125,-0.1525878757238388,-1.7395018339157104,0.5798339247703552,100.0,43122.0,1.0
15:31:25.447983,181498.9375,176378.34375,171544.90625,208809.828125,172070.4375,163841.0625,684704.75,164495.796875,-0.069091796875,0.9912109375,-0.188720703125,-0.0610351525247097,-1.6479490995407104,0.5493163466453552,100.0,43123.0,1.0
15:31:25.448004,181485.359375,176357.78125,171527.5625,208851.3125,172056.859375,163821.125,684687.875,164497.140625,-0.069091796875,0.9951171875,-0.19091796875,-0.03051757626235485,-1.7089842557907104,0.6103515028953552,100.0,43124.0,1.0
15:31:25.456254,181498.9375,176371.1875,171537.75,208858.203125,172063.640625,163839.71875,684681.0,164493.5625,-0.068603515625,0.996337890625,-0.189697265625,0.0,-1.7089842557907104,0.6713866591453552,100.0,43125.0,1.0
15:31:25.466852,181508.953125,176390.765625,171551.96875,208824.40625,172074.375,163860.828125,684747.875,164485.515625,-0.068603515625,0.99462890625,-0.19140625,0.0,-1.7089842557907104,0.5798339247703552,100.0,43126.0,1.0
15:31:25.466926,181497.78125,176379.40625,171544.375,208790.6875,172068.75,163846.15625,684710.75,164490.25,-0.06689453125,0.996826171875,-0.191650390625,-0.0915527269244194,-1.7089842557907104,0.5187987685203552,100.0,43127.0,1.0
15:31:25.469244,181483.03125,176355.546875,171525.59375,208855.515625,172055.328125,163821.125,684709.0,164494.359375,-0.067138671875,0.994384765625,-0.18994140625,-0.0915527269244194,-1.7700194120407104,0.5493163466453552,100.0,43128.0,1.0
15:31:25.469311,181494.03125,176365.734375,171533.546875,208851.84375,172060.875,163835.515625,684671.3125,164491.859375,-0.066650390625,0.992919921875,-0.189453125,-0.0610351525247097,-1.7395018339157104,0.5798339247703552,100.0,43129.0,1.0
15:31:25.476195,181503.859375,176380.84375,171545.09375,208847.828125,172067.84375,163851.34375,684734.625,164485.421875,-0.06591796875,0.991943359375,-0.18994140625,-0.1220703050494194,-1.5563963651657104,0.6713866591453552,100.0,43130.0,1.0
15:31:25.480517,181493.671875,176377.625,171540.4375,208779.703125,172062.9375,163843.5625,684715.5625,164484.265625,-0.06396484375,0.992431640625,-0.19140625,-0.2136230319738388,-1.4648436307907104,0.7934569716453552,100.0,43131.0,1.0
15:31:25.480576,181482.046875,176355.09375,171523.890625,208856.40625,172052.03125,163817.109375,684728.5625,164494.359375,-0.064208984375,0.996337890625,-0.19140625,-0.2136230319738388,-1.3732908964157104,0.7934569716453552,100.0,43132.0,1.0
15:31:25.489888,181489.46875,176363.3125,171528.09375,208834.953125,172053.984375,163828.90625,684677.0,164487.75,-0.064453125,0.997802734375,-0.19140625,-0.3051757514476776,-1.2817381620407104,0.8544921278953552,100.0,43133.0,1.0
15:31:25.493083,181503.6875,176380.65625,171543.125,208857.484375,172065.25,163847.421875,684747.0625,164487.65625,-0.064208984375,0.99658203125,-0.1923828125,-0.3662109076976776,-1.2512205839157104,0.9460448622703552,100.0,43134.0,1.0
15:31:25.493142,181501.890625,176385.484375,171547.234375,208781.484375,172067.21875,163851.078125,684738.3125,164489.625,-0.0654296875,0.997802734375,-0.19140625,-0.3051757514476776,-1.0681151151657104,1.0070799589157104,100.0,43135.0,1.0
15:31:25.496239,181489.734375,176361.359375,171529.984375,208861.953125,172058.28125,163823.453125,684731.4375,164501.609375,-0.063720703125,0.997314453125,-0.188720703125,-0.3967284858226776,-1.0375975370407104,0.9155272841453552,100.0,43136.0,1.0
15:31:25.505055,181483.921875,176357.59375,171520.859375,208832.171875,172049.34375,163822.734375,684684.375,164485.59375,-0.06298828125,0.9931640625,-0.191650390625,-0.4272460639476776,-0.9460448622703552,0.8850097060203552,100.0,43137.0,1.0
15:31:25.510680,181499.75,176374.3125,171533.828125,208859.890625,172058.640625,163841.6875,684750.0,164482.109375,-0.0625,0.993408203125,-0.19091796875,-0.4577636420726776,-0.9460448622703552,0.9460448622703552,100.0,43138.0,1.0
15:31:25.510766,181497.875,176383.96875,171538.5625,208769.234375,172061.140625,163850.90625,684758.625,164475.046875,-0.06298828125,0.9931640625,-0.190673828125,-0.4577636420726776,-0.7629393935203552,1.0070799589157104,100.0,43139.0,1.0
15:31:25.516217,181482.859375,176360.09375,171521.03125,208828.609375,172049.34375,163823.8125,684717.625,164482.65625,-0.06201171875,0.994384765625,-0.19140625,-0.4577636420726776,-0.6713866591453552,0.9460448622703552,100.0,43140.0,1.0
15:31:25.524719,181475.96875,176349.640625,171512.71875,208826.90625,172041.03125,163815.40625,684684.9375,164479.609375,-0.06396484375,0.994140625,-0.1923828125,-0.5798339247703552,-0.5798339247703552,0.8850097060203552,100.0,43141.0,1.0
15:31:25.524900,181494.390625,176367.4375,171529.171875,208860.796875,172054.265625,163835.4375,684718.75,164484.96875,-0.065673828125,0.9921875,-0.1923828125,-0.6408690810203552,-0.4577636420726776,0.7629393935203552,100.0,43142.0,1.0
15:31:25.526775,181489.828125,176375.65625,171531.40625,208772.8125,172052.46875,163843.03125,684748.125,164466.203125,-0.068115234375,0.993408203125,-0.19287109375,-0.7019042372703552,-0.4882812201976776,0.7934569716453552,100.0,43143.0,1.0
15:31:25.538462,181477.75,176356.078125,171516.484375,208810.625,172044.78125,163820.234375,684722.125,164476.484375,-0.06640625,0.991455078125,-0.18896484375,-0.7324218153953552,-0.3967284858226776,0.7629393935203552,100.0,43144.0,1.0
15:31:25.540751,181479.0,176351.15625,171514.234375,208845.859375,172044.515625,163815.5,684706.9375,164490.609375,-0.06787109375,0.989990234375,-0.189453125,-0.7324218153953552,-0.3662109076976776,0.6408690810203552,100.0,43145.0,1.0
15:31:25.540846,181493.40625,176365.828125,171526.046875,208861.765625,172053.8125,163835.4375,684706.9375,164487.296875,-0.06689453125,0.989990234375,-0.187744140625,-0.7629393935203552,-0.2136230319738388,0.6103515028953552,100.0,43146.0,1.0
15:31:25.542653,181496.265625,176379.859375,171535.25,208796.859375,172057.84375,163849.734375,684754.75,164472.90625,-0.06591796875,0.988037109375,-0.192138671875,-0.7629393935203552,-0.1831054538488388,0.5493163466453552,100.0,43147.0,1.0
15:31:25.561081,181489.109375,176370.46875,171528.28125,208801.875,172054.703125,163835.4375,684714.1875,164484.53125,-0.06787109375,0.989990234375,-0.193115234375,-0.8239745497703552,-0.1831054538488388,0.7019042372703552,100.0,43148.0,1.0
15:31:25.561125,181477.046875,176352.671875,171514.875,208842.109375,172044.328125,163817.109375,684701.75,164486.765625,-0.067138671875,0.99072265625,-0.193115234375,-0.8239745497703552,-0.1525878757238388,0.6103515028953552,100.0,43149.0,1.0
15:31:25.561140,181493.84375,176369.21875,171529.34375,208852.5625,172056.140625,163836.78125,684692.25,164491.0625,-0.06591796875,0.9912109375,-0.193359375,-0.7629393935203552,-0.03051757626235485,0.5493163466453552,100.0,43150.0,1.0
15:31:25.563646,181501.984375,176385.046875,171541.25,208822.609375,172064.71875,163853.765625,684756.1875,164479.875,-0.06787109375,0.992919921875,-0.19287109375,-0.7019042372703552,0.03051757626235485,0.6408690810203552,100.0,43151.0,1.0
15:31:25.566151,181489.109375,176375.203125,171532.5625,208781.9375,172058.640625,163841.25,684723.625,164478.890625,-0.065673828125,0.99169921875,-0.193115234375,-0.7019042372703552,0.0,0.6408690810203552,100.0,43152.0,1.0
15:31:25.568650,181480.078125,176355.359375,171520.046875,208853.09375,172051.578125,163820.953125,684721.9375,164492.578125,-0.066650390625,0.9921875,-0.1923828125,-0.6713866591453552,-0.03051757626235485,0.7019042372703552,100.0,43153.0,1.0
15:31:25.572921,181495.8125,176370.5625,171533.546875,208852.5625,172061.328125,163840.0,684682.3125,164493.921875,-0.06689453125,0.99267578125,-0.190673828125,-0.7019042372703552,-0.0610351525247097,0.8239745497703552,100.0,43154.0,1.0
15:31:25.572933,181510.84375,176389.78125,171549.296875,208851.046875,172072.765625,163859.578125,684748.9375,164489.53125,-0.066650390625,0.99169921875,-0.19287109375,-0.6713866591453552,0.03051757626235485,0.8239745497703552,100.0,43155.0,1.0
15:31:25.579905,181504.046875,176389.15625,171546.78125,208787.75,172070.359375,163856.359375,684733.375,164488.546875,-0.067138671875,0.99267578125,-0.19287109375,-0.6713866591453552,0.1525878757238388,0.9460448622703552,100.0,43156.0,1.0
15:31:25.584333,181493.40625,176366.984375,171532.03125,208868.5625,172060.421875,163830.609375,684735.5625,164500.265625,-0.068359375,0.99365234375,-0.19189453125,-0.6713866591453552,0.2136230319738388,0.9460448622703552,100.0,43157.0,1.0
15:31:25.584344,181503.421875,176374.765625,171540.078125,208862.125,172065.4375,163841.609375,684687.0625,164505.8125,-0.06787109375,0.994384765625,-0.193115234375,-0.7324218153953552,0.2136230319738388,1.0375975370407104,100.0,43158.0,1.0
15:31:25.593686,181521.296875,176396.3125,171557.515625,208884.75,172078.84375,163862.96875,684763.625,164502.671875,-0.067626953125,0.994140625,-0.194580078125,-0.8239745497703552,0.1525878757238388,1.1596678495407104,100.0,43159.0,1.0
15:31:25.596144,181514.953125,176400.328125,171557.515625,208791.765625,172076.609375,163866.015625,684751.625,164491.0625,-0.069580078125,0.994873046875,-0.1923828125,-0.8850097060203552,0.1220703050494194,1.0681151151657104,100.0,43160.0,1.0
15:31:25.602367,181499.921875,176371.71875,171537.84375,208870.0,172063.640625,163835.515625,684722.125,164502.859375,-0.069091796875,0.994873046875,-0.189697265625,-0.8850097060203552,0.2136230319738388,1.1901854276657104,100.0,43161.0,1.0
15:31:25.606072,181499.84375,176369.125,171536.0625,208859.0,172061.765625,163836.5,684681.4375,164505.265625,-0.06884765625,0.994384765625,-0.188232421875,-0.9155272841453552,0.1220703050494194,1.1901854276657104,100.0,43162.0,1.0
15:31:25.635664,181514.40625,176385.671875,171549.46875,208887.796875,172072.765625,163854.484375,684742.5,164501.875,-0.068603515625,0.994873046875,-0.19287109375,-0.9155272841453552,0.1525878757238388,1.1596678495407104,100.0,43163.0,1.0
15:31:25.635705,181509.9375,176393.453125,171551.4375,208794.625,172073.65625,163860.28125,684748.9375,164490.078125,-0.06787109375,0.995361328125,-0.19287109375,-1.0375975370407104,0.0,1.2512205839157104,100.0,43164.0,1.0
15:31:25.661720,181497.78125,176371.359375,171536.0625,208856.40625,172066.515625,163835.25,684709.1875,164502.5,-0.068603515625,0.99462890625,-0.19091796875,-1.1596678495407104,-0.0610351525247097,1.2817381620407104,100.0,43165.0,1.0
15:31:25.661734,181496.0,176365.546875,171531.765625,208862.578125,172062.03125,163832.578125,684681.875,164507.6875,-0.069091796875,0.995361328125,-0.18994140625,-1.2207030057907104,-0.0915527269244194,1.1901854276657104,100.0,43166.0,1.0
15:31:25.667380,181514.140625,176383.796875,171547.328125,208888.78125,172073.21875,163851.96875,684734.1875,164504.375,-0.069091796875,0.994384765625,-0.18994140625,-1.2817381620407104,-0.0610351525247097,1.0681151151657104,100.0,43167.0,1.0
15:31:25.669826,181517.71875,176399.265625,171557.609375,208811.96875,172079.296875,163866.90625,684766.625,164497.578125,-0.068115234375,0.994384765625,-0.188720703125,-1.3122557401657104,-0.03051757626235485,1.0681151151657104,100.0,43168.0,1.0
15:31:25.672379,181506.453125,176379.765625,171544.640625,208851.046875,172070.796875,163844.109375,684727.75,164511.34375,-0.06787109375,0.994873046875,-0.189453125,-1.3732908964157104,0.03051757626235485,1.1596678495407104,100.0,43169.0,1.0
15:31:25.674842,181497.609375,176365.203125,171531.40625,208870.0,172059.453125,163830.15625,684706.9375,164508.84375,-0.06640625,0.99560546875,-0.193359375,-1.4038084745407104,-0.0610351525247097,1.0986326932907104,100.0,43170.0,1.0
15:31:25.677350,181508.953125,176378.15625,171541.875,208887.25,172066.78125,163846.609375,684707.8125,164507.140625,-0.06689453125,0.995849609375,-0.19384765625,-1.4648436307907104,-0.03051757626235485,1.0070799589157104,100.0,43171.0,1.0
15:31:25.679838,181512.09375,176393.984375,171552.328125,208829.046875,172072.953125,163860.734375,684757.6875,164495.703125,-0.065673828125,0.996337890625,-0.193603515625,-1.4953612089157104,0.0,1.0375975370407104,100.0,43172.0,1.0
15:31:25.682499,181499.75,176379.953125,171540.609375,208818.671875,172065.25,163843.5625,684721.0625,164496.328125,-0.0673828125,0.99609375,-0.1953125,-1.5869139432907104,-0.0610351525247097,1.0681151151657104,100.0,43173.0,1.0
15:31:25.684825,181492.59375,176364.84375,171529.4375,208870.453125,172058.015625,163828.734375,684713.25,164506.703125,-0.06640625,0.99658203125,-0.194580078125,-1.5563963651657104,0.0,1.0986326932907104,100.0,43174.0,1.0
15:31:25.687319,181506.546875,176378.515625,171542.046875,208882.25,172067.21875,163846.078125,684705.25,164509.734375,-0.064208984375,0.993896484375,-0.18994140625,-1.5258787870407104,0.03051757626235485,0.9765624403953552,100.0,43175.0,1.0
15:31:25.689867,181513.25,176392.640625,171551.34375,208848.625,172072.765625,163861.09375,684770.25,164495.796875,-0.064208984375,0.993896484375,-0.18994140625,-1.5563963651657104,-0.0610351525247097,1.0375975370407104,100.0,43176.0,1.0
15:31:25.692371,181502.515625,176383.609375,171544.375,208808.390625,172066.78125,163850.28125,684721.375,164497.84375,-0.065185546875,0.9931640625,-0.1923828125,-1.6174315214157104,-0.0610351525247097,0.9460448622703552,100.0,43177.0,1.0
15:31:25.694808,181492.859375,176363.140625,171531.046875,208880.734375,172059.359375,163829.265625,684705.6875,164514.21875,-0.065185546875,0.990966796875,-0.192138671875,-1.6479490995407104,0.03051757626235485,0.9765624403953552,100.0,43178.0,1.0
15:31:25.697413,181506.640625,176375.5625,171541.421875,208878.671875,172065.875,163844.90625,684684.125,164512.15625,-0.06640625,0.9921875,-0.188720703125,-1.6479490995407104,-0.03051757626235485,0.9155272841453552,100.0,43179.0,1.0
15:31:25.700487,181519.0625,176393.8125,171555.546875,208872.6875,172075.625,163864.40625,684759.125,164502.59375,-0.065673828125,0.994140625,-0.188720703125,-1.6784666776657104,-0.03051757626235485,0.8850097060203552,100.0,43180.0,1.0
15:31:25.700498,181510.84375,176391.578125,171550.8125,208797.765625,172071.875,163860.015625,684734.1875,164496.234375,-0.06494140625,0.99169921875,-0.188232421875,-1.7089842557907104,-0.0610351525247097,0.9765624403953552,100.0,43181.0,1.0
15:31:25.702899,181500.46875,176369.390625,171535.609375,208883.40625,172063.375,163834.1875,684735.0,164509.203125,-0.067626953125,0.99267578125,-0.18896484375,-1.7395018339157104,-0.0915527269244194,0.8544921278953552,100.0,43182.0,1.0
15:31:25.702905,181501.453125,176370.828125,171534.71875,208862.484375,172061.328125,163839.015625,684677.5,164502.046875,-0.066162109375,0.990478515625,-0.191162109375,-1.7089842557907104,-0.1220703050494194,0.9155272841453552,100.0,43183.0,1.0
15:31:25.708586,181515.484375,176387.09375,171548.21875,208880.90625,172071.6875,163856.4375,684752.25,164499.8125,-0.068115234375,0.992431640625,-0.19091796875,-1.6784666776657104,-0.1831054538488388,0.8544921278953552,100.0,43184.0,1.0
15:31:25.715462,181508.328125,176391.125,171548.65625,208792.84375,172071.0625,163859.03125,684744.0,164493.015625,-0.067626953125,0.99462890625,-0.1923828125,-1.7700194120407104,-0.1525878757238388,0.7629393935203552,100.0,43185.0,1.0
15:31:25.715482,181488.484375,176361.625,171526.671875,208865.265625,172055.953125,163827.828125,684730.1875,164502.5,-0.06884765625,0.993896484375,-0.19091796875,-1.7395018339157104,-0.1525878757238388,0.6713866591453552,100.0,43186.0,1.0
15:31:25.719864,181488.03125,176360.28125,171524.4375,208853.28125,172053.09375,163829.625,684682.625,164501.96875,-0.0673828125,0.9931640625,-0.192138671875,-1.7700194120407104,-0.2441406100988388,0.7019042372703552,100.0,43187.0,1.0
15:31:25.722915,181512.359375,176382.90625,171545.984375,208895.484375,172072.140625,163854.921875,684733.3125,164506.609375,-0.067626953125,0.993408203125,-0.18896484375,-1.9531248807907104,-0.3051757514476776,0.6103515028953552,100.0,43188.0,1.0
15:31:25.722925,181512.890625,176395.859375,171554.46875,208809.296875,172078.21875,163867.265625,684753.5,164502.5,-0.068115234375,0.99267578125,-0.192626953125,-1.7395018339157104,-0.3051757514476776,0.5798339247703552,100.0,43189.0,1.0
15:31:25.724817,181496.53125,176371.640625,171535.703125,208858.46875,172065.96875,163839.90625,684731.25,164508.046875,-0.0673828125,0.991943359375,-0.193359375,-1.8310545682907104,-0.3662109076976776,0.5493163466453552,100.0,43190.0,1.0
15:31:25.727904,181492.234375,176363.859375,171527.296875,208858.203125,172059.53125,163833.640625,684694.375,164503.921875,-0.069091796875,0.99267578125,-0.190673828125,-1.8005369901657104,-0.5493163466453552,0.4577636420726776,100.0,43191.0,1.0
15:31:25.727907,181510.125,176378.875,171543.03125,208891.015625,172072.046875,163851.53125,684731.75,164503.484375,-0.0693359375,0.991943359375,-0.193115234375,-1.8310545682907104,-0.5493163466453552,0.5798339247703552,100.0,43192.0,1.0
15:31:25.739344,181507.4375,176387.640625,171549.46875,208810.90625,172075.1875,163860.828125,684762.375,164493.109375,-0.06982421875,0.993408203125,-0.19189453125,-1.7700194120407104,-0.6408690810203552,0.4882812201976776,100.0,43193.0,1.0
15:31:25.739362,181499.03125,176371.1875,171540.53125,208851.578125,172072.3125,163840.796875,684725.875,164511.078125,-0.067138671875,0.9921875,-0.18798828125,-1.8920897245407104,-0.6408690810203552,0.6408690810203552,100.0,43194.0,1.0
15:31:25.741713,181489.375,176358.046875,171527.109375,208864.015625,172060.875,163827.390625,684710.3125,164506.25,-0.067626953125,0.9931640625,-0.18994140625,-1.9226073026657104,-0.6713866591453552,0.5798339247703552,100.0,43195.0,1.0
15:31:25.741722,181505.828125,176374.046875,171536.59375,208879.75,172064.90625,163844.640625,684712.75,164500.265625,-0.0673828125,0.991943359375,-0.19189453125,-1.8615721464157104,-0.7629393935203552,0.5187987685203552,100.0,43196.0,1.0
15:31:25.744184,181519.953125,176397.375,171555.8125,208838.4375,172079.734375,163869.234375,684767.0,164502.953125,-0.067138671875,0.990966796875,-0.192626953125,-1.8310545682907104,-0.7934569716453552,0.4882812201976776,100.0,43197.0,1.0
15:31:25.744195,181510.296875,176388.625,171549.46875,208832.453125,172079.734375,163858.234375,684723.1875,164508.578125,-0.06787109375,0.990234375,-0.189697265625,-1.8920897245407104,-0.7934569716453552,0.5798339247703552,100.0,43198.0,1.0
15:31:25.760030,181497.78125,176370.296875,171533.015625,208872.765625,172068.03125,163839.8125,684709.6875,164506.875,-0.0673828125,0.991455078125,-0.187255859375,-1.9226073026657104,-0.9460448622703552,0.6103515028953552,100.0,43199.0,1.0
15:31:25.762965,181512.796875,176385.3125,171545.890625,208878.5,172077.0625,163858.953125,684704.4375,164510.546875,-0.0673828125,0.992431640625,-0.189208984375,-1.9226073026657104,-0.8850097060203552,0.7019042372703552,100.0,43200.0,1.0
15:31:25.763035,181523.796875,176401.234375,171559.578125,208857.21875,172086.171875,163876.46875,684769.875,164504.109375,-0.06787109375,0.992431640625,-0.191650390625,-1.8615721464157104,-1.0070799589157104,0.7019042372703552,100.0,43201.0,1.0
15:31:25.766770,181512.984375,176392.015625,171550.984375,208815.8125,172079.734375,163864.40625,684727.75,164501.15625,-0.06689453125,0.9921875,-0.188232421875,-1.8005369901657104,-1.0681151151657104,0.7324218153953552,100.0,43202.0,1.0
15:31:25.766811,181496.359375,176366.0,171530.15625,208876.078125,172065.4375,163837.3125,684717.1875,164503.75,-0.066650390625,0.99169921875,-0.1884765625,-1.9226073026657104,-1.0986326932907104,0.6408690810203552,100.0,43203.0,1.0
15:31:25.779279,181502.078125,176370.296875,171534.453125,208869.015625,172066.953125,163845.453125,684685.625,164503.390625,-0.067138671875,0.9921875,-0.1904296875,-1.8920897245407104,-1.0986326932907104,0.6713866591453552,100.0,43204.0,1.0
15:31:25.779296,181514.6875,176387.90625,171549.828125,208873.84375,172077.859375,163862.96875,684765.1875,164501.421875,-0.065673828125,0.992919921875,-0.187255859375,-1.9226073026657104,-1.1291502714157104,0.5798339247703552,100.0,43205.0,1.0
15:31:25.781833,181508.953125,176389.78125,171547.859375,208801.78125,172076.171875,163860.5625,684740.375,164498.828125,-0.06591796875,0.992919921875,-0.190185546875,-1.8615721464157104,-1.1596678495407104,0.5798339247703552,100.0,43206.0,1.0
15:31:25.781852,181491.796875,176360.1875,171525.5,208872.0625,172062.484375,163830.25,684724.625,164507.0625,-0.0634765625,0.99169921875,-0.19091796875,-1.8005369901657104,-1.2207030057907104,0.6713866591453552,100.0,43207.0,1.0
15:31:25.788709,181496.53125,176364.75,171528.71875,208858.28125,172064.265625,163838.296875,684681.5,164505.359375,-0.063232421875,0.991455078125,-0.19287109375,-1.8005369901657104,-1.2512205839157104,0.6408690810203552,100.0,43208.0,1.0
15:31:25.799258,181520.671875,176388.265625,171552.0625,208894.3125,172082.875,163863.234375,684756.125,164513.859375,-0.06396484375,0.9912109375,-0.1923828125,-1.7395018339157104,-1.2207030057907104,0.7019042372703552,100.0,43209.0,1.0
15:31:25.799267,181514.328125,176392.28125,171553.3125,208807.59375,172082.421875,163865.921875,684745.8125,164511.0,-0.0634765625,0.992431640625,-0.189697265625,-1.9226073026657104,-1.1291502714157104,0.7324218153953552,100.0,43210.0,1.0
15:31:25.801688,181493.9375,176363.046875,171527.828125,208863.03125,172063.109375,163834.453125,684709.1875,164502.40625,-0.061767578125,0.99169921875,-0.192626953125,-1.9226073026657104,-1.0070799589157104,0.7629393935203552,100.0,43211.0,1.0
15:31:25.801695,181498.046875,176366.71875,171529.625,208856.3125,172063.828125,163839.71875,684674.5625,164503.84375,-0.060791015625,0.991943359375,-0.189697265625,-1.8920897245407104,-1.0375975370407104,0.7324218153953552,100.0,43212.0,1.0
15:31:25.807349,181515.484375,176385.140625,171544.46875,208887.796875,172075.53125,163860.46875,684725.0,164500.890625,-0.06103515625,0.994384765625,-0.189453125,-1.8920897245407104,-0.9765624403953552,0.8239745497703552,100.0,43213.0,1.0
15:31:25.819257,181515.671875,176395.859375,171551.34375,208806.515625,172079.65625,163870.65625,684747.625,164499.1875,-0.0615234375,0.994384765625,-0.189453125,-1.8920897245407104,-0.8850097060203552,0.8239745497703552,100.0,43214.0,1.0
15:31:25.819274,181498.671875,176371.640625,171531.59375,208861.5,172068.296875,163843.390625,684731.625,164509.203125,-0.0634765625,0.993408203125,-0.193115234375,-1.9531248807907104,-0.9155272841453552,0.7629393935203552,100.0,43215.0,1.0
15:31:25.852277,181493.140625,176364.578125,171523.984375,208855.78125,172062.3125,163838.390625,684695.3125,164507.328125,-0.06005859375,0.994140625,-0.19140625,-1.8615721464157104,-0.7629393935203552,0.7934569716453552,100.0,43216.0,1.0
15:31:25.852357,181518.34375,176386.75,171546.875,208897.625,172081.703125,163863.0625,684724.4375,164520.828125,-0.060546875,0.993896484375,-0.190673828125,-1.8615721464157104,-0.7629393935203552,0.8239745497703552,100.0,43217.0,1.0
15:31:25.852385,181520.765625,176398.71875,171555.09375,208824.84375,172086.0,163875.125,684759.3125,164510.015625,-0.058349609375,0.994384765625,-0.19384765625,-1.9531248807907104,-0.6103515028953552,0.9155272841453552,100.0,43218.0,1.0
15:31:25.852407,181506.09375,176377.984375,171539.0,208846.03125,172074.375,163850.71875,684732.875,164511.625,-0.060302734375,0.99560546875,-0.189208984375,-1.9531248807907104,-0.4882812201976776,0.9765624403953552,100.0,43219.0,1.0
15:31:25.852426,181496.0,176363.40625,171526.40625,208866.875,172062.9375,163836.859375,684718.1875,164505.359375,-0.059814453125,0.9931640625,-0.18798828125,-1.9226073026657104,-0.3356933295726776,0.9460448622703552,100.0,43220.0,1.0
15:31:25.854129,181508.59375,176375.390625,171538.03125,208880.734375,172069.8125,163851.609375,684714.8125,164501.15625,-0.06103515625,0.99462890625,-0.18701171875,-1.9226073026657104,-0.2441406100988388,0.9155272841453552,100.0,43221.0,1.0
15:31:25.856150,181517.359375,176393.265625,171552.234375,208831.640625,172079.109375,163869.5,684769.0625,164496.234375,-0.061279296875,0.9931640625,-0.188232421875,-1.9531248807907104,-0.2136230319738388,0.9155272841453552,100.0,43222.0,1.0
15:31:25.858634,181509.578125,176383.4375,171544.8125,208833.703125,172074.828125,163855.109375,684718.75,164508.40625,-0.06103515625,0.993408203125,-0.19091796875,-2.014159917831421,-0.1831054538488388,0.9460448622703552,100.0,43223.0,1.0
15:31:25.861047,181495.1875,176362.6875,171526.765625,208874.828125,172061.140625,163834.09375,684698.5,164507.59375,-0.061279296875,0.993896484375,-0.19189453125,-1.9226073026657104,-0.2136230319738388,0.8850097060203552,100.0,43224.0,1.0
15:31:25.864171,181508.0625,176374.859375,171537.84375,208879.390625,172068.5625,163849.921875,684688.4375,164506.171875,-0.059814453125,0.9921875,-0.189208984375,-1.9836424589157104,-0.0610351525247097,0.8850097060203552,100.0,43225.0,1.0
15:31:25.864177,181516.5625,176391.03125,171550.359375,208852.203125,172078.484375,163866.90625,684750.625,164500.4375,-0.060791015625,0.991455078125,-0.18701171875,-1.9531248807907104,0.03051757626235485,0.8544921278953552,100.0,43226.0,1.0
15:31:25.866709,181503.421875,176380.3125,171539.90625,208805.453125,172071.25,163854.484375,684723.9375,164498.65625,-0.06201171875,0.992919921875,-0.188232421875,-1.8920897245407104,0.1220703050494194,0.8544921278953552,100.0,43227.0,1.0
15:31:25.866719,181490.71875,176357.234375,171520.859375,208870.359375,172057.921875,163829.71875,684731.75,164504.640625,-0.06201171875,0.994384765625,-0.1884765625,-1.9531248807907104,0.2136230319738388,0.8544921278953552,100.0,43228.0,1.0
15:31:25.868575,181505.203125,176371.28125,171533.015625,208873.671875,172068.03125,163847.421875,684690.3125,164515.1875,-0.063720703125,0.9912109375,-0.189208984375,-1.9226073026657104,0.3051757514476776,0.8239745497703552,100.0,43229.0,1.0
15:31:25.879838,181511.1875,176384.15625,171541.515625,208866.6875,172071.78125,163861.0,684757.0,164500.984375,-0.061279296875,0.990966796875,-0.191162109375,-1.8920897245407104,0.3051757514476776,0.7934569716453552,100.0,43230.0,1.0
15:31:25.884289,181501.359375,176381.734375,171537.390625,208789.890625,172066.6875,163856.09375,684728.0,164494.546875,-0.06103515625,0.990234375,-0.188720703125,-1.8005369901657104,0.3051757514476776,0.7324218153953552,100.0,43231.0,1.0
15:31:25.884295,181494.03125,176362.609375,171524.96875,208871.515625,172060.078125,163834.984375,684729.75,164507.5,-0.063720703125,0.99072265625,-0.189697265625,-1.8005369901657104,0.3051757514476776,0.7019042372703552,100.0,43232.0,1.0
15:31:25.884298,181498.046875,176366.265625,171525.859375,208856.765625,172061.40625,163841.78125,684678.5,164504.5625,-0.0634765625,0.990478515625,-0.188232421875,-1.7700194120407104,0.3356933295726776,0.7934569716453552,100.0,43233.0,1.0
15:31:25.889939,181516.296875,176385.484375,171543.921875,208887.796875,172076.171875,163862.078125,684740.875,164508.671875,-0.062255859375,0.989013671875,-0.189453125,-1.7089842557907104,0.4272460639476776,0.6713866591453552,100.0,43234.0,1.0
15:31:25.899386,181515.75,176392.28125,171550.0,208812.234375,172079.734375,163868.78125,684746.25,164515.46875,-0.06396484375,0.990478515625,-0.190185546875,-1.7395018339157104,0.4577636420726776,0.6103515028953552,100.0,43235.0,1.0
15:31:25.899440,181495.09375,176364.03125,171525.15625,208873.75,172063.015625,163837.484375,684735.1875,164512.6875,-0.063720703125,0.994140625,-0.18701171875,-1.7089842557907104,0.5187987685203552,0.7629393935203552,100.0,43236.0,1.0
15:31:25.901120,181492.515625,176363.234375,171520.859375,208853.8125,172058.46875,163838.65625,684689.875,164502.234375,-0.064453125,0.992919921875,-0.1865234375,-1.6479490995407104,0.4577636420726776,0.6713866591453552,100.0,43237.0,1.0
15:31:25.911138,181511.46875,176383.703125,171539.640625,208884.21875,172072.140625,163861.1875,684729.25,164501.515625,-0.063232421875,0.99267578125,-0.189208984375,-1.6479490995407104,0.5798339247703552,0.7934569716453552,100.0,43238.0,1.0
15:31:25.914293,181515.671875,176398.546875,171552.15625,208807.6875,172081.96875,163875.9375,684752.9375,164506.25,-0.0654296875,0.994140625,-0.18798828125,-1.6784666776657104,0.6408690810203552,0.6408690810203552,100.0,43239.0,1.0
15:31:25.914305,181501.359375,176373.59375,171534.890625,208864.640625,172072.5,163848.84375,684718.0,164516.625,-0.065185546875,0.99560546875,-0.1884765625,-1.7089842557907104,0.6408690810203552,0.7934569716453552,100.0,43240.0,1.0
15:31:25.916052,181495.8125,176366.09375,171527.03125,208863.109375,172065.796875,163842.671875,684685.8125,164507.78125,-0.0654296875,0.994384765625,-0.18896484375,-1.7700194120407104,0.5493163466453552,0.7934569716453552,100.0,43241.0,1.0
15:31:25.922365,181513.515625,176383.25,171543.03125,208894.140625,172078.3125,163861.890625,684721.375,164509.734375,-0.065185546875,0.994140625,-0.186767578125,-1.8615721464157104,0.4882812201976776,0.8544921278953552,100.0,43242.0,1.0
15:31:25.932935,181521.921875,176401.859375,171557.609375,208828.78125,172088.40625,163878.796875,684759.25,164507.5,-0.0654296875,0.996337890625,-0.18603515625,-1.8615721464157104,0.5493163466453552,0.8850097060203552,100.0,43243.0,1.0
15:31:25.932958,181512.625,176387.453125,171547.6875,208858.546875,172084.03125,163860.640625,684719.6875,164521.28125,-0.06640625,0.99609375,-0.18359375,-1.8615721464157104,0.5493163466453552,0.7324218153953552,100.0,43244.0,1.0
15:31:25.935486,181504.484375,176373.59375,171535.703125,208877.15625,172074.90625,163847.859375,684706.625,164519.390625,-0.06494140625,0.994140625,-0.183349609375,-1.9226073026657104,0.5493163466453552,0.7324218153953552,100.0,43245.0,1.0
15:31:25.935498,181522.375,176391.21875,171550.8125,208895.75,172085.90625,163868.0625,684710.3125,164514.125,-0.06591796875,0.994140625,-0.18603515625,-1.8310545682907104,0.4272460639476776,0.7324218153953552,100.0,43246.0,1.0
15:31:25.944860,181528.984375,176408.734375,171563.421875,208849.25,172094.5,163885.5,684769.25,164511.34375,-0.067626953125,0.994384765625,-0.186767578125,-1.8310545682907104,0.4882812201976776,0.7019042372703552,100.0,43247.0,1.0
15:31:25.949216,181517.0,176395.78125,171553.046875,208839.78125,172087.96875,163870.03125,684724.0625,164518.140625,-0.066650390625,0.993896484375,-0.189697265625,-1.8920897245407104,0.4272460639476776,0.8239745497703552,100.0,43248.0,1.0
15:31:25.949227,181505.921875,176376.640625,171537.671875,208889.484375,172078.125,163852.953125,684707.25,164524.046875,-0.066650390625,0.993408203125,-0.1875,-1.9226073026657104,0.4577636420726776,0.7324218153953552,100.0,43249.0,1.0
15:31:25.954905,181514.59375,176386.65625,171544.1875,208884.484375,172082.328125,163866.640625,684697.25,164514.03125,-0.0673828125,0.9931640625,-0.1865234375,-1.8920897245407104,0.3967284858226776,0.7629393935203552,100.0,43250.0,1.0
15:31:25.965428,181520.9375,176399.34375,171553.9375,208857.75,172087.34375,163879.25,684760.375,164504.46875,-0.06591796875,0.9931640625,-0.187255859375,-1.9531248807907104,0.3356933295726776,0.7934569716453552,100.0,43251.0,1.0
15:31:25.965575,181516.375,176395.78125,171552.234375,208822.53125,172088.234375,163871.46875,684731.25,164517.34375,-0.06494140625,0.9921875,-0.18408203125,-2.044677495956421,0.2746581733226776,0.7324218153953552,100.0,43252.0,1.0
15:31:25.968031,181506.71875,176375.65625,171538.828125,208897.265625,172081.4375,163850.625,684745.375,164532.890625,-0.06689453125,0.9931640625,-0.187744140625,-2.014159917831421,0.3662109076976776,0.5798339247703552,100.0,43253.0,1.0
15:31:25.968099,181510.390625,176381.5625,171540.265625,208874.296875,172079.203125,163860.640625,684691.375,164513.9375,-0.0673828125,0.992919921875,-0.187744140625,-1.9531248807907104,0.3356933295726776,0.6103515028953552,100.0,43254.0,1.0
15:31:25.976109,181517.984375,176392.90625,171548.84375,208869.375,172083.3125,163873.609375,684768.375,164502.953125,-0.06591796875,0.992431640625,-0.187255859375,-1.9226073026657104,0.3051757514476776,0.7934569716453552,100.0,43255.0,1.0
15:31:26.013000,181519.6875,176399.796875,171555.375,208812.234375,172088.40625,163877.453125,684745.875,164512.25,-0.066162109375,0.99169921875,-0.189208984375,-1.9226073026657104,0.2441406100988388,0.8239745497703552,100.0,43256.0,1.0
15:31:26.013022,181507.625,176376.28125,171538.46875,208886.71875,172077.953125,163851.078125,684724.5625,164523.15625,-0.06396484375,0.992431640625,-0.18359375,-1.9836424589157104,0.3356933295726776,0.7324218153953552,100.0,43257.0,1.0
15:31:26.033950,181513.078125,176380.390625,171540.96875,208871.96875,172078.75,163858.953125,684687.25,164522.96875,-0.067138671875,0.991943359375,-0.184326171875,-1.9226073026657104,0.3051757514476776,0.7324218153953552,100.0,43258.0,1.0
15:31:26.036132,181524.6875,176393.984375,171551.078125,208886.8125,172084.75,163874.0625,684761.1875,164512.15625,-0.06591796875,0.991943359375,-0.18994140625,-2.014159917831421,0.2441406100988388,0.6408690810203552,100.0,43259.0,1.0
15:31:26.038651,181525.5,176402.75,171558.671875,208815.546875,172090.015625,163879.515625,684757.0,164519.84375,-0.066650390625,0.993408203125,-0.190673828125,-1.8920897245407104,0.3051757514476776,0.7019042372703552,100.0,43260.0,1.0
15:31:26.041109,181504.3125,176374.5,171533.734375,208873.9375,172072.859375,163848.484375,684705.875,164519.046875,-0.06787109375,0.9931640625,-0.1865234375,-1.8615721464157104,0.1525878757238388,0.7934569716453552,100.0,43261.0,1.0
15:31:26.043651,181501.984375,176371.1875,171529.890625,208857.75,172068.203125,163848.84375,684669.375,164513.578125,-0.065185546875,0.993408203125,-0.18505859375,-1.8615721464157104,0.2136230319738388,0.6408690810203552,100.0,43262.0,1.0
15:31:26.046108,181517.546875,176387.09375,171544.375,208888.234375,172079.5625,163867.4375,684730.875,164510.8125,-0.0673828125,0.99462890625,-0.184814453125,-1.7395018339157104,0.1831054538488388,0.7324218153953552,100.0,43263.0,1.0
15:31:26.049783,181520.21875,176400.875,171555.09375,208811.265625,172087.34375,163879.78125,684750.125,164510.640625,-0.066650390625,0.99462890625,-0.187744140625,-1.7700194120407104,0.1220703050494194,0.7019042372703552,100.0,43264.0,1.0
15:31:26.051074,181508.875,176379.765625,171540.703125,208868.921875,172079.46875,163853.84375,684724.1875,164526.28125,-0.06689453125,0.993408203125,-0.18798828125,-1.7700194120407104,0.03051757626235485,0.6103515028953552,100.0,43265.0,1.0
15:31:26.053638,181501.71875,176371.1875,171530.515625,208866.15625,172071.15625,163847.328125,684692.375,164517.34375,-0.06689453125,0.99267578125,-0.185791015625,-1.7700194120407104,-0.1220703050494194,0.6103515028953552,100.0,43266.0,1.0
15:31:26.056073,181518.34375,176388.171875,171545.359375,208894.3125,172081.625,163867.171875,684731.25,164509.390625,-0.06787109375,0.994384765625,-0.185302734375,-1.6784666776657104,-0.0915527269244194,0.6408690810203552,100.0,43267.0,1.0
15:31:26.058579,181520.84375,176399.890625,171553.484375,208823.234375,172086.171875,163878.4375,684767.25,164503.484375,-0.066650390625,0.993896484375,-0.184814453125,-1.6784666776657104,-0.1220703050494194,0.5798339247703552,100.0,43268.0,1.0
15:31:26.061120,181509.046875,176379.953125,171540.265625,208852.296875,172079.828125,163856.4375,684723.3125,164523.875,-0.064453125,0.992431640625,-0.18701171875,-1.6479490995407104,-0.0915527269244194,0.5493163466453552,100.0,43269.0,1.0
15:31:26.063961,181492.421875,176359.03125,171520.5,208864.015625,172063.015625,163837.3125,684707.1875,164512.953125,-0.06787109375,0.991455078125,-0.18798828125,-1.7089842557907104,-0.1525878757238388,0.6103515028953552,100.0,43270.0,1.0
15:31:26.066108,181508.15625,176373.328125,171533.46875,208882.25,172071.15625,163854.65625,684708.6875,164507.59375,-0.0654296875,0.991455078125,-0.18798828125,-1.6784666776657104,-0.1525878757238388,0.6713866591453552,100.0,43271.0,1.0
15:31:26.068715,181516.203125,176391.921875,171548.390625,208837.640625,172084.03125,163874.6875,684766.375,164507.421875,-0.064453125,0.9892578125,-0.1875,-1.7089842557907104,-0.1220703050494194,0.5187987685203552,100.0,43272.0,1.0
15:31:26.072593,181501.453125,176378.078125,171536.140625,208823.953125,172076.875,163858.859375,684725.9375,164511.0,-0.06494140625,0.9892578125,-0.18505859375,-1.7089842557907104,-0.1220703050494194,0.6408690810203552,100.0,43273.0,1.0
15:31:26.072634,181487.59375,176355.546875,171515.40625,208871.15625,172057.84375,163833.640625,684712.1875,164507.953125,-0.066650390625,0.990234375,-0.184326171875,-1.6174315214157104,-0.1525878757238388,0.5798339247703552,100.0,43274.0,1.0
15:31:26.072644,181501.625,176363.671875,171523.265625,208880.453125,172059.53125,163843.75,684689.9375,164510.546875,-0.064453125,0.98828125,-0.186279296875,-1.7089842557907104,-0.1525878757238388,0.5493163466453552,100.0,43275.0,1.0
15:31:26.072645,181508.78125,176377.890625,171536.0625,208856.140625,172069.28125,163860.203125,684755.0,164506.515625,-0.064453125,0.989501953125,-0.185302734375,-1.6784666776657104,-0.1525878757238388,0.5798339247703552,100.0,43276.0,1.0
15:31:26.072646,181501.8125,176374.5,171534.359375,208813.84375,172070.4375,163856.171875,684729.4375,164511.171875,-0.067138671875,0.990478515625,-0.187744140625,-1.5258787870407104,-0.1220703050494194,0.5493163466453552,100.0,43277.0,1.0
15:31:26.074876,181486.703125,176349.015625,171514.59375,208877.59375,172056.140625,163829.171875,684726.5625,164512.953125,-0.068359375,0.98876953125,-0.185302734375,-1.5258787870407104,-0.2136230319738388,0.5798339247703552,100.0,43278.0,1.0
15:31:26.077927,181495.015625,176357.15625,171520.40625,208867.234375,172059.625,163840.078125,684684.5625,164507.140625,-0.068115234375,0.990966796875,-0.186279296875,-1.4648436307907104,-0.2441406100988388,0.5187987685203552,100.0,43279.0,1.0
15:31:26.077932,181506.984375,176375.5625,171535.703125,208868.921875,172071.78125,163859.65625,684766.125,164500.71875,-0.068603515625,0.9931640625,-0.185546875,-1.4648436307907104,-0.2136230319738388,0.5798339247703552,100.0,43280.0,1.0
15:31:26.079870,181503.0625,176380.3125,171536.59375,208796.859375,172073.03125,163861.359375,684743.6875,164501.78125,-0.06787109375,0.993896484375,-0.186279296875,-1.4343260526657104,-0.3051757514476776,0.4882812201976776,100.0,43281.0,1.0
15:31:26.082412,181490.625,176358.046875,171520.234375,208877.59375,172063.921875,163835.96875,684732.75,164516.09375,-0.068115234375,0.994384765625,-0.189453125,-1.3427733182907104,-0.2746581733226776,0.4577636420726776,100.0,43282.0,1.0
15:31:26.098043,181497.15625,176364.921875,171525.78125,208866.421875,172068.125,163847.5,684682.125,164519.484375,-0.067626953125,0.9931640625,-0.19091796875,-1.3427733182907104,-0.3051757514476776,0.3967284858226776,100.0,43283.0,1.0
15:31:26.098063,181508.515625,176380.125,171537.484375,208883.140625,172075.09375,163864.046875,684742.3125,164508.3125,-0.06689453125,0.991943359375,-0.187744140625,-1.2512205839157104,-0.3051757514476776,0.5187987685203552,100.0,43284.0,1.0
15:31:26.100441,181504.578125,176385.9375,171540.796875,208797.84375,172076.078125,163868.421875,684747.6875,164505.09375,-0.065185546875,0.991455078125,-0.188720703125,-1.1901854276657104,-0.3051757514476776,0.4577636420726776,100.0,43285.0,1.0
15:31:26.100453,181489.203125,176359.390625,171520.765625,208867.3125,172063.828125,163838.734375,684727.75,164513.40625,-0.067626953125,0.99365234375,-0.188232421875,-1.0986326932907104,-0.3662109076976776,0.3967284858226776,100.0,43286.0,1.0
15:31:26.102380,181489.734375,176356.96875,171518.984375,208859.0,172062.671875,163840.4375,684684.8125,164515.1875,-0.069091796875,0.994140625,-0.1875,-1.0986326932907104,-0.3662109076976776,0.3356933295726776,100.0,43287.0,1.0
15:31:26.106206,181508.15625,176377.984375,171536.421875,208892.625,172076.609375,163864.484375,684731.75,164516.265625,-0.067626953125,0.99267578125,-0.186767578125,-1.1901854276657104,-0.4577636420726776,0.3051757514476776,100.0,43288.0,1.0
15:31:26.113633,181508.953125,176390.40625,171544.109375,208809.46875,172081.4375,163875.84375,684750.8125,164511.890625,-0.068359375,0.993896484375,-0.18701171875,-1.1291502714157104,-0.4882812201976776,0.3051757514476776,100.0,43289.0,1.0
15:31:26.122510,181499.21875,176370.109375,171531.5,208867.859375,172074.734375,163851.171875,684720.3125,164525.296875,-0.07177734375,0.995849609375,-0.18408203125,-1.1291502714157104,-0.5798339247703552,0.1831054538488388,100.0,43290.0,1.0
15:31:26.122524,181490.625,176361.53125,171521.390625,208865.890625,172066.6875,163843.296875,684689.875,164520.5625,-0.069580078125,0.99462890625,-0.187744140625,-1.0986326932907104,-0.4882812201976776,0.1831054538488388,100.0,43291.0,1.0
15:31:26.122527,181516.296875,176384.6875,171544.640625,208915.328125,172085.28125,163868.609375,684719.5,164534.859375,-0.068115234375,0.9951171875,-0.185546875,-1.1901854276657104,-0.6713866591453552,0.0,100.0,43292.0,1.0
15:31:26.127451,181518.53125,176396.578125,171553.140625,208840.046875,172090.375,163881.125,684759.875,164522.34375,-0.06884765625,0.995849609375,-0.185546875,-1.2207030057907104,-0.7934569716453552,0.0610351525247097,100.0,43293.0,1.0
15:31:26.129942,181495.8125,176371.984375,171529.171875,208839.328125,172073.21875,163853.5,684729.75,164509.390625,-0.069091796875,0.996826171875,-0.18408203125,-1.3122557401657104,-0.7934569716453552,0.0,100.0,43294.0,1.0
15:31:26.132516,181489.375,176360.28125,171520.5,208872.0625,172067.21875,163843.296875,684718.8125,164519.671875,-0.06787109375,0.996826171875,-0.18505859375,-1.2512205839157104,-0.7629393935203552,0.0610351525247097,100.0,43295.0,1.0
15:31:26.136199,181506.546875,176377.71875,171534.8125,208891.90625,172077.6875,163863.78125,684717.0,164520.828125,-0.06591796875,0.99658203125,-0.18408203125,-1.2817381620407104,-0.7629393935203552,0.2136230319738388,100.0,43296.0,1.0
15:31:26.146196,181514.59375,176393.265625,171547.765625,208851.484375,172085.546875,163878.890625,684772.125,164519.484375,-0.06689453125,0.996337890625,-0.181640625,-1.3427733182907104,-0.8239745497703552,0.2746581733226776,100.0,43297.0,1.0
15:31:26.150524,181503.140625,176379.328125,171537.046875,208836.828125,172077.859375,163862.53125,684724.1875,164523.875,-0.064697265625,0.9931640625,-0.182373046875,-1.3732908964157104,-0.8850097060203552,0.3356933295726776,100.0,43298.0,1.0
15:31:26.150544,181486.875,176355.546875,171517.453125,208877.15625,172061.765625,163839.453125,684709.4375,164517.609375,-0.06591796875,0.9951171875,-0.18359375,-1.4343260526657104,-0.8544921278953552,0.3967284858226776,100.0,43299.0,1.0
15:31:26.160050,181502.796875,176371.71875,171531.859375,208885.90625,172072.765625,163857.78125,684688.875,164521.90625,-0.0654296875,0.995849609375,-0.182373046875,-1.3732908964157104,-0.7934569716453552,0.6408690810203552,100.0,43300.0,1.0
15:31:26.162941,181513.515625,176389.421875,171546.703125,208868.03125,172083.140625,163875.484375,684758.0,164516.265625,-0.064697265625,0.995849609375,-0.18408203125,-1.5258787870407104,-0.6408690810203552,0.6408690810203552,100.0,43301.0,1.0
15:31:26.162958,181502.796875,176382.625,171539.71875,208813.9375,172078.9375,163867.703125,684733.0,164516.265625,-0.064453125,0.993408203125,-0.18359375,-1.4953612089157104,-0.7019042372703552,0.8239745497703552,100.0,43302.0,1.0
15:31:26.166126,181487.046875,176358.046875,171518.625,208873.3125,172063.828125,163842.671875,684721.5625,164519.125,-0.064208984375,0.99267578125,-0.186279296875,-1.4953612089157104,-0.7629393935203552,0.9460448622703552,100.0,43303.0,1.0
15:31:26.181765,181499.125,176369.671875,171528.09375,208870.171875,172069.640625,163857.421875,684674.0,164514.65625,-0.063720703125,0.994384765625,-0.187744140625,-1.6479490995407104,-0.7324218153953552,1.0070799589157104,100.0,43304.0,1.0
15:31:26.181783,181512.0,176384.328125,171543.296875,208879.390625,172081.625,163875.046875,684746.5,164510.015625,-0.065673828125,0.993408203125,-0.185302734375,-1.6479490995407104,-0.6713866591453552,0.9765624403953552,100.0,43305.0,1.0
15:31:26.184285,181500.46875,176381.015625,171536.5,208793.828125,172075.890625,163870.125,684738.6875,164500.171875,-0.064697265625,0.995849609375,-0.185546875,-1.6784666776657104,-0.6408690810203552,0.9155272841453552,100.0,43306.0,1.0
15:31:26.184309,181490.984375,176359.75,171521.578125,208877.328125,172067.84375,163845.71875,684755.0,164516.890625,-0.06396484375,0.99658203125,-0.1865234375,-1.7700194120407104,-0.5493163466453552,0.8850097060203552,100.0,43307.0,1.0
15:31:26.186086,181496.625,176363.671875,171524.703125,208869.46875,172069.734375,163853.9375,684696.1875,164518.328125,-0.06494140625,0.992919921875,-0.184814453125,-1.7700194120407104,-0.4272460639476776,0.8544921278953552,100.0,43308.0,1.0
15:31:26.190084,181518.796875,176387.375,171547.59375,208904.421875,172088.234375,163878.796875,684749.1875,164530.296875,-0.065185546875,0.990966796875,-0.185302734375,-1.8005369901657104,-0.4577636420726776,0.8850097060203552,100.0,43309.0,1.0
15:31:26.200503,181509.859375,176389.609375,171543.921875,208803.921875,172083.140625,163879.6875,684747.875,164508.046875,-0.064208984375,0.990234375,-0.186767578125,-1.8310545682907104,-0.4577636420726776,0.7934569716453552,100.0,43310.0,1.0
15:31:26.200525,181496.984375,176366.453125,171527.03125,208876.171875,172072.3125,163851.96875,684739.125,164516.71875,-0.063232421875,0.9912109375,-0.1845703125,-1.7395018339157104,-0.4577636420726776,0.7019042372703552,100.0,43311.0,1.0
15:31:26.202981,181501.8125,176365.734375,171529.265625,208880.28125,172073.84375,163853.671875,684695.625,164529.328125,-0.065673828125,0.990234375,-0.1865234375,-1.7089842557907104,-0.3967284858226776,0.6713866591453552,100.0,43312.0,1.0
15:31:26.202998,181510.84375,176378.421875,171537.484375,208890.390625,172077.859375,163868.328125,684733.75,164509.109375,-0.0615234375,0.990966796875,-0.185791015625,-1.7089842557907104,-0.3051757514476776,0.7019042372703552,100.0,43313.0,1.0
15:31:26.212402,181513.15625,176391.296875,171546.875,208810.0,172083.765625,163879.59375,684763.875,164509.296875,-0.06005859375,0.990234375,-0.183837890625,-1.7395018339157104,-0.1525878757238388,0.5798339247703552,100.0,43314.0,1.0
15:31:26.216718,181500.546875,176370.375,171533.28125,208870.0,172077.0625,163855.375,684728.4375,164533.34375,-0.05908203125,0.9912109375,-0.185302734375,-1.6479490995407104,-0.0610351525247097,0.5187987685203552,100.0,43315.0,1.0
15:31:26.216735,181489.109375,176357.0625,171518.984375,208864.546875,172064.8125,163846.078125,684695.625,164517.25,-0.058349609375,0.991943359375,-0.185546875,-1.6784666776657104,0.0610351525247097,0.4272460639476776,100.0,43316.0,1.0
15:31:26.222357,181509.140625,176375.65625,171535.703125,208898.34375,172076.875,163865.921875,684727.75,164518.859375,-0.057861328125,0.989990234375,-0.185546875,-1.6479490995407104,0.0915527269244194,0.4882812201976776,100.0,43317.0,1.0
15:31:26.235510,181508.953125,176386.5625,171541.78125,208818.953125,172079.65625,163876.65625,684767.4375,164504.203125,-0.0595703125,0.990966796875,-0.18701171875,-1.5869139432907104,0.2441406100988388,0.5187987685203552,100.0,43318.0,1.0
15:31:26.235521,181495.546875,176367.25,171528.453125,208834.6875,172071.515625,163855.1875,684716.5,164508.046875,-0.0576171875,0.991455078125,-0.185546875,-1.4343260526657104,0.4272460639476776,0.5493163466453552,100.0,43319.0,1.0
15:31:26.237940,181488.21875,176354.015625,171518.265625,208867.5,172062.9375,163841.953125,684697.1875,164516.71875,-0.05859375,0.9892578125,-0.1875,-1.4038084745407104,0.4577636420726776,0.5493163466453552,100.0,43320.0,1.0
15:31:26.237951,181509.765625,176373.78125,171536.0625,208894.765625,172077.5,163863.78125,684695.0,164529.59375,-0.05859375,0.989013671875,-0.187744140625,-1.2817381620407104,0.4882812201976776,0.6408690810203552,100.0,43321.0,1.0
15:31:26.240020,181512.890625,176388.703125,171543.03125,208840.765625,172080.640625,163879.0625,684750.75,164504.734375,-0.060791015625,0.989013671875,-0.189453125,-1.2207030057907104,0.5493163466453552,0.6713866591453552,100.0,43322.0,1.0
15:31:26.255439,181497.25,176374.046875,171529.4375,208818.953125,172071.25,163861.8125,684721.125,164505.625,-0.06298828125,0.989013671875,-0.187255859375,-1.1901854276657104,0.7934569716453552,0.6713866591453552,100.0,43323.0,1.0
15:31:26.255462,181486.609375,176352.046875,171516.03125,208873.75,172062.390625,163840.796875,684721.9375,164512.421875,-0.063232421875,0.98974609375,-0.188720703125,-1.0375975370407104,0.7629393935203552,0.7019042372703552,100.0,43324.0,1.0
15:31:26.257380,181503.0625,176366.265625,171530.0625,208886.359375,172073.125,163857.703125,684692.875,164518.5,-0.0634765625,0.98828125,-0.18994140625,-0.9765624403953552,0.7934569716453552,0.6103515028953552,100.0,43325.0,1.0
15:31:26.259827,181509.140625,176383.703125,171539.1875,208851.40625,172079.109375,163874.765625,684764.3125,164501.34375,-0.064697265625,0.98876953125,-0.184814453125,-0.8544921278953552,0.8239745497703552,0.6408690810203552,100.0,43326.0,1.0
15:31:26.262378,181500.90625,176377.0,171534.0,208803.21875,172075.890625,163864.84375,684729.4375,164501.609375,-0.064453125,0.99072265625,-0.1875,-0.7934569716453552,0.7324218153953552,0.7019042372703552,100.0,43327.0,1.0
15:31:26.272506,181491.25,176356.34375,171519.34375,208879.203125,172065.609375,163841.6875,684718.8125,164515.375,-0.064453125,0.991455078125,-0.18896484375,-0.7019042372703552,0.7934569716453552,0.7629393935203552,100.0,43328.0,1.0
15:31:26.275495,181505.921875,176369.21875,171530.609375,208881.359375,172073.65625,163857.78125,684681.25,164524.765625,-0.064453125,0.991455078125,-0.188720703125,-0.7019042372703552,0.7934569716453552,0.8239745497703552,100.0,43329.0,1.0
15:31:26.275512,181515.75,176384.234375,171541.0625,208879.921875,172079.734375,163872.8125,684751.8125,164512.78125,-0.066650390625,0.99169921875,-0.18798828125,-0.6408690810203552,0.7019042372703552,0.7934569716453552,100.0,43330.0,1.0
15:31:26.284212,181509.9375,176386.828125,171540.171875,208804.015625,172077.78125,163872.8125,684739.1875,164508.21875,-0.065185546875,0.991943359375,-0.1865234375,-0.6408690810203552,0.7629393935203552,0.7934569716453552,100.0,43331.0,1.0
15:31:26.289199,181495.375,176362.328125,171521.3125,208881.171875,172065.25,163846.15625,684746.875,164518.0625,-0.065185546875,0.993408203125,-0.185302734375,-0.6103515028953552,0.7324218153953552,0.8239745497703552,100.0,43332.0,1.0
15:31:26.289217,181500.828125,176363.5,171524.4375,208872.0625,172066.15625,163851.34375,684689.5625,164525.65625,-0.06640625,0.993408203125,-0.1884765625,-0.5493163466453552,0.7629393935203552,0.6408690810203552,100.0,43333.0,1.0
15:31:26.291667,181511.28125,176379.6875,171535.25,208887.25,172073.75,163869.3125,684748.75,164511.625,-0.066650390625,0.995849609375,-0.189208984375,-0.5187987685203552,0.6408690810203552,0.6103515028953552,100.0,43334.0,1.0
15:31:26.291677,181509.859375,176387.8125,171540.171875,208801.6875,172077.328125,163876.296875,684753.125,164510.546875,-0.066650390625,0.995361328125,-0.188720703125,-0.5187987685203552,0.7019042372703552,0.6103515028953552,100.0,43335.0,1.0
15:31:26.298640,181496.171875,176365.109375,171523.0,208872.859375,172066.421875,163849.375,684736.0625,164517.96875,-0.066650390625,0.996337890625,-0.18505859375,-0.6103515028953552,0.5798339247703552,0.7324218153953552,100.0,43336.0,1.0
15:31:26.305401,181491.609375,176358.578125,171517.453125,208862.484375,172061.234375,163846.34375,684691.4375,164515.1875,-0.065673828125,0.9970703125,-0.18505859375,-0.6408690810203552,0.5493163466453552,0.8544921278953552,100.0,43337.0,1.0
15:31:26.305411,181507.890625,176375.75,171532.5625,208895.21875,172072.234375,163864.40625,684756.0,164515.90625,-0.06689453125,0.995361328125,-0.184326171875,-0.7934569716453552,0.5493163466453552,0.8239745497703552,100.0,43338.0,1.0
15:31:26.312319,181508.0625,176388.359375,171539.0,208810.28125,172075.625,163877.359375,684774.0,164505.890625,-0.06884765625,0.994140625,-0.186767578125,-0.7629393935203552,0.5187987685203552,0.8544921278953552,100.0,43339.0,1.0
15:31:26.323043,181495.90625,176367.34375,171523.265625,208867.046875,172066.328125,163854.203125,684723.625,164517.78125,-0.0673828125,0.991943359375,-0.1865234375,-0.8239745497703552,0.4577636420726776,0.8239745497703552,100.0,43340.0,1.0
15:31:26.323058,181489.109375,176355.625,171513.53125,208871.96875,172058.1875,163845.71875,684693.5,164515.1875,-0.067626953125,0.9921875,-0.18798828125,-0.7629393935203552,0.4272460639476776,0.7934569716453552,100.0,43341.0,1.0
15:31:26.325426,181505.109375,176370.734375,171527.203125,208897.796875,172069.1875,163864.765625,684717.375,164516.890625,-0.0673828125,0.993896484375,-0.190185546875,-0.7934569716453552,0.3356933295726776,0.9765624403953552,100.0,43342.0,1.0
15:31:26.325435,181505.828125,176385.046875,171534.171875,208821.453125,172072.5,163878.890625,684758.4375,164500.71875,-0.064453125,0.992431640625,-0.19140625,-0.8850097060203552,0.3051757514476776,1.0375975370407104,100.0,43343.0,1.0
15:31:26.327324,181491.34375,176365.828125,171519.25,208836.296875,172063.203125,163856.625,684738.6875,164505.984375,-0.065185546875,0.992919921875,-0.1884765625,-0.9765624403953552,0.3051757514476776,0.9460448622703552,100.0,43344.0,1.0
15:31:26.338821,181486.875,176353.484375,171510.671875,208876.078125,172058.46875,163843.921875,684725.5,164518.765625,-0.066162109375,0.993896484375,-0.187255859375,-1.0681151151657104,0.2746581733226776,0.9460448622703552,100.0,43345.0,1.0
15:31:26.343094,181507.4375,176374.3125,171529.0,208899.6875,172074.5625,163867.4375,684716.125,164527.0,-0.065185546875,0.991455078125,-0.188720703125,-1.0681151151657104,0.2136230319738388,1.0681151151657104,100.0,43346.0,1.0
15:31:26.343117,181509.40625,176388.703125,171535.96875,208842.90625,172077.5,163880.578125,684767.375,164508.40625,-0.0654296875,0.991455078125,-0.188232421875,-1.0375975370407104,0.2746581733226776,1.1291502714157104,100.0,43347.0,1.0
15:31:26.344867,181498.234375,176372.171875,171525.0625,208829.40625,172068.5625,163861.8125,684732.3125,164513.859375,-0.06396484375,0.991943359375,-0.19189453125,-0.9460448622703552,0.3051757514476776,1.0375975370407104,100.0,43348.0,1.0
15:31:26.377349,181486.515625,176350.796875,171509.0625,208876.078125,172056.140625,163839.09375,684724.8125,164516.71875,-0.0634765625,0.990478515625,-0.189208984375,-0.9765624403953552,0.3356933295726776,0.9155272841453552,100.0,43349.0,1.0
15:31:26.398004,181499.578125,176364.75,171519.515625,208875.625,172064.09375,163856.09375,684690.1875,164511.53125,-0.062744140625,0.98974609375,-0.192138671875,-0.9460448622703552,0.3051757514476776,0.9460448622703552,100.0,43350.0,1.0
15:31:26.398041,181509.046875,176382.0,171533.90625,208858.203125,172074.46875,163875.21875,684754.9375,164505.453125,-0.063232421875,0.991455078125,-0.190673828125,-0.9155272841453552,0.1831054538488388,0.9460448622703552,100.0,43351.0,1.0
15:31:26.399909,181500.46875,176378.15625,171529.796875,208810.453125,172071.609375,163867.984375,684727.0625,164509.203125,-0.065185546875,0.992431640625,-0.1884765625,-0.9765624403953552,0.2136230319738388,0.8850097060203552,100.0,43352.0,1.0
15:31:26.402636,181490.546875,176357.78125,171516.203125,208883.5,172064.265625,163844.46875,684730.25,164520.5625,-0.0673828125,0.994384765625,-0.187255859375,-0.9765624403953552,0.2441406100988388,0.7934569716453552,100.0,43353.0,1.0
15:31:26.404923,181507.703125,176373.875,171531.234375,208886.71875,172076.703125,163864.046875,684688.0625,164530.484375,-0.066650390625,0.990966796875,-0.190185546875,-1.0070799589157104,0.3051757514476776,0.7019042372703552,100.0,43354.0,1.0
15:31:26.407341,181523.078125,176394.703125,171547.859375,208894.046875,172089.125,163886.21875,684756.4375,164527.984375,-0.066162109375,0.9921875,-0.1884765625,-0.9155272841453552,0.2441406100988388,0.6408690810203552,100.0,43355.0,1.0
15:31:26.409871,181505.65625,176386.296875,171536.5,208802.765625,172078.3125,163875.9375,684742.875,164513.40625,-0.067626953125,0.9931640625,-0.19140625,-0.8850097060203552,0.1220703050494194,0.5187987685203552,100.0,43356.0,1.0
15:31:26.412307,181493.3125,176364.75,171519.609375,208878.765625,172068.5625,163851.796875,684722.3125,164521.28125,-0.06640625,0.992431640625,-0.189453125,-0.8544921278953552,0.1220703050494194,0.3967284858226776,100.0,43357.0,1.0
15:31:26.414909,181501.8125,176371.71875,171526.578125,208869.90625,172072.953125,163863.15625,684682.875,164523.6875,-0.068359375,0.99462890625,-0.189208984375,-0.9155272841453552,0.1220703050494194,0.3662109076976776,100.0,43358.0,1.0
15:31:26.417375,181516.109375,176389.78125,171541.953125,208894.765625,172083.40625,163883.984375,684753.25,164519.578125,-0.0654296875,0.99365234375,-0.190185546875,-0.8850097060203552,0.1220703050494194,0.3662109076976776,100.0,43359.0,1.0
15:31:26.419859,181511.8125,176394.171875,171543.828125,208809.46875,172084.65625,163887.828125,684753.3125,164515.375,-0.06201171875,0.9951171875,-0.19140625,-0.9460448622703552,0.1525878757238388,0.4577636420726776,100.0,43360.0,1.0
15:31:26.422356,181496.53125,176367.515625,171523.8125,208873.390625,172072.953125,163858.765625,684744.9375,164523.328125,-0.061767578125,0.993896484375,-0.1923828125,-0.8850097060203552,0.1525878757238388,0.4882812201976776,100.0,43361.0,1.0
15:31:26.424885,181497.15625,176363.9375,171522.28125,208867.234375,172070.53125,163856.984375,684695.3125,164519.390625,-0.0595703125,0.994384765625,-0.1884765625,-0.8850097060203552,0.1525878757238388,0.6103515028953552,100.0,43362.0,1.0
15:31:26.427331,181524.421875,176393.1875,171547.59375,208912.109375,172090.921875,163886.3125,684753.75,164528.0625,-0.061279296875,0.99462890625,-0.19140625,-0.9765624403953552,0.2746581733226776,0.5493163466453552,100.0,43363.0,1.0
15:31:26.430416,181522.453125,176405.609375,171552.421875,208819.75,172092.34375,163897.125,684774.0625,164517.15625,-0.060791015625,0.99560546875,-0.19091796875,-1.0070799589157104,0.2441406100988388,0.7019042372703552,100.0,43364.0,1.0
15:31:26.430422,181506.640625,176378.15625,171533.46875,208869.90625,172080.09375,163866.8125,684746.4375,164527.71875,-0.06201171875,0.997802734375,-0.1884765625,-1.1596678495407104,0.2746581733226776,0.8850097060203552,100.0,43365.0,1.0
15:31:26.432362,181498.40625,176365.90625,171521.75,208873.671875,172070.625,163856.984375,684715.6875,164524.3125,-0.0615234375,0.996826171875,-0.1904296875,-1.0986326932907104,0.3967284858226776,0.9155272841453552,100.0,43366.0,1.0
15:31:26.438361,181513.875,176382.90625,171535.15625,208899.6875,172079.203125,163875.75,684742.75,164522.34375,-0.06201171875,0.994873046875,-0.191162109375,-1.0986326932907104,0.4577636420726776,0.9765624403953552,100.0,43367.0,1.0
15:31:26.438394,181511.015625,176389.96875,171539.8125,208827.53125,172080.359375,163883.71875,684781.375,164512.953125,-0.0634765625,0.994140625,-0.189208984375,-1.0986326932907104,0.4882812201976776,0.8850097060203552,100.0,43368.0,1.0
15:31:26.440517,181502.703125,176374.765625,171529.796875,208854.359375,172076.4375,163864.765625,684727.0625,164529.671875,-0.065673828125,0.9912109375,-0.18994140625,-1.1596678495407104,0.5187987685203552,0.8850097060203552,100.0,43369.0,1.0
15:31:26.440536,181495.375,176362.96875,171517.375,208879.125,172068.125,163853.578125,684709.6875,164522.796875,-0.066162109375,0.992431640625,-0.188720703125,-1.1291502714157104,0.4882812201976776,0.9155272841453552,100.0,43370.0,1.0
15:31:26.442314,181510.5625,176376.734375,171530.953125,208898.703125,172078.9375,163871.46875,684710.9375,164525.65625,-0.066162109375,0.9921875,-0.1923828125,-1.2207030057907104,0.4882812201976776,1.0681151151657104,100.0,43371.0,1.0
15:31:26.444841,181519.859375,176394.703125,171545.890625,208858.90625,172088.6875,163889.609375,684770.9375,164521.0,-0.06591796875,0.993896484375,-0.19091796875,-1.2817381620407104,0.4882812201976776,0.8544921278953552,100.0,43372.0,1.0
15:31:26.449210,181508.515625,176382.90625,171534.625,208831.734375,172080.1875,163874.328125,684730.0625,164515.640625,-0.064208984375,0.994140625,-0.191650390625,-1.2207030057907104,0.3662109076976776,0.8850097060203552,100.0,43373.0,1.0
15:31:26.449218,181506.71875,176371.71875,171526.765625,208893.875,172075.453125,163860.921875,684721.375,164527.796875,-0.064697265625,0.99462890625,-0.190185546875,-1.2207030057907104,0.3662109076976776,0.7934569716453552,100.0,43374.0,1.0
15:31:26.458712,181517.8125,176385.40625,171535.875,208889.9375,172082.15625,163877.984375,684695.5,164523.59375,-0.062744140625,0.994384765625,-0.187744140625,-1.3122557401657104,0.3967284858226776,0.7324218153953552,100.0,43375.0,1.0
15:31:26.486717,181522.734375,176396.484375,171544.90625,208870.796875,172087.78125,163889.34375,684760.625,164516.0,-0.0634765625,0.994384765625,-0.188232421875,-1.3122557401657104,0.3662109076976776,0.7934569716453552,100.0,43376.0,1.0
15:31:26.486728,181511.640625,176385.9375,171537.484375,208820.640625,172081.0,163877.09375,684723.375,164517.25,-0.06201171875,0.994140625,-0.18798828125,-1.4343260526657104,0.3967284858226776,0.8544921278953552,100.0,43377.0,1.0
15:31:26.488596,181505.828125,176371.546875,171527.390625,208901.296875,172076.171875,163861.890625,684716.375,164532.8125,-0.062744140625,0.993408203125,-0.185546875,-1.5258787870407104,0.3967284858226776,0.6713866591453552,100.0,43378.0,1.0
