Timestamp,Fz,FC3,FCz,FC4,Cz,C3,C4
15:42:49.155616,175000.84375,168685.859375,158654.484375,199161.5625,160566.171875,162972.296875,687079.8125,158603.875,-0.0849609375,0.996337890625,-0.13671875,-1.8310545682907104,-0.0915527269244194,0.1831054538488388,100.0,214155.0,1.0
15:42:49.160727,175066.296875,168701.859375,158668.78125,199163.078125,160575.828125,162991.25,687105.4375,158601.90625,-0.086181640625,0.996826171875,-0.138671875,-1.8005369901657104,0.0610351525247097,0.1831054538488388,100.0,214156.0,1.0
15:42:49.166281,175009.96875,168706.859375,158670.296875,199149.671875,160577.984375,162997.515625,687100.8125,158597.53125,-0.085693359375,0.995361328125,-0.137451171875,-1.7395018339157104,0.0610351525247097,0.3051757514476776,100.0,214157.0,1.0
15:42:49.166295,174975.640625,168687.1875,158655.28125,199156.375,160570.734375,162975.78125,687194.875,158602.984375,-0.0859375,0.994140625,-0.13671875,-1.7395018339157104,0.0610351525247097,0.3662109076976776,100.0,214158.0,1.0
15:42:49.168753,174980.015625,168684.515625,158652.0625,199159.328125,160566.09375,162974.0,687093.9375,158602.984375,-0.0869140625,0.993896484375,-0.138427734375,-1.5869139432907104,-0.0610351525247097,0.3967284858226776,100.0,214159.0,1.0
15:42:49.168761,175062.625,168699.4375,158666.453125,199168.984375,160573.59375,162987.765625,687112.25,158608.078125,-0.0869140625,0.9951171875,-0.138671875,-1.4953612089157104,-0.0610351525247097,0.4577636420726776,100.0,214160.0,1.0
15:42:49.173488,175014.875,168705.078125,158667.359375,199144.21875,160572.796875,162993.046875,687088.875,158590.8125,-0.08544921875,0.993408203125,-0.138916015625,-1.3427733182907104,-0.0915527269244194,0.3967284858226776,100.0,214161.0,1.0
15:42:49.176327,174980.015625,168687.109375,158655.015625,199156.203125,160567.421875,162972.828125,687163.375,158598.15625,-0.08642578125,0.994873046875,-0.1396484375,-1.3732908964157104,-0.0915527269244194,0.3967284858226776,100.0,214162.0,1.0
15:42:49.176340,174971.25,168683.890625,158650.09375,199158.875,160563.765625,162970.25,687111.3125,158597.34375,-0.085693359375,0.99560546875,-0.14111328125,-1.2207030057907104,-0.0610351525247097,0.5187987685203552,100.0,214163.0,1.0
15:42:49.178145,175054.9375,168695.859375,158659.9375,199157.546875,160568.953125,162984.09375,687113.5625,158592.609375,-0.08642578125,0.9951171875,-0.14111328125,-1.0986326932907104,-0.03051757626235485,0.4882812201976776,100.0,214164.0,1.0
15:42:49.183197,175018.453125,168698.8125,158660.015625,199142.078125,160565.46875,162988.125,687101.0625,158582.6875,-0.0849609375,0.99560546875,-0.14013671875,-1.0986326932907104,-0.03051757626235485,0.5798339247703552,100.0,214165.0,1.0
15:42:49.185609,174972.0625,168679.5,158643.484375,199141.0,160555.1875,162967.375,687148.625,158585.015625,-0.087890625,0.99462890625,-0.139404296875,-1.1291502714157104,-0.1220703050494194,0.6713866591453552,100.0,214166.0,1.0
15:42:49.188764,174947.46875,168667.96875,158632.84375,199144.75,160547.046875,162955.484375,687128.9375,158585.90625,-0.088623046875,0.996826171875,-0.137939453125,-1.0681151151657104,-0.0915527269244194,0.7019042372703552,100.0,214167.0,1.0
15:42:49.188790,175033.65625,168683.703125,158646.78125,199152.171875,160557.5,162971.859375,687096.4375,158588.671875,-0.085693359375,0.995849609375,-0.138671875,-0.9765624403953552,0.0,0.8850097060203552,100.0,214168.0,1.0
15:42:49.190682,175025.703125,168694.703125,158652.953125,199137.0625,160560.546875,162982.3125,687099.375,158579.46875,-0.08447265625,0.99853515625,-0.141357421875,-1.0375975370407104,-0.03051757626235485,0.9155272841453552,100.0,214169.0,1.0
15:42:49.193173,174972.0625,168681.203125,158642.234375,199133.125,160553.84375,162967.203125,687148.0,158582.421875,-0.083984375,0.998291015625,-0.141845703125,-0.9765624403953552,-0.0610351525247097,0.7934569716453552,100.0,214170.0,1.0
15:42:49.195756,174943.71875,168664.21875,158630.421875,199142.96875,160546.234375,162949.953125,687154.625,158587.328125,-0.083740234375,0.99609375,-0.141845703125,-0.9155272841453552,0.03051757626235485,0.7629393935203552,100.0,214171.0,1.0
15:42:49.200005,175018.375,168678.15625,158644.375,199150.46875,160555.265625,162965.140625,687086.5625,158591.265625,-0.08447265625,0.997802734375,-0.1416015625,-0.9460448622703552,-0.03051757626235485,0.8239745497703552,100.0,214172.0,1.0
15:42:49.200012,175038.21875,168690.5,158656.0,199144.578125,160563.3125,162978.734375,687101.0625,158586.34375,-0.08544921875,0.99560546875,-0.141357421875,-0.8850097060203552,0.03051757626235485,0.8544921278953552,100.0,214173.0,1.0
15:42:49.209393,174986.71875,168689.78125,158656.171875,199151.015625,160567.703125,162977.84375,687105.0,158598.0625,-0.086669921875,0.998046875,-0.140380859375,-0.7934569716453552,0.03051757626235485,0.9460448622703552,100.0,214174.0,1.0
15:42:49.218760,174953.640625,168671.015625,158639.546875,199150.390625,160556.609375,162958.4375,687166.0,158595.375,-0.085693359375,0.9970703125,-0.139404296875,-0.7934569716453552,0.0610351525247097,0.9155272841453552,100.0,214175.0,1.0
15:42:49.218780,174999.953125,168677.53125,158642.140625,199147.4375,160556.171875,162966.484375,687078.625,158589.5625,-0.085205078125,0.997314453125,-0.138427734375,-0.7629393935203552,0.0,0.9155272841453552,100.0,214176.0,1.0
15:42:49.221197,175045.28125,168691.125,158653.859375,199146.71875,160563.40625,162981.234375,687109.8125,158586.34375,-0.082763671875,1.00048828125,-0.1396484375,-0.7629393935203552,0.0610351525247097,1.0070799589157104,100.0,214177.0,1.0
15:42:49.221227,174988.6875,168691.484375,158654.5625,199144.75,160565.375,162982.671875,687101.6875,158593.328125,-0.082763671875,0.999755859375,-0.141357421875,-0.7629393935203552,0.1525878757238388,0.9765624403953552,100.0,214178.0,1.0
15:42:49.227034,174959.625,168672.625,158641.0625,199150.921875,160558.671875,162962.90625,687180.25,158598.6875,-0.082275390625,1.000732421875,-0.142333984375,-0.7629393935203552,0.0915527269244194,0.9460448622703552,100.0,214179.0,1.0
15:42:49.237533,174988.0625,168680.046875,158647.421875,199153.6875,160562.328125,162971.21875,687080.25,158597.703125,-0.080322265625,0.999267578125,-0.140625,-0.7934569716453552,0.1831054538488388,0.7934569716453552,100.0,214180.0,1.0
15:42:49.237544,175060.296875,168697.5625,158664.21875,199157.890625,160573.59375,162989.375,687119.8125,158598.0625,-0.080810546875,1.0,-0.139892578125,-0.7934569716453552,0.2441406100988388,0.9460448622703552,100.0,214181.0,1.0
15:42:49.252469,175006.484375,168701.59375,158665.46875,199147.25,160573.328125,162992.59375,687091.0625,158594.84375,-0.080322265625,0.99853515625,-0.139892578125,-0.7629393935203552,0.1831054538488388,0.9155272841453552,100.0,214182.0,1.0
15:42:49.252487,174971.515625,168678.25,158648.3125,199155.65625,160562.25,162967.03125,687183.125,158599.046875,-0.0810546875,0.999267578125,-0.140380859375,-0.7324218153953552,0.2136230319738388,0.9460448622703552,100.0,214183.0,1.0
15:42:49.254368,174977.421875,168677.359375,158645.625,199155.9375,160559.390625,162966.390625,687095.0625,158596.71875,-0.080810546875,1.0,-0.140380859375,-0.7629393935203552,0.3662109076976776,0.9460448622703552,100.0,214184.0,1.0
15:42:49.262080,175060.125,168690.765625,158658.140625,199160.40625,160566.53125,162978.921875,687120.9375,158595.5625,-0.0830078125,1.00048828125,-0.142333984375,-0.7324218153953552,0.3356933295726776,0.9460448622703552,100.0,214185.0,1.0
15:42:49.262094,175010.765625,168693.453125,158658.234375,199142.96875,160563.671875,162981.953125,687090.0625,158587.515625,-0.082763671875,1.00146484375,-0.141357421875,-0.7629393935203552,0.4272460639476776,0.9155272841453552,100.0,214186.0,1.0
15:42:49.262095,174969.203125,168671.28125,158640.703125,199145.921875,160552.046875,162958.171875,687158.125,158590.28125,-0.083251953125,1.000732421875,-0.13916015625,-0.7934569716453552,0.4577636420726776,0.9155272841453552,100.0,214187.0,1.0
15:42:49.264999,174958.734375,168668.59375,158636.59375,199152.53125,160548.65625,162956.109375,687110.8125,158592.703125,-0.082763671875,0.99951171875,-0.138671875,-0.7934569716453552,0.4272460639476776,0.8850097060203552,100.0,214188.0,1.0
15:42:49.265014,175044.296875,168680.84375,158647.859375,199152.53125,160554.90625,162970.953125,687092.0625,158589.921875,-0.083740234375,0.997314453125,-0.140380859375,-0.9155272841453552,0.4272460639476776,0.7934569716453552,100.0,214189.0,1.0
15:42:49.266956,175011.390625,168685.578125,158648.75,199131.171875,160553.578125,162979.625,687085.625,158577.671875,-0.08251953125,0.99951171875,-0.143310546875,-0.9460448622703552,0.4882812201976776,0.8239745497703552,100.0,214190.0,1.0
15:42:49.276994,174963.03125,168667.703125,158634.1875,199136.625,160544.90625,162959.78125,687154.4375,158584.828125,-0.083740234375,1.000244140625,-0.1396484375,-0.9155272841453552,0.5187987685203552,0.7324218153953552,100.0,214191.0,1.0
15:42:49.283695,174940.9375,168656.34375,158624.53125,199145.828125,160537.65625,162946.453125,687133.625,158587.515625,-0.083251953125,1.001953125,-0.14111328125,-1.0986326932907104,0.5493163466453552,0.7629393935203552,100.0,214192.0,1.0
15:42:49.283707,175021.953125,168668.15625,158632.9375,199136.890625,160543.015625,162958.171875,687110.875,158578.484375,-0.082763671875,1.002197265625,-0.141845703125,-1.0986326932907104,0.5798339247703552,0.7324218153953552,100.0,214193.0,1.0
15:42:49.293906,175017.203125,168679.953125,158641.875,199126.6875,160548.5625,162969.34375,687115.375,158573.125,-0.08349609375,1.00146484375,-0.142333984375,-1.1291502714157104,0.6408690810203552,0.7019042372703552,100.0,214194.0,1.0
15:42:49.293932,174969.734375,168671.1875,158636.5,199135.09375,160546.953125,162959.0625,687118.5,158584.203125,-0.084228515625,1.001953125,-0.140625,-1.1291502714157104,0.5187987685203552,0.7019042372703552,100.0,214195.0,1.0
15:42:49.296274,174943.453125,168658.5,158627.125,199147.4375,160540.421875,162945.828125,687150.5,158588.9375,-0.0849609375,1.000732421875,-0.139404296875,-1.2512205839157104,0.4577636420726776,0.7934569716453552,100.0,214196.0,1.0
15:42:49.296303,175014.4375,168674.140625,158640.890625,199151.734375,160550.171875,162963.265625,687084.9375,158589.390625,-0.085693359375,1.0009765625,-0.14111328125,-1.2207030057907104,0.5187987685203552,0.7019042372703552,100.0,214197.0,1.0
15:42:49.305647,175034.640625,168687.375,158649.46875,199140.734375,160556.34375,162977.03125,687103.625,158580.359375,-0.0849609375,0.9990234375,-0.140625,-1.2817381620407104,0.5187987685203552,0.6713866591453552,100.0,214198.0,1.0
15:42:49.312471,174977.15625,168683.703125,158646.078125,199135.546875,160555.265625,162973.546875,687109.3125,158583.9375,-0.08349609375,1.000244140625,-0.141357421875,-1.3427733182907104,0.6103515028953552,0.7934569716453552,100.0,214199.0,1.0
15:42:49.312480,174950.421875,168668.59375,158635.171875,199149.84375,160548.921875,162957.546875,687173.375,158593.0625,-0.084228515625,0.999267578125,-0.140380859375,-1.2817381620407104,0.5187987685203552,0.7324218153953552,100.0,214200.0,1.0
15:42:49.318712,175004.78125,168682.90625,158646.25,199161.109375,160556.875,162973.1875,687083.1875,158597.171875,-0.084716796875,0.999267578125,-0.142822265625,-1.2817381620407104,0.4272460639476776,0.7629393935203552,100.0,214201.0,1.0
15:42:49.318719,175047.515625,168694.703125,158654.5625,199146.359375,160562.515625,162985.796875,687098.1875,158584.5625,-0.086181640625,1.0,-0.142578125,-1.2512205839157104,0.4272460639476776,0.7934569716453552,100.0,214202.0,1.0
15:42:49.328776,174982.96875,168687.8125,158646.609375,199125.078125,160556.078125,162978.46875,687100.4375,158573.46875,-0.085693359375,1.000244140625,-0.14208984375,-1.3427733182907104,0.4577636420726776,0.8239745497703552,100.0,214203.0,1.0
15:42:49.328786,174951.84375,168666.8125,158633.734375,199141.796875,160547.9375,162956.203125,687204.75,158584.65625,-0.086181640625,1.000244140625,-0.14111328125,-1.3427733182907104,0.3662109076976776,0.8850097060203552,100.0,214204.0,1.0
15:42:49.333767,174982.96875,168677.453125,158640.984375,199148.328125,160551.78125,162967.65625,687101.75,158588.234375,-0.0849609375,0.999267578125,-0.1416015625,-1.3732908964157104,0.3662109076976776,0.8239745497703552,100.0,214205.0,1.0
15:42:49.333795,175055.46875,168694.796875,158654.828125,199148.0625,160560.546875,162983.65625,687140.25,158581.4375,-0.08447265625,0.99853515625,-0.142333984375,-1.3732908964157104,0.3356933295726776,0.8544921278953552,100.0,214206.0,1.0
15:42:49.343117,175000.578125,168696.671875,158653.9375,199133.9375,160558.3125,162984.8125,687093.75,158575.0,-0.08544921875,0.998291015625,-0.141845703125,-1.3122557401657104,0.3662109076976776,0.8239745497703552,100.0,214207.0,1.0
15:42:49.372497,174970.453125,168676.734375,158643.484375,199157.265625,160553.296875,162963.53125,687144.0,158592.15625,-0.0859375,0.996826171875,-0.139404296875,-1.3427733182907104,0.3967284858226776,0.8850097060203552,100.0,214208.0,1.0
15:42:49.372508,174969.375,168672.984375,158637.40625,199146.09375,160546.6875,162961.65625,687083.5625,158584.109375,-0.083984375,0.99755859375,-0.14013671875,-1.2817381620407104,0.2746581733226776,0.8850097060203552,100.0,214209.0,1.0
15:42:49.375622,175046.796875,168684.59375,158646.078125,199138.671875,160551.96875,162973.90625,687096.75,158575.984375,-0.08349609375,0.99755859375,-0.14111328125,-1.2512205839157104,0.2746581733226776,0.8850097060203552,100.0,214210.0,1.0
15:42:49.375629,174997.890625,168687.8125,158646.703125,199123.296875,160550.4375,162978.203125,687085.625,158566.5,-0.083740234375,0.996826171875,-0.1416015625,-1.3427733182907104,0.3356933295726776,0.8850097060203552,100.0,214211.0,1.0
15:42:49.375632,174962.9375,168669.765625,158635.53125,199138.046875,160544.71875,162958.625,687186.875,158580.09375,-0.08349609375,0.997802734375,-0.142333984375,-1.3122557401657104,0.3051757514476776,0.7934569716453552,100.0,214212.0,1.0
15:42:49.378726,174951.40625,168664.03125,158630.34375,199144.03125,160540.703125,162954.859375,687118.875,158582.328125,-0.083984375,0.99853515625,-0.138916015625,-1.2512205839157104,0.2136230319738388,0.9155272841453552,100.0,214213.0,1.0
15:42:49.378734,175040.359375,168680.390625,158644.90625,199154.59375,160551.96875,162971.9375,687107.6875,158586.625,-0.083740234375,0.99853515625,-0.141357421875,-1.2207030057907104,0.1525878757238388,0.8239745497703552,100.0,214214.0,1.0
15:42:49.380594,175012.640625,168690.953125,158650.0,199132.59375,160553.65625,162981.6875,687092.0625,158574.375,-0.0849609375,0.99755859375,-0.139892578125,-1.1596678495407104,0.2441406100988388,0.8544921278953552,100.0,214215.0,1.0
15:42:49.383172,174971.15625,168675.03125,158640.34375,199145.921875,160550.265625,162964.96875,687148.6875,158586.625,-0.083740234375,0.998046875,-0.14208984375,-1.2207030057907104,0.2136230319738388,0.8239745497703552,100.0,214216.0,1.0
15:42:49.385596,174945.328125,168660.546875,158630.15625,199147.609375,160542.578125,162952.546875,687144.3125,158588.5,-0.083740234375,0.9990234375,-0.140869140625,-1.2512205839157104,0.2441406100988388,0.8850097060203552,100.0,214217.0,1.0
15:42:49.388185,175026.78125,168674.234375,158641.609375,199146.8125,160550.0,162965.765625,687103.125,158586.171875,-0.08251953125,1.00048828125,-0.139404296875,-1.1291502714157104,0.2136230319738388,0.9460448622703552,100.0,214218.0,1.0
15:42:49.390640,175025.171875,168687.28125,158650.1875,199134.03125,160555.8125,162978.5625,687106.4375,158576.78125,-0.083740234375,1.00048828125,-0.140869140625,-1.0375975370407104,0.2746581733226776,0.8239745497703552,100.0,214219.0,1.0
15:42:49.393147,174976.53125,168678.703125,158645.0,199141.171875,160553.578125,162969.34375,687118.25,158587.328125,-0.081787109375,1.000244140625,-0.140869140625,-1.0986326932907104,0.2441406100988388,0.8850097060203552,100.0,214220.0,1.0
15:42:49.396245,174945.40625,168661.53125,158630.609375,199146.8125,160542.3125,162950.390625,687158.4375,158587.953125,-0.080322265625,0.999267578125,-0.13916015625,-1.0681151151657104,0.2441406100988388,0.8544921278953552,100.0,214221.0,1.0
15:42:49.396253,175009.15625,168670.5625,158636.234375,199142.96875,160544.8125,162960.234375,687087.0,158579.203125,-0.0791015625,0.99755859375,-0.144287109375,-1.0681151151657104,0.3356933295726776,0.9460448622703552,100.0,214222.0,1.0
15:42:49.407060,175037.953125,168688.265625,158651.609375,199143.40625,160556.34375,162978.828125,687107.9375,158578.578125,-0.080322265625,0.996826171875,-0.14208984375,-1.0986326932907104,0.2746581733226776,0.9460448622703552,100.0,214223.0,1.0
15:42:49.409471,174979.125,168682.453125,158645.171875,199135.28125,160552.859375,162973.28125,687103.375,158579.640625,-0.07861328125,0.99658203125,-0.143798828125,-1.0375975370407104,0.3356933295726776,0.8544921278953552,100.0,214224.0,1.0
15:42:49.411956,174951.9375,168665.734375,158634.265625,199148.953125,160547.765625,162957.375,687167.25,158589.03125,-0.0810546875,0.994873046875,-0.14013671875,-1.0375975370407104,0.3662109076976776,0.8239745497703552,100.0,214225.0,1.0
15:42:49.414499,175001.296875,168678.078125,158645.171875,199158.34375,160555.359375,162972.203125,687080.875,158595.375,-0.082275390625,0.99462890625,-0.138916015625,-0.9460448622703552,0.4272460639476776,0.8544921278953552,100.0,214226.0,1.0
15:42:49.420649,175047.34375,168689.609375,158652.25,199144.21875,160558.84375,162984.375,687107.875,158578.296875,-0.080078125,0.993896484375,-0.140869140625,-1.0986326932907104,0.4272460639476776,0.8850097060203552,100.0,214227.0,1.0
15:42:49.427623,174987.875,168689.34375,158649.03125,199129.828125,160555.984375,162983.03125,687102.375,158569.90625,-0.07958984375,0.9912109375,-0.140869140625,-0.9460448622703552,0.3967284858226776,0.7934569716453552,100.0,214228.0,1.0
15:42:49.427656,174959.1875,168671.71875,158636.859375,199146.546875,160549.640625,162962.546875,687205.5,158580.71875,-0.080322265625,0.994873046875,-0.14208984375,-0.9460448622703552,0.5187987685203552,0.7629393935203552,100.0,214229.0,1.0
15:42:49.435047,174986.0,168680.671875,158644.015625,199153.15625,160554.640625,162972.484375,687099.1875,158582.328125,-0.08349609375,0.998291015625,-0.14404296875,-0.9460448622703552,0.5187987685203552,0.7934569716453552,100.0,214230.0,1.0
15:42:49.435081,175058.25,168697.03125,158658.328125,199150.203125,160564.21875,162988.484375,687124.75,158577.671875,-0.083740234375,0.996337890625,-0.14404296875,-0.8239745497703552,0.5187987685203552,0.6713866591453552,100.0,214231.0,1.0
15:42:49.442487,175002.640625,168697.828125,158658.40625,199145.375,160562.953125,162987.859375,687093.4375,158577.953125,-0.08203125,0.99609375,-0.14306640625,-0.8239745497703552,0.4882812201976776,0.6408690810203552,100.0,214232.0,1.0
15:42:49.442502,174967.5,168673.515625,158639.28125,199147.96875,160549.640625,162960.40625,687170.6875,158580.890625,-0.08203125,0.9970703125,-0.14111328125,-0.8544921278953552,0.5493163466453552,0.5187987685203552,100.0,214233.0,1.0
15:42:49.444516,174965.171875,168670.65625,158634.1875,199140.28125,160543.828125,162959.25,687098.4375,158575.0,-0.08251953125,0.999267578125,-0.141845703125,-0.7629393935203552,0.5187987685203552,0.4882812201976776,100.0,214234.0,1.0
15:42:49.448182,175049.75,168686.65625,158651.34375,199148.15625,160555.890625,162976.59375,687116.25,158578.125,-0.082275390625,1.00048828125,-0.14208984375,-0.7324218153953552,0.5187987685203552,0.5187987685203552,100.0,214235.0,1.0
15:42:49.475765,175008.625,168693.265625,158656.796875,199136.96875,160558.21875,162984.09375,687100.1875,158575.171875,-0.08203125,0.99951171875,-0.14404296875,-0.7019042372703552,0.4577636420726776,0.4882812201976776,100.0,214236.0,1.0
15:42:49.503248,174970.71875,168673.15625,158642.765625,199146.71875,160550.4375,162961.65625,687175.625,158585.28125,-0.080322265625,0.997802734375,-0.1435546875,-0.7019042372703552,0.4272460639476776,0.5187987685203552,100.0,214237.0,1.0
15:42:49.505652,174956.140625,168663.234375,158634.359375,199151.28125,160544.359375,162952.453125,687122.8125,158586.796875,-0.082275390625,1.000732421875,-0.144287109375,-0.6713866591453552,0.4882812201976776,0.5798339247703552,100.0,214238.0,1.0
15:42:49.508158,175041.53125,168675.5625,158645.625,199154.40625,160552.234375,162966.390625,687096.9375,158585.546875,-0.082763671875,1.00048828125,-0.144287109375,-0.6103515028953552,0.4882812201976776,0.5493163466453552,100.0,214239.0,1.0
15:42:49.510625,175013.546875,168681.65625,158648.9375,199136.0,160552.140625,162972.03125,687094.25,158576.34375,-0.085205078125,1.000244140625,-0.14306640625,-0.6103515028953552,0.4577636420726776,0.4882812201976776,100.0,214240.0,1.0
15:42:49.513145,174968.125,168667.515625,158637.484375,199138.5,160546.6875,162955.671875,687146.3125,158581.4375,-0.08642578125,1.001953125,-0.141357421875,-0.7324218153953552,0.3356933295726776,0.3967284858226776,100.0,214241.0,1.0
15:42:49.515674,174942.375,168655.984375,158626.140625,199143.859375,160539.53125,162944.84375,687142.375,158582.5,-0.087890625,1.001953125,-0.142822265625,-0.7324218153953552,0.2746581733226776,0.2441406100988388,100.0,214242.0,1.0
15:42:49.518171,175019.171875,168667.515625,158635.34375,199148.859375,160544.546875,162958.53125,687094.1875,158584.109375,-0.087890625,1.000732421875,-0.142822265625,-0.7934569716453552,0.1831054538488388,0.2441406100988388,100.0,214243.0,1.0
15:42:49.520877,175019.984375,168679.59375,158644.734375,199144.578125,160549.28125,162971.140625,687101.25,158579.109375,-0.08740234375,1.001220703125,-0.141845703125,-0.7934569716453552,0.03051757626235485,0.2136230319738388,100.0,214244.0,1.0
15:42:49.523347,174968.5625,168669.9375,158636.59375,199135.1875,160544.71875,162961.296875,687115.75,158577.046875,-0.0888671875,1.001220703125,-0.141357421875,-0.8239745497703552,0.0610351525247097,0.1220703050494194,100.0,214245.0,1.0
15:42:49.525668,174939.609375,168654.296875,158624.609375,199141.0,160538.1875,162946.734375,687152.5,158582.0625,-0.08935546875,1.00048828125,-0.141845703125,-0.8239745497703552,-0.0610351525247097,0.0610351525247097,100.0,214246.0,1.0
15:42:49.528464,175003.171875,168665.90625,158635.171875,199151.1875,160545.796875,162960.234375,687088.4375,158584.203125,-0.08740234375,0.999755859375,-0.142333984375,-0.9155272841453552,-0.0610351525247097,0.2441406100988388,100.0,214247.0,1.0
15:42:49.530680,175034.015625,168682.71875,158648.75,199146.0,160554.109375,162976.59375,687116.875,158578.84375,-0.087158203125,0.999267578125,-0.140869140625,-0.9765624403953552,-0.0610351525247097,0.3356933295726776,100.0,214248.0,1.0
15:42:49.533236,174980.640625,168680.84375,158645.359375,199138.671875,160551.875,162972.484375,687117.125,158578.84375,-0.0849609375,1.000732421875,-0.142578125,-1.0375975370407104,-0.1220703050494194,0.3662109076976776,100.0,214249.0,1.0
15:42:49.536356,174950.78125,168662.0625,158630.515625,199145.640625,160542.75,162951.90625,687181.4375,158581.796875,-0.08349609375,1.0,-0.141357421875,-1.1596678495407104,-0.2746581733226776,0.5798339247703552,100.0,214250.0,1.0
15:42:49.536427,174996.375,168676.28125,158640.078125,199151.453125,160550.984375,162968.0,687092.1875,158584.109375,-0.083740234375,0.999267578125,-0.141845703125,-1.1596678495407104,-0.1831054538488388,0.6713866591453552,100.0,214251.0,1.0
15:42:49.538777,175048.5,168691.578125,158650.8125,199141.359375,160557.5,162984.640625,687117.9375,158576.421875,-0.081298828125,0.998291015625,-0.14306640625,-1.1291502714157104,-0.2136230319738388,0.7324218153953552,100.0,214252.0,1.0
15:42:49.538840,174989.40625,168689.875,158646.78125,199129.90625,160552.859375,162982.21875,687098.5625,158573.125,-0.0810546875,1.000732421875,-0.14453125,-1.0986326932907104,-0.2136230319738388,0.7934569716453552,100.0,214253.0,1.0
15:42:49.541303,174957.9375,168668.59375,158631.671875,199146.359375,160543.5625,162958.625,687186.0,158581.515625,-0.079833984375,1.00244140625,-0.143798828125,-1.0986326932907104,-0.0915527269244194,0.9460448622703552,100.0,214254.0,1.0
15:42:49.541360,174977.515625,168674.234375,158633.828125,199147.34375,160544.453125,162965.421875,687090.75,158580.265625,-0.0791015625,1.0029296875,-0.14453125,-1.1901854276657104,-0.1220703050494194,1.1596678495407104,100.0,214255.0,1.0
15:42:49.547090,175049.125,168687.90625,158646.96875,199145.015625,160552.234375,162979.453125,687115.25,158575.625,-0.08251953125,1.00048828125,-0.140869140625,-1.2207030057907104,-0.1220703050494194,1.2512205839157104,100.0,214256.0,1.0
15:42:49.550085,174997.984375,168692.734375,158650.984375,199137.6875,160553.578125,162984.015625,687088.8125,158574.375,-0.081298828125,1.000244140625,-0.144287109375,-1.2207030057907104,-0.0610351525247097,1.1596678495407104,100.0,214257.0,1.0
15:42:49.550146,174965.984375,168673.6875,158637.84375,199146.8125,160547.21875,162964.15625,687168.1875,158581.515625,-0.082275390625,1.000244140625,-0.143310546875,-1.3122557401657104,-0.03051757626235485,1.2512205839157104,100.0,214258.0,1.0
15:42:49.559458,174966.875,168672.703125,158638.65625,199157.546875,160546.59375,162964.34375,687092.5,158590.90625,-0.081787109375,1.000244140625,-0.143798828125,-1.2817381620407104,0.0610351525247097,1.1596678495407104,100.0,214259.0,1.0
15:42:49.564955,175047.15625,168682.546875,158644.28125,199146.71875,160548.46875,162974.4375,687102.9375,158578.484375,-0.08203125,1.0,-0.14111328125,-1.2817381620407104,0.0915527269244194,1.1901854276657104,100.0,214260.0,1.0
15:42:49.564970,175004.421875,168688.359375,158645.453125,199128.484375,160546.328125,162978.828125,687090.5,158566.046875,-0.080322265625,0.99853515625,-0.139892578125,-1.3122557401657104,0.0610351525247097,1.0375975370407104,100.0,214261.0,1.0
15:42:49.564973,174968.65625,168673.0625,158636.953125,199146.28125,160544.09375,162961.921875,687191.4375,158581.703125,-0.078857421875,0.995849609375,-0.1416015625,-1.3122557401657104,0.0915527269244194,0.9460448622703552,100.0,214262.0,1.0
15:42:49.564975,174954.53125,168666.546875,158632.65625,199156.828125,160544.0,162958.265625,687122.0,158589.5625,-0.0791015625,0.998046875,-0.142333984375,-1.3122557401657104,0.0915527269244194,0.9155272841453552,100.0,214263.0,1.0
15:42:49.567685,175039.828125,168679.5,158642.40625,199151.28125,160550.984375,162973.28125,687101.5,158585.28125,-0.07763671875,0.996337890625,-0.145751953125,-1.3732908964157104,0.1831054538488388,0.7934569716453552,100.0,214264.0,1.0
15:42:49.567690,175010.6875,168684.0625,158642.859375,199127.140625,160547.046875,162977.84375,687098.0,158564.359375,-0.078857421875,0.996826171875,-0.14501953125,-1.3732908964157104,0.2746581733226776,0.7324218153953552,100.0,214265.0,1.0
15:42:49.574428,174964.015625,168669.9375,158633.828125,199134.828125,160543.015625,162962.640625,687138.875,158574.546875,-0.07958984375,0.996337890625,-0.142578125,-1.4038084745407104,0.3662109076976776,0.6408690810203552,100.0,214266.0,1.0
15:42:49.583744,174940.5,168658.140625,158623.90625,199142.515625,160536.3125,162951.46875,687143.25,158578.484375,-0.075927734375,0.9951171875,-0.1396484375,-1.4038084745407104,0.2136230319738388,0.5798339247703552,100.0,214267.0,1.0
15:42:49.583755,175020.15625,168672.171875,158635.609375,199146.453125,160544.8125,162966.484375,687093.625,158579.015625,-0.078369140625,0.9951171875,-0.13916015625,-1.4343260526657104,0.2746581733226776,0.5187987685203552,100.0,214268.0,1.0
15:42:49.585613,175023.28125,168683.34375,158644.546875,199138.5,160550.078125,162978.28125,687101.625,158572.9375,-0.07763671875,0.994140625,-0.14111328125,-1.4038084745407104,0.3662109076976776,0.4577636420726776,100.0,214269.0,1.0
15:42:49.596338,174969.734375,168673.421875,158638.03125,199140.28125,160546.328125,162966.9375,687122.9375,158577.953125,-0.077392578125,0.995849609375,-0.141845703125,-1.4343260526657104,0.4272460639476776,0.3662109076976776,100.0,214270.0,1.0
15:42:49.596356,174943.890625,168659.75,158628.546875,199147.796875,160542.65625,162951.375,687161.5625,158583.9375,-0.07666015625,0.9931640625,-0.14306640625,-1.2817381620407104,0.5493163466453552,0.3662109076976776,100.0,214271.0,1.0
15:42:49.598716,175008.359375,168672.078125,158640.0,199146.09375,160552.046875,162967.109375,687080.75,158582.140625,-0.07958984375,0.994140625,-0.143310546875,-1.2512205839157104,0.5798339247703552,0.3662109076976776,100.0,214272.0,1.0
15:42:49.598732,175039.921875,168684.875,158650.90625,199143.6875,160558.671875,162980.796875,687100.8125,158577.765625,-0.07861328125,0.993896484375,-0.14404296875,-1.1291502714157104,0.6713866591453552,0.4272460639476776,100.0,214273.0,1.0
15:42:49.610705,174978.046875,168678.609375,158642.765625,199132.859375,160552.859375,162973.90625,687115.75,158577.5,-0.08056640625,0.9951171875,-0.144775390625,-1.0375975370407104,0.6713866591453552,0.2746581733226776,100.0,214274.0,1.0
15:42:49.618141,174943.453125,168660.109375,158627.296875,199142.078125,160541.40625,162953.25,687182.6875,158580.71875,-0.08154296875,0.995361328125,-0.145263671875,-1.0986326932907104,0.7324218153953552,0.3051757514476776,100.0,214275.0,1.0
15:42:49.618150,174982.34375,168666.546875,158629.71875,199139.296875,160541.234375,162959.78125,687082.625,158575.4375,-0.08203125,0.99462890625,-0.146728515625,-0.9765624403953552,0.6713866591453552,0.3967284858226776,100.0,214276.0,1.0
15:42:49.618152,175043.21875,168684.421875,158645.890625,199144.3125,160552.671875,162976.046875,687120.9375,158577.5,-0.082275390625,0.995361328125,-0.1455078125,-0.8544921278953552,0.6103515028953552,0.3967284858226776,100.0,214277.0,1.0
15:42:49.620651,174985.203125,168685.765625,158645.8125,199131.796875,160553.390625,162976.953125,687092.6875,158573.5625,-0.0830078125,0.996826171875,-0.14794921875,-0.8239745497703552,0.7019042372703552,0.4272460639476776,100.0,214278.0,1.0
15:42:49.624492,174952.65625,168662.0625,158629.265625,199144.21875,160543.5625,162951.5625,687181.4375,158581.078125,-0.083251953125,0.996826171875,-0.1455078125,-0.7324218153953552,0.6408690810203552,0.3662109076976776,100.0,214279.0,1.0
15:42:49.630609,174969.640625,168662.96875,158629.71875,199147.890625,160541.953125,162954.0625,687088.1875,158581.875,-0.0830078125,0.99609375,-0.144775390625,-0.8239745497703552,0.7019042372703552,0.3356933295726776,100.0,214280.0,1.0
15:42:49.641312,175043.046875,168676.203125,158641.421875,199144.03125,160549.8125,162967.828125,687125.5625,158574.8125,-0.087158203125,0.997314453125,-0.147216796875,-0.9155272841453552,0.5493163466453552,0.3662109076976776,100.0,214281.0,1.0
15:42:49.641321,174990.109375,168682.359375,158643.390625,199128.125,160550.703125,162974.625,687092.125,158569.265625,-0.087158203125,0.998046875,-0.145751953125,-0.8239745497703552,0.4272460639476776,0.4272460639476776,100.0,214282.0,1.0
15:42:49.643701,174954.078125,168661.53125,158628.28125,199141.453125,160540.78125,162951.28125,687173.5625,158577.859375,-0.086669921875,1.001220703125,-0.145263671875,-0.7629393935203552,0.3662109076976776,0.3356933295726776,100.0,214283.0,1.0
15:42:49.643705,174949.609375,168654.296875,158619.703125,199139.21875,160530.234375,162944.671875,687102.5,158569.359375,-0.08740234375,1.000244140625,-0.144775390625,-0.7019042372703552,0.3356933295726776,0.3662109076976776,100.0,214284.0,1.0
15:42:49.662555,175036.34375,168667.171875,158631.953125,199142.875,160537.484375,162958.265625,687112.0,158567.84375,-0.086181640625,1.0009765625,-0.142333984375,-0.7934569716453552,0.2746581733226776,0.3356933295726776,100.0,214285.0,1.0
15:42:49.662568,174997.453125,168676.28125,158638.828125,199128.75,160541.234375,162968.28125,687093.9375,158562.296875,-0.085693359375,0.99951171875,-0.140380859375,-0.7324218153953552,0.2441406100988388,0.2746581733226776,100.0,214286.0,1.0
15:42:49.664994,174955.96875,168657.6875,158623.71875,199130.265625,160534.171875,162948.421875,687150.75,158567.9375,-0.086669921875,0.99951171875,-0.142822265625,-0.7934569716453552,0.1831054538488388,0.4272460639476776,100.0,214287.0,1.0
15:42:49.665002,174945.59375,168654.109375,158623.28125,199149.5,160535.59375,162945.390625,687118.9375,158582.234375,-0.0888671875,1.0,-0.143310546875,-0.9155272841453552,0.1220703050494194,0.3967284858226776,100.0,214288.0,1.0
15:42:49.676249,175026.328125,168666.453125,158632.65625,199139.84375,160541.5,162958.796875,687102.875,158573.46875,-0.086181640625,1.00048828125,-0.144287109375,-0.9765624403953552,-0.03051757626235485,0.3662109076976776,100.0,214289.0,1.0
15:42:49.676259,175003.078125,168672.4375,158634.265625,199122.046875,160539.0,162964.609375,687097.125,158560.0625,-0.085693359375,1.000732421875,-0.145263671875,-0.9765624403953552,-0.03051757626235485,0.4272460639476776,100.0,214290.0,1.0
15:42:49.684362,174959.453125,168659.203125,158626.046875,199133.125,160533.71875,162948.96875,687134.3125,158570.53125,-0.08251953125,1.0009765625,-0.146728515625,-0.8850097060203552,-0.2136230319738388,0.3967284858226776,100.0,214291.0,1.0
15:42:49.684372,174936.390625,168649.640625,158619.25,199143.859375,160530.5,162940.203125,687144.625,158576.875,-0.082763671875,1.0,-0.146484375,-0.9765624403953552,-0.1831054538488388,0.3967284858226776,100.0,214292.0,1.0
15:42:49.684373,175011.21875,168662.0625,158627.921875,199138.765625,160536.765625,162955.765625,687092.5,158569.625,-0.0830078125,1.00146484375,-0.146484375,-1.0070799589157104,-0.2441406100988388,0.3662109076976776,100.0,214293.0,1.0
15:42:49.687516,175021.046875,168676.90625,158639.90625,199132.78125,160543.46875,162970.875,687103.0,158564.4375,-0.080322265625,1.000732421875,-0.1484375,-1.0070799589157104,-0.2136230319738388,0.4882812201976776,100.0,214294.0,1.0
15:42:49.687536,174971.078125,168669.9375,158635.609375,199136.265625,160541.234375,162962.375,687120.125,158569.1875,-0.079833984375,1.000244140625,-0.14599609375,-1.0375975370407104,-0.2441406100988388,0.4272460639476776,100.0,214295.0,1.0
15:42:49.689380,174944.4375,168654.015625,158624.96875,199148.859375,160534.625,162944.5,687161.25,158576.6875,-0.078857421875,0.998779296875,-0.145263671875,-0.9765624403953552,-0.1831054538488388,0.5493163466453552,100.0,214296.0,1.0
15:42:49.700692,175004.6875,168665.203125,158635.96875,199154.5,160542.65625,162958.0,687079.0625,158578.484375,-0.07958984375,1.0,-0.145751953125,-1.0681151151657104,-0.1831054538488388,0.5187987685203552,100.0,214297.0,1.0
15:42:49.707480,175041.34375,168681.296875,158648.9375,199149.5,160552.046875,162974.265625,687097.1875,158574.734375,-0.081787109375,1.000244140625,-0.146240234375,-1.1596678495407104,-0.2746581733226776,0.5493163466453552,100.0,214298.0,1.0
15:42:49.707489,174986.8125,168679.765625,158646.78125,199144.84375,160552.40625,162971.140625,687090.0625,158579.46875,-0.083740234375,0.9990234375,-0.144287109375,-1.1901854276657104,-0.1525878757238388,0.5187987685203552,100.0,214299.0,1.0
15:42:49.709950,174959.09375,168662.421875,158635.34375,199158.078125,160546.953125,162952.359375,687169.1875,158589.03125,-0.084716796875,0.998046875,-0.14599609375,-1.2512205839157104,-0.1831054538488388,0.3356933295726776,100.0,214300.0,1.0
15:42:49.709954,174993.421875,168669.046875,158638.03125,199153.421875,160548.65625,162961.5625,687074.6875,158581.875,-0.08544921875,0.998779296875,-0.1494140625,-1.2512205839157104,-0.1831054538488388,0.1525878757238388,100.0,214301.0,1.0
15:42:49.718150,175051.71875,168684.875,158651.609375,199153.421875,160557.953125,162977.125,687106.625,158580.1875,-0.088134765625,0.99755859375,-0.1474609375,-1.2512205839157104,-0.2136230319738388,-0.0915527269244194,100.0,214302.0,1.0
15:42:49.745665,174998.875,168690.40625,158657.875,199160.21875,160563.578125,162980.96875,687096.6875,158592.875,-0.08642578125,0.998046875,-0.146484375,-1.2817381620407104,-0.2746581733226776,-0.2746581733226776,100.0,214303.0,1.0
15:42:49.745679,174969.46875,168669.484375,158644.015625,199166.296875,160554.640625,162957.375,687192.0,158594.21875,-0.085693359375,0.99755859375,-0.143798828125,-1.3122557401657104,-0.2441406100988388,-0.2441406100988388,100.0,214304.0,1.0
15:42:49.745681,174980.109375,168668.421875,158640.4375,199154.40625,160550.703125,162958.4375,687080.25,158582.421875,-0.083740234375,0.999267578125,-0.14404296875,-1.4038084745407104,-0.3662109076976776,-0.3356933295726776,100.0,214305.0,1.0
15:42:49.748131,175060.921875,168686.65625,158656.890625,199160.84375,160562.15625,162978.109375,687103.3125,158584.375,-0.08203125,1.002685546875,-0.145263671875,-1.4953612089157104,-0.3662109076976776,-0.3356933295726776,100.0,214306.0,1.0
15:42:49.753164,175009.515625,168693.71875,158659.21875,199148.328125,160562.25,162985.171875,687096.125,158579.734375,-0.0830078125,1.00341796875,-0.1435546875,-1.4343260526657104,-0.4272460639476776,-0.3967284858226776,100.0,214307.0,1.0
15:42:49.755630,174981.0,168679.0625,158652.0625,199170.40625,160561.4375,162969.265625,687190.4375,158599.671875,-0.0849609375,1.001708984375,-0.141357421875,-1.4038084745407104,-0.3356933295726776,-0.4272460639476776,100.0,214308.0,1.0
15:42:49.758162,174970.625,168671.453125,158643.921875,199159.59375,160553.578125,162964.703125,687097.9375,158589.484375,-0.083251953125,1.001953125,-0.143310546875,-1.5563963651657104,-0.3051757514476776,-0.4272460639476776,100.0,214309.0,1.0
15:42:49.760619,175053.328125,168682.90625,158652.78125,199159.328125,160559.390625,162976.046875,687101.5,158583.21875,-0.0830078125,1.001708984375,-0.141845703125,-1.6174315214157104,-0.2136230319738388,-0.2746581733226776,100.0,214310.0,1.0
15:42:49.763832,175015.59375,168690.953125,158655.109375,199141.625,160558.125,162983.203125,687091.5625,158573.921875,-0.082275390625,1.0,-0.14404296875,-1.6479490995407104,-0.3051757514476776,-0.0915527269244194,100.0,214311.0,1.0
15:42:49.763844,174970.453125,168671.1875,158638.921875,199144.75,160546.421875,162960.859375,687171.3125,158579.015625,-0.082275390625,1.00048828125,-0.147216796875,-1.6479490995407104,-0.2441406100988388,0.03051757626235485,100.0,214312.0,1.0
15:42:49.770504,174951.671875,168659.75,158631.5,199152.078125,160539.984375,162949.859375,687121.5625,158583.21875,-0.08251953125,1.000244140625,-0.14697265625,-1.8615721464157104,-0.2441406100988388,0.0610351525247097,100.0,214313.0,1.0
15:42:49.770530,175034.109375,168670.828125,158642.59375,199154.40625,160548.65625,162963.09375,687093.4375,158583.125,-0.082763671875,1.00048828125,-0.14697265625,-1.8310545682907104,-0.2746581733226776,0.1525878757238388,100.0,214314.0,1.0
15:42:49.770535,175017.03125,168683.171875,158651.609375,199145.734375,160555.453125,162976.5,687092.3125,158579.109375,-0.083740234375,0.999755859375,-0.146728515625,-1.9226073026657104,-0.2746581733226776,0.0915527269244194,100.0,214315.0,1.0
15:42:49.775666,174975.8125,168674.671875,158643.21875,199151.90625,160550.890625,162963.890625,687142.375,158585.015625,-0.08544921875,1.000244140625,-0.145751953125,-1.9836424589157104,-0.3356933295726776,0.1525878757238388,100.0,214316.0,1.0
15:42:49.786350,174949.609375,168661.171875,158631.328125,199157.984375,160540.875,162948.15625,687137.6875,158585.015625,-0.0859375,0.998046875,-0.14404296875,-1.9836424589157104,-0.3356933295726776,0.2746581733226776,100.0,214317.0,1.0
15:42:49.786435,175025.703125,168673.953125,158642.765625,199160.125,160547.671875,162961.921875,687093.375,158587.0625,-0.085693359375,0.99853515625,-0.145263671875,-1.9531248807907104,-0.3356933295726776,0.2746581733226776,100.0,214318.0,1.0
15:42:49.788792,175031.6875,168685.140625,158649.65625,199144.75,160550.796875,162972.828125,687109.5625,158575.625,-0.08447265625,0.998291015625,-0.146484375,-1.9531248807907104,-0.3662109076976776,0.3051757514476776,100.0,214319.0,1.0
15:42:49.788869,174979.828125,168679.0625,158645.359375,199144.75,160548.65625,162964.4375,687120.3125,158581.4375,-0.084716796875,1.00048828125,-0.146240234375,-2.014159917831421,-0.3967284858226776,0.3662109076976776,100.0,214320.0,1.0
15:42:49.791026,174952.65625,168662.78125,158633.28125,199156.015625,160542.84375,162948.15625,687162.8125,158585.28125,-0.083984375,0.99951171875,-0.146728515625,-2.014159917831421,-0.3662109076976776,0.3967284858226776,100.0,214321.0,1.0
15:42:49.806360,175009.96875,168673.953125,158643.125,199163.984375,160550.703125,162961.75,687075.9375,158590.375,-0.083740234375,0.999755859375,-0.145751953125,-2.136230230331421,-0.3356933295726776,0.3356933295726776,100.0,214322.0,1.0
15:42:49.806443,175043.140625,168683.53125,158650.1875,199151.28125,160554.46875,162972.484375,687100.625,158581.078125,-0.084228515625,0.999755859375,-0.144287109375,-2.258300542831421,-0.3967284858226776,0.2746581733226776,100.0,214323.0,1.0
15:42:49.808223,174987.96875,168684.421875,158649.921875,199147.53125,160555.984375,162973.1875,687090.5,158583.046875,-0.082275390625,1.0,-0.144775390625,-2.380370855331421,-0.3356933295726776,0.2441406100988388,100.0,214324.0,1.0
15:42:49.810700,174961.6875,168670.109375,158639.71875,199159.6875,160551.875,162958.0,687171.875,158592.15625,-0.08251953125,1.00146484375,-0.14404296875,-2.441406011581421,-0.3051757514476776,0.3662109076976776,100.0,214325.0,1.0
15:42:49.814395,174999.765625,168681.375,158649.5625,199165.671875,160559.828125,162971.3125,687076.5,158596.625,-0.08203125,1.001708984375,-0.14599609375,-2.502441167831421,-0.2136230319738388,0.4577636420726776,100.0,214326.0,1.0
15:42:49.864520,175061.828125,168699.078125,158665.390625,199167.28125,160571.71875,162990.359375,687112.0,158596.1875,-0.082275390625,1.001220703125,-0.143310546875,-2.593993902206421,-0.1220703050494194,0.3051757514476776,100.0,214327.0,1.0
15:42:49.868127,175006.484375,168703.546875,158667.0,199160.578125,160571.453125,162993.75,687087.5625,158594.21875,-0.080322265625,0.998046875,-0.145263671875,-2.716064214706421,-0.1525878757238388,0.3356933295726776,100.0,214328.0,1.0
15:42:49.868200,174976.96875,168683.34375,158652.59375,199169.34375,160563.140625,162972.203125,687173.3125,158600.296875,-0.0791015625,0.996337890625,-0.1416015625,-2.655029058456421,-0.03051757626235485,0.2136230319738388,100.0,214329.0,1.0
15:42:49.868228,174986.0,168681.203125,158650.640625,199171.9375,160559.828125,162971.3125,687084.0,158597.609375,-0.080078125,0.996337890625,-0.144287109375,-2.563476324081421,-0.03051757626235485,0.2136230319738388,100.0,214330.0,1.0
15:42:49.870875,175062.265625,168691.125,158660.109375,199165.140625,160565.375,162980.875,687121.4375,158589.65625,-0.08203125,0.99609375,-0.143798828125,-2.624511480331421,0.0610351525247097,0.2441406100988388,100.0,214331.0,1.0
15:42:49.873435,175005.140625,168688.265625,158657.703125,199145.109375,160560.640625,162979.625,687085.125,158579.640625,-0.08056640625,0.9970703125,-0.144775390625,-2.624511480331421,0.1831054538488388,0.2746581733226776,100.0,214332.0,1.0
15:42:49.875699,174971.78125,168669.046875,158645.453125,199161.828125,160555.09375,162958.796875,687174.125,158593.953125,-0.08154296875,0.9970703125,-0.14208984375,-2.624511480331421,0.3051757514476776,0.3051757514476776,100.0,214333.0,1.0
15:42:49.878264,174966.875,168666.09375,158640.890625,199169.15625,160551.78125,162956.390625,687109.625,158598.78125,-0.08203125,0.995361328125,-0.1435546875,-2.563476324081421,0.2441406100988388,0.2136230319738388,100.0,214334.0,1.0
15:42:49.880740,175055.734375,168683.796875,158656.171875,199173.09375,160563.234375,162974.984375,687122.8125,158597.609375,-0.083740234375,0.995361328125,-0.142822265625,-2.685546636581421,0.2136230319738388,0.1220703050494194,100.0,214335.0,1.0
15:42:49.884288,175018.640625,168693.8125,158661.984375,199150.296875,160565.375,162985.890625,687101.0,158585.984375,-0.084228515625,0.995361328125,-0.14306640625,-2.563476324081421,0.2746581733226776,0.1220703050494194,100.0,214336.0,1.0
15:42:49.885696,174980.90625,168677.8125,158651.4375,199165.765625,160560.09375,162967.5625,687145.3125,158600.03125,-0.0849609375,0.995849609375,-0.139892578125,-2.532958745956421,0.4272460639476776,0.1220703050494194,100.0,214337.0,1.0
15:42:49.888268,174964.015625,168669.9375,158645.171875,199171.578125,160554.734375,162959.15625,687131.0,158603.421875,-0.085693359375,0.995361328125,-0.1396484375,-2.624511480331421,0.4882812201976776,0.03051757626235485,100.0,214338.0,1.0
15:42:49.891189,175046.71875,168683.078125,158655.640625,199165.140625,160561.265625,162973.8125,687097.3125,158593.953125,-0.0859375,0.994873046875,-0.14208984375,-2.441406011581421,0.4577636420726776,0.0610351525247097,100.0,214339.0,1.0
15:42:49.893464,175029.71875,168691.65625,158661.09375,199149.21875,160564.125,162983.921875,687092.375,158584.375,-0.085693359375,0.996337890625,-0.142333984375,-2.380370855331421,0.4272460639476776,0.1831054538488388,100.0,214340.0,1.0
15:42:49.895660,174980.734375,168678.25,158651.96875,199160.21875,160560.28125,162970.421875,687126.375,158596.984375,-0.088134765625,0.996337890625,-0.1416015625,-2.380370855331421,0.3662109076976776,0.2441406100988388,100.0,214341.0,1.0
15:42:49.898262,174953.453125,168662.78125,158639.90625,199170.59375,160550.4375,162954.59375,687150.6875,158601.109375,-0.088134765625,0.996337890625,-0.141845703125,-2.319335699081421,0.4272460639476776,0.3662109076976776,100.0,214342.0,1.0
15:42:49.901307,175021.140625,168669.3125,158642.140625,199157.09375,160549.28125,162961.125,687085.25,158585.09375,-0.08740234375,0.997314453125,-0.14208984375,-2.349853277206421,0.3662109076976776,0.3662109076976776,100.0,214343.0,1.0
15:42:49.901314,175033.65625,168680.21875,158648.484375,199140.546875,160551.15625,162970.875,687091.3125,158572.3125,-0.08837890625,0.997314453125,-0.14404296875,-2.319335699081421,0.2136230319738388,0.4882812201976776,100.0,214344.0,1.0
15:42:49.903319,174985.109375,168677.625,158646.609375,199145.015625,160551.421875,162967.109375,687104.125,158579.640625,-0.090576171875,0.998291015625,-0.14306640625,-2.227782964706421,0.2746581733226776,0.4577636420726776,100.0,214345.0,1.0
15:42:49.906295,174959.09375,168663.046875,158637.140625,199162.1875,160546.859375,162951.640625,687170.5,158587.328125,-0.088134765625,0.99658203125,-0.141357421875,-2.227782964706421,0.3662109076976776,0.5493163466453552,100.0,214346.0,1.0
15:42:49.906305,175010.046875,168673.0625,158644.109375,199161.921875,160551.515625,162963.359375,687074.0,158587.515625,-0.088134765625,0.999267578125,-0.141845703125,-2.258300542831421,0.3051757514476776,0.4882812201976776,100.0,214347.0,1.0
15:42:49.908967,175050.46875,168687.28125,158656.0,199158.515625,160558.3125,162977.125,687094.5625,158583.671875,-0.090087890625,0.998291015625,-0.1435546875,-2.227782964706421,0.2746581733226776,0.6103515028953552,100.0,214348.0,1.0
15:42:49.909015,174987.875,168680.484375,158647.5,199144.578125,160549.375,162969.265625,687090.4375,158573.65625,-0.0908203125,0.996826171875,-0.1416015625,-2.166747808456421,0.1220703050494194,0.7019042372703552,100.0,214349.0,1.0
15:42:49.910750,174955.875,168656.96875,158631.40625,199154.859375,160538.640625,162945.203125,687174.375,158578.65625,-0.09130859375,0.9970703125,-0.13916015625,-2.197265386581421,0.0610351525247097,0.7019042372703552,100.0,214350.0,1.0
15:42:49.914469,174988.59375,168663.953125,158636.859375,199153.25,160542.390625,162954.421875,687076.375,158576.0625,-0.091552734375,0.997802734375,-0.143310546875,-2.075195074081421,0.03051757626235485,0.7324218153953552,100.0,214351.0,1.0
15:42:49.924981,175053.859375,168680.390625,158652.328125,199155.296875,160553.390625,162971.578125,687113.9375,158575.890625,-0.092041015625,0.998046875,-0.141845703125,-2.136230230331421,0.03051757626235485,0.7934569716453552,100.0,214352.0,1.0
15:42:49.924999,174993.6875,168680.9375,158650.984375,199141.265625,160551.15625,162971.765625,687098.125,158570.796875,-0.090576171875,0.998291015625,-0.14111328125,-2.105712652206421,-0.1525878757238388,0.8239745497703552,100.0,214353.0,1.0
15:42:49.927582,174961.328125,168659.65625,158635.796875,199154.59375,160543.015625,162947.890625,687196.125,158578.921875,-0.09326171875,0.99755859375,-0.141357421875,-2.105712652206421,-0.2136230319738388,0.8239745497703552,100.0,214354.0,1.0
15:42:49.927589,174975.453125,168666.359375,158640.890625,199166.03125,160548.03125,162956.5625,687090.625,158586.171875,-0.091064453125,0.997802734375,-0.140869140625,-2.014159917831421,-0.2746581733226776,0.8544921278953552,100.0,214355.0,1.0
15:42:49.944426,175054.84375,168682.546875,158654.125,199161.46875,160556.875,162973.546875,687118.125,158580.890625,-0.091552734375,0.99853515625,-0.14111328125,-2.044677495956421,-0.2136230319738388,0.8850097060203552,100.0,214356.0,1.0
15:42:49.948110,175006.75,168688.171875,158655.734375,199148.328125,160555.359375,162978.28125,687090.875,158573.828125,-0.087646484375,0.997802734375,-0.14208984375,-2.044677495956421,-0.3051757514476776,0.9460448622703552,100.0,214357.0,1.0
15:42:49.948132,174974.921875,168669.9375,158644.109375,199166.21875,160548.828125,162957.015625,687174.5625,158585.359375,-0.086181640625,0.99853515625,-0.1416015625,-2.075195074081421,-0.3662109076976776,1.0375975370407104,100.0,214358.0,1.0
15:42:49.948137,174958.640625,168657.421875,158630.421875,199150.203125,160537.484375,162946.546875,687106.9375,158574.546875,-0.085693359375,0.99951171875,-0.14013671875,-2.105712652206421,-0.4272460639476776,1.0986326932907104,100.0,214359.0,1.0
15:42:49.950683,175043.9375,168671.8125,158643.03125,199151.453125,160547.21875,162962.828125,687105.0625,158574.8125,-0.0849609375,0.999267578125,-0.139892578125,-2.075195074081421,-0.3662109076976776,1.1901854276657104,100.0,214360.0,1.0
15:42:49.953167,175012.296875,168682.28125,158649.46875,199139.390625,160550.265625,162972.921875,687096.875,158566.140625,-0.084228515625,0.998779296875,-0.14208984375,-2.014159917831421,-0.3967284858226776,1.1596678495407104,100.0,214361.0,1.0
15:42:49.959470,174975.984375,168669.40625,158641.875,199153.78125,160548.390625,162958.625,687175.625,158581.34375,-0.0830078125,0.999267578125,-0.140869140625,-1.9531248807907104,-0.2746581733226776,1.2817381620407104,100.0,214362.0,1.0
15:42:49.966299,174958.203125,168662.96875,158638.203125,199169.515625,160547.3125,162953.4375,687140.25,158590.734375,-0.083251953125,0.99951171875,-0.140625,-2.044677495956421,-0.3051757514476776,1.3122557401657104,100.0,214363.0,1.0
15:42:49.966312,175035.890625,168673.515625,158646.078125,199161.65625,160550.4375,162965.859375,687099.5625,158582.421875,-0.082763671875,1.00048828125,-0.141845703125,-2.044677495956421,-0.1831054538488388,1.3427733182907104,100.0,214364.0,1.0
15:42:49.974490,175023.734375,168685.859375,158651.609375,199141.453125,160552.5,162977.578125,687101.6875,158569.90625,-0.085205078125,1.00048828125,-0.13916015625,-2.075195074081421,-0.1831054538488388,1.3427733182907104,100.0,214365.0,1.0
15:42:49.979074,174975.28125,168675.75,158642.671875,199146.09375,160548.921875,162966.484375,687129.25,158579.46875,-0.08251953125,1.0,-0.143310546875,-1.9836424589157104,-0.0610351525247097,1.2817381620407104,100.0,214366.0,1.0
15:42:49.979099,174946.390625,168658.3125,158629.265625,199152.71875,160541.328125,162950.484375,687153.125,158581.703125,-0.08154296875,0.999267578125,-0.13916015625,-1.8615721464157104,-0.03051757626235485,1.1291502714157104,100.0,214367.0,1.0
15:42:50.012523,175014.4375,168669.125,158638.734375,199151.453125,160547.3125,162964.15625,687097.0625,158575.265625,-0.08056640625,0.998046875,-0.140869140625,-1.8615721464157104,-0.0915527269244194,1.1596678495407104,100.0,214368.0,1.0
15:42:50.012549,175028.828125,168680.484375,158645.625,199141.625,160549.734375,162975.15625,687110.8125,158565.96875,-0.080322265625,0.99755859375,-0.140625,-1.9531248807907104,0.1220703050494194,1.2512205839157104,100.0,214369.0,1.0
15:42:50.015848,174971.78125,168669.40625,158633.734375,199134.109375,160539.0,162961.484375,687118.125,158563.90625,-0.080078125,0.99853515625,-0.144287109375,-1.9836424589157104,0.1831054538488388,1.2207030057907104,100.0,214370.0,1.0
15:42:50.015865,174944.515625,168653.390625,158621.84375,199145.015625,160529.796875,162943.234375,687184.75,158569.359375,-0.078857421875,0.996337890625,-0.142822265625,-2.136230230331421,0.3051757514476776,1.1901854276657104,100.0,214371.0,1.0
15:42:50.015868,174995.484375,168663.671875,158630.96875,199148.328125,160537.484375,162956.109375,687082.75,158569.90625,-0.079833984375,0.99658203125,-0.142578125,-2.075195074081421,0.4577636420726776,1.2817381620407104,100.0,214372.0,1.0
15:42:50.020079,175038.578125,168680.84375,158645.890625,199145.203125,160548.921875,162972.828125,687100.625,158566.234375,-0.079345703125,0.9970703125,-0.14453125,-1.9531248807907104,0.4577636420726776,1.2817381620407104,100.0,214373.0,1.0
15:42:50.020092,174979.921875,168678.25,158642.671875,199134.65625,160546.6875,162970.15625,687102.375,158563.28125,-0.07958984375,0.9970703125,-0.14013671875,-2.014159917831421,0.5187987685203552,1.2512205839157104,100.0,214374.0,1.0
15:42:50.020095,174954.984375,168660.015625,158632.390625,199152.0,160540.875,162949.59375,687179.5,158575.890625,-0.080078125,0.99755859375,-0.138671875,-1.9531248807907104,0.5798339247703552,1.0681151151657104,100.0,214375.0,1.0
15:42:50.020097,174985.640625,168666.984375,158637.578125,199153.421875,160543.015625,162957.453125,687081.375,158574.734375,-0.080322265625,0.99609375,-0.139404296875,-1.9531248807907104,0.6713866591453552,1.1291502714157104,100.0,214376.0,1.0
15:42:50.022043,175052.703125,168683.703125,158652.515625,199153.875,160551.515625,162973.375,687103.625,158571.15625,-0.0810546875,0.995849609375,-0.140380859375,-1.9531248807907104,0.7324218153953552,1.1291502714157104,100.0,214377.0,1.0
15:42:50.025176,175000.578125,168690.5,158658.859375,199151.640625,160555.8125,162979.453125,687084.0625,158576.34375,-0.0810546875,0.997314453125,-0.139404296875,-1.9531248807907104,0.7934569716453552,1.0070799589157104,100.0,214378.0,1.0
15:42:50.025194,174970.0,168670.921875,158645.359375,199163.53125,160550.703125,162958.0,687173.9375,158586.078125,-0.08203125,0.99560546875,-0.138916015625,-1.8920897245407104,0.8544921278953552,0.9460448622703552,100.0,214379.0,1.0
15:42:50.027046,174976.078125,168670.390625,158643.84375,199161.734375,160548.75,162958.53125,687085.9375,158583.484375,-0.08056640625,0.99462890625,-0.13671875,-1.8920897245407104,0.8544921278953552,0.9460448622703552,100.0,214380.0,1.0
15:42:50.041970,175059.5,168688.171875,158659.75,199163.4375,160560.8125,162976.046875,687104.1875,158584.203125,-0.08251953125,0.99658203125,-0.13818359375,-1.8920897245407104,0.9155272841453552,0.7934569716453552,100.0,214381.0,1.0
15:42:50.045048,175012.203125,168694.34375,158661.1875,199148.78125,160561.0,162981.5,687088.875,158578.125,-0.0849609375,1.00048828125,-0.137451171875,-1.9531248807907104,0.8850097060203552,0.8850097060203552,100.0,214382.0,1.0
15:42:50.045076,174974.296875,168671.71875,158644.46875,199161.109375,160550.0,162956.46875,687186.6875,158587.0625,-0.084716796875,1.000244140625,-0.13720703125,-1.8920897245407104,1.0070799589157104,0.7934569716453552,100.0,214383.0,1.0
15:42:50.046985,174965.078125,168665.90625,158639.546875,199167.828125,160545.796875,162951.109375,687110.875,158590.1875,-0.083984375,0.997314453125,-0.138671875,-1.8005369901657104,0.9765624403953552,0.7934569716453552,100.0,214384.0,1.0
15:42:50.049573,175048.40625,168678.4375,158650.90625,199161.734375,160554.640625,162966.21875,687097.3125,158581.703125,-0.083984375,0.9970703125,-0.1416015625,-1.9531248807907104,0.9460448622703552,0.8850097060203552,100.0,214385.0,1.0
15:42:50.059551,175013.265625,168687.015625,158654.03125,199141.0,160554.5625,162976.59375,687084.875,158571.78125,-0.085693359375,0.996826171875,-0.14208984375,-2.014159917831421,0.9460448622703552,0.8239745497703552,100.0,214386.0,1.0
15:42:50.062492,174974.03125,168673.25,158643.65625,199152.359375,160548.03125,162962.546875,687153.25,158582.859375,-0.0849609375,0.99853515625,-0.140625,-2.014159917831421,0.8544921278953552,0.7324218153953552,100.0,214387.0,1.0
15:42:50.062497,174956.328125,168664.390625,158635.875,199164.25,160542.390625,162954.953125,687141.625,158589.125,-0.087646484375,0.998779296875,-0.14208984375,-1.9836424589157104,0.8544921278953552,0.7019042372703552,100.0,214388.0,1.0
15:42:50.064427,175039.921875,168679.6875,158648.046875,199165.59375,160551.609375,162971.9375,687095.875,158585.8125,-0.087158203125,0.9990234375,-0.138671875,-2.044677495956421,0.7629393935203552,0.7934569716453552,100.0,214389.0,1.0
15:42:50.074544,175029.09375,168689.609375,158655.90625,199149.046875,160556.25,162983.03125,687096.875,158575.984375,-0.087646484375,1.0,-0.139404296875,-1.9531248807907104,0.6103515028953552,0.9460448622703552,100.0,214390.0,1.0
15:42:50.079796,174976.171875,168677.8125,158646.078125,199146.0,160550.890625,162969.890625,687144.3125,158577.5,-0.08984375,0.99951171875,-0.140625,-1.8310545682907104,0.6713866591453552,0.8850097060203552,100.0,214391.0,1.0
15:42:50.079831,174944.078125,168658.84375,158631.234375,199153.515625,160539.71875,162950.484375,687164.5625,158577.40625,-0.08642578125,1.000732421875,-0.14013671875,-1.9226073026657104,0.7019042372703552,0.8239745497703552,100.0,214392.0,1.0
15:42:50.088471,175011.9375,168669.046875,158639.546875,199159.953125,160544.0,162963.453125,687099.375,158579.109375,-0.087890625,0.99951171875,-0.1396484375,-1.9836424589157104,0.5798339247703552,0.9155272841453552,100.0,214393.0,1.0
15:42:50.088546,175022.921875,168675.125,158639.546875,199134.921875,160539.890625,162969.4375,687117.6875,158560.25,-0.087890625,1.00146484375,-0.14013671875,-1.8920897245407104,0.5493163466453552,1.0681151151657104,100.0,214394.0,1.0
15:42:50.088574,174961.78125,168664.75,158627.921875,199119.984375,160530.0625,162957.546875,687115.75,158553.359375,-0.08740234375,0.999755859375,-0.140380859375,-1.8920897245407104,0.4272460639476776,1.0986326932907104,100.0,214395.0,1.0
15:42:50.098278,174932.359375,168646.953125,158615.046875,199137.78125,160522.8125,162939.390625,687173.6875,158562.921875,-0.086669921875,0.99951171875,-0.140625,-1.9836424589157104,0.3051757514476776,1.1291502714157104,100.0,214396.0,1.0
15:42:50.102746,174979.921875,168652.5,158618.53125,199140.640625,160524.25,162946.640625,687082.9375,158560.875,-0.083740234375,1.000244140625,-0.1396484375,-1.9531248807907104,0.2136230319738388,1.1901854276657104,100.0,214397.0,1.0
15:42:50.102829,175025.515625,168665.46875,158629.265625,199131.875,160529.96875,162958.171875,687105.375,158551.75,-0.083740234375,0.998779296875,-0.139404296875,-1.9531248807907104,0.2746581733226776,1.1901854276657104,100.0,214398.0,1.0
15:42:50.104654,174967.859375,168664.125,158627.125,199121.78125,160528.265625,162955.9375,687103.1875,158550.5,-0.084716796875,0.999755859375,-0.140625,-1.9836424589157104,0.2136230319738388,1.1901854276657104,100.0,214399.0,1.0
15:42:50.117567,174938.34375,168643.296875,158615.5,199138.9375,160522.09375,162934.75,687195.375,158562.203125,-0.083984375,0.997802734375,-0.14013671875,-1.9836424589157104,0.2136230319738388,1.2207030057907104,100.0,214400.0,1.0
15:42:50.117587,174965.171875,168648.84375,158619.96875,199141.625,160525.859375,162942.265625,687093.3125,158564.71875,-0.08349609375,0.998291015625,-0.139892578125,-1.9836424589157104,0.1220703050494194,1.3122557401657104,100.0,214401.0,1.0
15:42:50.119991,175032.765625,168665.109375,158632.75,199140.375,160534.96875,162957.375,687110.0625,158560.6875,-0.08203125,0.99951171875,-0.14111328125,-1.9531248807907104,0.2136230319738388,1.2817381620407104,100.0,214402.0,1.0
15:42:50.120008,174976.890625,168666.984375,158630.703125,199125.53125,160531.484375,162957.90625,687091.6875,158552.375,-0.080322265625,0.99853515625,-0.14208984375,-1.9531248807907104,0.1831054538488388,1.2512205839157104,100.0,214403.0,1.0
15:42:50.129480,174945.234375,168646.875,158617.28125,199140.28125,160523.171875,162935.109375,687176.1875,158563.015625,-0.078857421875,0.998046875,-0.139404296875,-1.8615721464157104,0.1220703050494194,1.2512205839157104,100.0,214404.0,1.0
15:42:50.134042,174950.59375,168647.40625,158615.578125,199141.359375,160520.578125,162936.0,687093.3125,158561.21875,-0.076904296875,1.000244140625,-0.141357421875,-1.8615721464157104,0.2746581733226776,1.1901854276657104,100.0,214405.0,1.0
15:42:50.134069,175036.4375,168666.546875,158631.59375,199143.59375,160533.640625,162955.40625,687099.4375,158560.6875,-0.078857421875,0.99951171875,-0.141845703125,-1.9531248807907104,0.2441406100988388,1.1901854276657104,100.0,214406.0,1.0
15:42:50.140651,174991.546875,168675.03125,158636.953125,199131.609375,160537.65625,162965.328125,687087.9375,158556.9375,-0.076416015625,0.9990234375,-0.140869140625,-1.9531248807907104,0.3662109076976776,1.1901854276657104,100.0,214407.0,1.0
15:42:50.147656,174953.015625,168654.109375,158624.4375,199144.84375,160530.765625,162945.203125,687168.9375,158569.09375,-0.0771484375,0.999267578125,-0.14111328125,-1.8615721464157104,0.3662109076976776,1.0681151151657104,100.0,214408.0,1.0
15:42:50.147671,174943.265625,168651.34375,158621.3125,199144.84375,160529.4375,162944.671875,687105.5625,158569.984375,-0.076904296875,0.997802734375,-0.140869140625,-1.8310545682907104,0.3356933295726776,1.1291502714157104,100.0,214409.0,1.0
15:42:50.150146,175030.53125,168665.46875,158632.9375,199144.3125,160537.296875,162959.25,687103.9375,158567.578125,-0.07568359375,0.99853515625,-0.139892578125,-1.8615721464157104,0.3967284858226776,1.0986326932907104,100.0,214410.0,1.0
15:42:50.150159,175005.046875,168675.65625,158640.984375,199139.5625,160541.5,162969.703125,687093.125,158562.296875,-0.076416015625,0.997802734375,-0.138916015625,-1.8005369901657104,0.4577636420726776,1.0681151151657104,100.0,214411.0,1.0
15:42:50.164544,174962.3125,168662.78125,158630.515625,199142.34375,160536.578125,162954.234375,687157.125,158569.0,-0.07421875,0.995849609375,-0.140625,-1.8005369901657104,0.5798339247703552,1.0986326932907104,100.0,214412.0,1.0
15:42:50.168797,174935.3125,168648.65625,158617.90625,199140.546875,160527.203125,162940.203125,687142.375,158566.5,-0.0732421875,0.9970703125,-0.13916015625,-1.7395018339157104,0.6408690810203552,1.0070799589157104,100.0,214413.0,1.0
15:42:50.168806,175014.703125,168661.984375,158628.90625,199138.765625,160535.421875,162955.046875,687084.1875,158564.71875,-0.073974609375,0.99560546875,-0.13720703125,-1.7089842557907104,0.7324218153953552,0.9155272841453552,100.0,214414.0,1.0
15:42:50.175004,175013.625,168675.125,158639.28125,199131.96875,160541.6875,162969.171875,687087.5625,158559.96875,-0.075439453125,0.993408203125,-0.136474609375,-1.6784666776657104,0.7934569716453552,0.9155272841453552,100.0,214415.0,1.0
15:42:50.175015,174963.390625,168663.953125,158630.609375,199132.859375,160536.40625,162955.84375,687124.3125,158562.921875,-0.074462890625,0.9912109375,-0.135986328125,-1.5869139432907104,0.8850097060203552,0.7629393935203552,100.0,214416.0,1.0
15:42:50.183700,174934.6875,168645.171875,158617.734375,199143.0625,160527.46875,162937.609375,687159.5625,158567.390625,-0.076904296875,0.9912109375,-0.13623046875,-1.5563963651657104,0.8850097060203552,0.8239745497703552,100.0,214417.0,1.0
15:42:50.183708,174998.796875,168654.5625,158624.609375,199138.9375,160531.75,162949.859375,687096.75,158561.765625,-0.077880859375,0.9921875,-0.136962890625,-1.5258787870407104,0.8544921278953552,0.8239745497703552,100.0,214418.0,1.0
15:42:50.232627,175019.796875,168666.265625,158634.359375,199131.796875,160536.859375,162962.46875,687118.9375,158556.125,-0.078369140625,0.993896484375,-0.137451171875,-1.6174315214157104,0.8544921278953552,0.7629393935203552,100.0,214419.0,1.0
15:42:50.232646,174962.21875,168659.921875,158629.0,199127.59375,160533.1875,162954.78125,687102.375,158559.34375,-0.076904296875,0.996337890625,-0.138916015625,-1.5258787870407104,0.9460448622703552,0.6713866591453552,100.0,214420.0,1.0
15:42:50.236215,174931.5625,168640.875,158613.703125,199136.0,160522.90625,162934.21875,687160.9375,158560.421875,-0.0771484375,0.9970703125,-0.14013671875,-1.5563963651657104,1.0375975370407104,0.5798339247703552,100.0,214421.0,1.0
15:42:50.236218,174978.765625,168650.625,158619.96875,199137.25,160526.03125,162944.671875,687083.0625,158558.71875,-0.0810546875,0.998046875,-0.138671875,-1.4953612089157104,0.9460448622703552,0.6103515028953552,100.0,214422.0,1.0
15:42:50.242106,175026.0625,168664.9375,158630.78125,199131.96875,160531.40625,162957.546875,687107.0625,158553.1875,-0.081298828125,0.99853515625,-0.140380859375,-1.4343260526657104,0.9765624403953552,0.6103515028953552,100.0,214423.0,1.0
15:42:50.242112,174965.4375,168661.625,158626.5,199120.609375,160527.46875,162954.15625,687105.375,158550.671875,-0.08154296875,0.99853515625,-0.140625,-1.4343260526657104,0.9765624403953552,0.6103515028953552,100.0,214424.0,1.0
15:42:50.242114,174934.5,168639.453125,158613.171875,199137.953125,160521.109375,162931.265625,687202.0,158563.015625,-0.0830078125,0.998291015625,-0.141845703125,-1.3122557401657104,1.0681151151657104,0.6103515028953552,100.0,214425.0,1.0
15:42:50.242115,174959.0,168644.359375,158616.03125,199136.0,160522.71875,162937.875,687090.875,158560.25,-0.083740234375,0.9970703125,-0.142333984375,-1.3122557401657104,0.9460448622703552,0.5798339247703552,100.0,214426.0,1.0
15:42:50.242116,175033.296875,168663.5,158632.390625,199139.65625,160534.4375,162956.296875,687130.3125,158558.71875,-0.084716796875,0.99951171875,-0.141845703125,-1.3122557401657104,0.9460448622703552,0.5187987685203552,100.0,214427.0,1.0
15:42:50.242118,174987.703125,168675.125,158640.53125,199139.21875,160539.625,162965.953125,687098.75,158562.484375,-0.0859375,1.0,-0.140625,-1.1596678495407104,0.7934569716453552,0.4577636420726776,100.0,214428.0,1.0
15:42:50.244406,174956.046875,168656.609375,158628.375,199145.46875,160533.984375,162946.734375,687178.25,158566.953125,-0.086669921875,1.0,-0.135009765625,-1.1291502714157104,0.7934569716453552,0.4577636420726776,100.0,214429.0,1.0
15:42:50.246900,174957.484375,168659.65625,158628.90625,199145.921875,160535.25,162951.46875,687106.5,158567.3125,-0.086181640625,1.001708984375,-0.138671875,-1.1596678495407104,0.5798339247703552,0.4882812201976776,100.0,214430.0,1.0
15:42:50.249517,175041.078125,168676.90625,158644.109375,199151.109375,160545.703125,162970.25,687127.4375,158568.921875,-0.088623046875,1.004638671875,-0.13671875,-1.1596678495407104,0.5493163466453552,0.3967284858226776,100.0,214431.0,1.0
15:42:50.251884,174994.9375,168680.75,158642.671875,199130.890625,160541.046875,162974.625,687096.3125,158557.109375,-0.0888671875,1.00537109375,-0.13671875,-1.2817381620407104,0.4882812201976776,0.3051757514476776,100.0,214432.0,1.0
15:42:50.254416,174959.09375,168663.59375,158631.671875,199144.75,160536.140625,162956.109375,687159.5625,158569.265625,-0.088134765625,1.00390625,-0.139892578125,-1.3427733182907104,0.3051757514476776,0.3051757514476776,100.0,214433.0,1.0
15:42:50.256885,174942.90625,168656.265625,158625.234375,199148.15625,160531.40625,162951.015625,687109.8125,158568.734375,-0.090576171875,1.003662109375,-0.138671875,-1.3732908964157104,0.2746581733226776,0.2746581733226776,100.0,214434.0,1.0
15:42:50.259420,175029.546875,168670.65625,158638.390625,199150.46875,160540.96875,162967.109375,687093.625,158566.234375,-0.09033203125,1.002197265625,-0.13916015625,-1.4343260526657104,0.03051757626235485,0.2441406100988388,100.0,214435.0,1.0
15:42:50.261911,175003.53125,168679.5,158643.21875,199134.65625,160541.6875,162976.765625,687091.25,158557.109375,-0.089599609375,1.00146484375,-0.13818359375,-1.4953612089157104,-0.0610351525247097,0.1525878757238388,100.0,214436.0,1.0
15:42:50.264498,174957.484375,168662.0625,158630.0625,199138.234375,160533.640625,162958.171875,687154.1875,158564.09375,-0.087890625,1.002197265625,-0.138427734375,-1.6479490995407104,-0.0610351525247097,0.2746581733226776,100.0,214437.0,1.0
15:42:50.267498,174938.078125,168652.765625,158624.4375,199151.015625,160531.046875,162949.140625,687136.4375,158571.421875,-0.086181640625,1.00390625,-0.135498046875,-1.6784666776657104,-0.0610351525247097,0.3356933295726776,100.0,214438.0,1.0
15:42:50.267514,175017.390625,168665.5625,158635.609375,199154.328125,160539.71875,162965.234375,687107.5,158574.375,-0.08349609375,1.005126953125,-0.1357421875,-1.8005369901657104,-0.0915527269244194,0.4272460639476776,100.0,214439.0,1.0
15:42:50.269998,175008.453125,168672.53125,158637.140625,199132.234375,160537.484375,162973.1875,687111.25,158558.640625,-0.082275390625,1.004150390625,-0.137939453125,-1.8615721464157104,-0.1525878757238388,0.5493163466453552,100.0,214440.0,1.0
15:42:50.270018,174952.921875,168656.796875,158623.90625,199127.765625,160527.203125,162955.765625,687126.1875,158557.375,-0.082275390625,1.002197265625,-0.13671875,-1.9226073026657104,-0.1220703050494194,0.6713866591453552,100.0,214441.0,1.0
15:42:50.276960,174922.4375,168638.828125,158609.421875,199136.078125,160518.53125,162937.15625,687166.0,158560.0625,-0.08203125,1.00146484375,-0.137939453125,-1.9836424589157104,-0.2136230319738388,0.8239745497703552,100.0,214442.0,1.0
15:42:50.288813,174989.84375,168651.25,158621.046875,199143.5,160526.578125,162950.75,687093.0,158562.921875,-0.08056640625,1.004638671875,-0.138671875,-1.9836424589157104,-0.1525878757238388,0.9460448622703552,100.0,214443.0,1.0
15:42:50.288834,175013.0,168663.59375,158629.796875,199138.3125,160530.59375,162961.75,687108.125,158558.8125,-0.079345703125,1.004638671875,-0.13916015625,-2.044677495956421,-0.0610351525247097,0.9460448622703552,100.0,214444.0,1.0
15:42:50.291278,174953.375,168659.390625,158623.546875,199122.84375,160525.40625,162955.671875,687106.0,158554.875,-0.079833984375,1.002685546875,-0.14013671875,-2.105712652206421,-0.1525878757238388,1.0375975370407104,100.0,214445.0,1.0
15:42:50.291289,174924.40625,168639.984375,158610.21875,199138.046875,160518.078125,162935.375,687179.125,158562.828125,-0.08251953125,1.0009765625,-0.13818359375,-2.075195074081421,-0.1831054538488388,1.0375975370407104,100.0,214446.0,1.0
15:42:50.298168,174969.375,168646.6875,158615.9375,199141.0,160521.921875,162944.046875,687086.75,158562.75,-0.07958984375,0.99853515625,-0.136474609375,-2.197265386581421,-0.1220703050494194,1.0070799589157104,100.0,214447.0,1.0
15:42:50.301985,175017.125,168657.59375,158625.234375,199131.515625,160526.75,162955.40625,687113.5625,158551.921875,-0.07861328125,0.998291015625,-0.1357421875,-2.197265386581421,0.0,0.9765624403953552,100.0,214448.0,1.0
15:42:50.312499,174958.828125,168658.5,158621.9375,199115.515625,160523.171875,162955.484375,687091.25,158546.203125,-0.079833984375,0.99755859375,-0.139404296875,-2.197265386581421,-0.0610351525247097,1.0375975370407104,100.0,214449.0,1.0
15:42:50.312509,174933.703125,168641.953125,158610.484375,199135.71875,160516.28125,162935.734375,687191.5625,158559.265625,-0.0771484375,0.998046875,-0.138427734375,-2.258300542831421,-0.03051757626235485,0.8850097060203552,100.0,214450.0,1.0
15:42:50.315023,174957.65625,168646.953125,158614.875,199140.28125,160518.609375,162941.90625,687094.0625,158560.78125,-0.076904296875,0.997314453125,-0.138916015625,-2.288818120956421,0.03051757626235485,0.9460448622703552,100.0,214451.0,1.0
15:42:50.315032,175036.4375,168669.484375,158635.609375,199147.4375,160535.953125,162963.984375,687125.125,158562.828125,-0.0751953125,0.99658203125,-0.1396484375,-2.258300542831421,0.1831054538488388,0.9155272841453552,100.0,214452.0,1.0
15:42:50.324478,174983.40625,168678.25,158642.140625,199136.96875,160541.765625,162973.1875,687098.375,158561.21875,-0.07568359375,0.996337890625,-0.140380859375,-2.258300542831421,0.2136230319738388,0.7324218153953552,100.0,214453.0,1.0
15:42:50.329036,174947.921875,168656.265625,158625.78125,199145.640625,160533.015625,162951.015625,687171.1875,158569.625,-0.07470703125,0.997802734375,-0.137451171875,-2.288818120956421,0.3662109076976776,0.8544921278953552,100.0,214454.0,1.0
15:42:50.329087,174949.890625,168655.09375,158623.09375,199147.171875,160531.671875,162952.890625,687092.0625,158568.46875,-0.073974609375,0.997802734375,-0.13916015625,-2.136230230331421,0.4272460639476776,0.7324218153953552,100.0,214455.0,1.0
15:42:50.338329,175037.59375,168670.828125,158638.46875,199151.640625,160542.125,162970.15625,687098.5625,158567.65625,-0.0751953125,0.994140625,-0.13916015625,-2.136230230331421,0.6103515028953552,0.7324218153953552,100.0,214456.0,1.0
15:42:50.342511,174994.59375,168679.140625,158642.046875,199134.46875,160543.109375,162978.734375,687093.0,158559.078125,-0.074462890625,0.992919921875,-0.138916015625,-2.075195074081421,0.6713866591453552,0.6408690810203552,100.0,214457.0,1.0
15:42:50.342527,174957.578125,168662.0625,158630.78125,199146.984375,160538.015625,162958.984375,687184.1875,158570.53125,-0.0771484375,0.992919921875,-0.138427734375,-2.075195074081421,0.7324218153953552,0.6713866591453552,100.0,214458.0,1.0
15:42:50.348294,174940.671875,168652.953125,158622.5625,199148.421875,160531.046875,162951.015625,687113.375,158570.171875,-0.07666015625,0.991943359375,-0.1376953125,-2.014159917831421,0.8850097060203552,0.6713866591453552,100.0,214459.0,1.0
15:42:50.355143,175027.671875,168667.25,158635.703125,199150.5625,160539.171875,162967.203125,687092.75,158568.734375,-0.076904296875,0.9931640625,-0.1376953125,-1.9531248807907104,0.9460448622703552,0.6713866591453552,100.0,214460.0,1.0
15:42:50.355198,175005.234375,168676.203125,158642.671875,199142.421875,160542.484375,162976.234375,687089.375,158565.96875,-0.077392578125,0.993408203125,-0.137939453125,-1.8310545682907104,1.0375975370407104,0.5187987685203552,100.0,214461.0,1.0
15:42:50.357655,174953.453125,168656.609375,158624.53125,199135.1875,160529.609375,162954.15625,687167.375,158561.40625,-0.078369140625,0.99267578125,-0.139892578125,-1.7700194120407104,1.0986326932907104,0.4882812201976776,100.0,214462.0,1.0
15:42:50.358238,174925.46875,168640.703125,158610.75,199138.671875,160518.4375,162937.609375,687151.875,158560.25,-0.080322265625,0.99365234375,-0.139892578125,-1.6174315214157104,1.0375975370407104,0.4272460639476776,100.0,214463.0,1.0
15:42:50.371970,175004.0625,168653.671875,158621.9375,199142.96875,160526.296875,162950.390625,687082.4375,158561.40625,-0.080322265625,0.9951171875,-0.13916015625,-1.5869139432907104,1.0681151151657104,0.5187987685203552,100.0,214464.0,1.0
15:42:50.375077,175004.6875,168666.09375,158630.703125,199131.078125,160531.046875,162961.5625,687089.0625,158553.0,-0.08154296875,0.994873046875,-0.139892578125,-1.6174315214157104,0.9460448622703552,0.6408690810203552,100.0,214465.0,1.0
15:42:50.375089,174952.484375,168654.5625,158621.671875,199130.359375,160525.140625,162948.609375,687143.5,158556.671875,-0.08203125,0.99658203125,-0.13916015625,-1.5258787870407104,1.1291502714157104,0.5798339247703552,100.0,214466.0,1.0
15:42:50.376959,174925.5625,168638.640625,158609.234375,199143.234375,160516.734375,162930.28125,687168.5,158563.8125,-0.083251953125,0.9970703125,-0.13916015625,-1.3732908964157104,1.0070799589157104,0.6408690810203552,100.0,214467.0,1.0
15:42:50.379401,174983.953125,168642.578125,158611.65625,199140.90625,160516.015625,162936.625,687090.4375,158559.171875,-0.083984375,0.99853515625,-0.14306640625,-1.3427733182907104,1.0070799589157104,0.6103515028953552,100.0,214468.0,1.0
15:42:50.385675,175005.046875,168647.859375,158613.703125,199122.671875,160514.5,162943.515625,687115.125,158544.59375,-0.0849609375,0.998291015625,-0.140869140625,-1.2817381620407104,0.9765624403953552,0.4577636420726776,100.0,214469.0,1.0
15:42:50.391979,174947.5625,168644.1875,158609.6875,199119.71875,160510.828125,162937.875,687109.9375,158547.1875,-0.0849609375,1.00048828125,-0.138427734375,-1.3122557401657104,0.8239745497703552,0.5187987685203552,100.0,214470.0,1.0
15:42:50.394510,174921.0,168627.828125,158600.65625,199142.96875,160506.640625,162920.0,687186.1875,158560.515625,-0.08544921875,1.00048828125,-0.13623046875,-1.3732908964157104,0.8239745497703552,0.6408690810203552,100.0,214471.0,1.0
15:42:50.408987,174962.125,168636.140625,158606.28125,199135.09375,160510.65625,162932.15625,687079.1875,158554.078125,-0.087158203125,1.0,-0.136474609375,-1.3122557401657104,0.7019042372703552,0.7019042372703552,100.0,214472.0,1.0
15:42:50.409014,175017.125,168653.75,158621.046875,199131.25,160521.390625,162951.90625,687100.875,158550.234375,-0.087890625,1.002685546875,-0.13671875,-1.2207030057907104,0.5187987685203552,0.5493163466453552,100.0,214473.0,1.0
15:42:50.410840,174958.640625,168656.96875,158620.953125,199121.234375,160521.921875,162954.421875,687097.6875,158547.546875,-0.08544921875,1.00390625,-0.138427734375,-1.2512205839157104,0.4577636420726776,0.6103515028953552,100.0,214474.0,1.0
15:42:50.413226,174933.515625,168641.140625,158610.75,199142.078125,160517.09375,162935.828125,687194.375,158563.28125,-0.0859375,1.00244140625,-0.138427734375,-1.2207030057907104,0.4272460639476776,0.5493163466453552,100.0,214475.0,1.0
15:42:50.415628,174953.1875,168643.46875,158611.203125,199143.59375,160514.5,162938.859375,687095.875,158562.125,-0.086181640625,1.000732421875,-0.14013671875,-1.2817381620407104,0.2746581733226776,0.5493163466453552,100.0,214476.0,1.0
15:42:50.418149,175025.25,168656.34375,158622.46875,199146.28125,160521.46875,162951.46875,687123.75,158558.640625,-0.085693359375,1.000732421875,-0.139404296875,-1.2512205839157104,0.2136230319738388,0.5493163466453552,100.0,214477.0,1.0
15:42:50.430340,174972.6875,168663.046875,158626.84375,199131.609375,160524.0625,162958.53125,687089.0,158554.078125,-0.085205078125,0.998291015625,-0.13720703125,-1.3732908964157104,0.0915527269244194,0.6713866591453552,100.0,214478.0,1.0
15:42:50.430379,174944.515625,168649.109375,158618.890625,199142.25,160521.921875,162943.953125,687180.0,158564.890625,-0.0849609375,0.998779296875,-0.139404296875,-1.3122557401657104,-0.1220703050494194,0.6713866591453552,100.0,214479.0,1.0
15:42:50.431981,174951.21875,168655.0,158624.171875,199152.984375,160527.90625,162952.09375,687108.375,158571.859375,-0.084228515625,0.998046875,-0.139892578125,-1.3427733182907104,-0.1220703050494194,0.8239745497703552,100.0,214480.0,1.0
15:42:50.432014,175040.625,168676.28125,158642.59375,199159.421875,160543.921875,162975.15625,687119.125,158575.0,-0.083984375,0.99951171875,-0.139404296875,-1.4343260526657104,-0.1525878757238388,0.8239745497703552,100.0,214481.0,1.0
15:42:50.441962,174999.328125,168683.171875,158644.734375,199143.859375,160542.65625,162981.59375,687098.3125,158567.21875,-0.08251953125,1.0009765625,-0.137939453125,-1.4038084745407104,-0.3051757514476776,0.7324218153953552,100.0,214482.0,1.0
15:42:50.446250,174959.890625,168663.328125,158631.671875,199154.046875,160534.078125,162958.53125,687155.625,158574.8125,-0.08349609375,1.00048828125,-0.138427734375,-1.4038084745407104,-0.3356933295726776,0.7019042372703552,100.0,214483.0,1.0
15:42:50.446269,174945.59375,168657.234375,158627.5625,199161.921875,160531.75,162952.984375,687115.1875,158579.5625,-0.082763671875,0.997314453125,-0.139404296875,-1.3427733182907104,-0.3356933295726776,0.7324218153953552,100.0,214484.0,1.0
15:42:50.453829,175032.9375,168671.546875,158640.625,199162.375,160541.328125,162968.71875,687096.5625,158578.84375,-0.080810546875,0.99755859375,-0.139892578125,-1.3427733182907104,-0.3356933295726776,0.7629393935203552,100.0,214485.0,1.0
15:42:50.453838,175007.90625,168678.875,158643.75,199142.78125,160541.5,162976.328125,687091.6875,158564.09375,-0.0830078125,0.997802734375,-0.142333984375,-1.2817381620407104,-0.3967284858226776,0.7934569716453552,100.0,214486.0,1.0
15:42:50.455663,174960.875,168663.671875,158632.125,199146.8125,160535.25,162957.8125,687145.3125,158569.453125,-0.079833984375,0.997314453125,-0.142578125,-1.2817381620407104,-0.3662109076976776,0.7629393935203552,100.0,214487.0,1.0
15:42:50.466993,174936.921875,168651.703125,158622.734375,199156.015625,160528.890625,162945.203125,687138.5,158573.921875,-0.080078125,0.997802734375,-0.137451171875,-1.3122557401657104,-0.3967284858226776,0.7019042372703552,100.0,214488.0,1.0
15:42:50.471970,175015.859375,168665.203125,158633.46875,199156.28125,160536.234375,162961.03125,687098.5625,158571.0625,-0.0810546875,0.99755859375,-0.139404296875,-1.3427733182907104,-0.3356933295726776,0.6408690810203552,100.0,214489.0,1.0
15:42:50.471979,175013.90625,168673.25,158637.578125,199136.0,160535.78125,162968.90625,687107.3125,158556.9375,-0.0830078125,0.99560546875,-0.14111328125,-1.4038084745407104,-0.3967284858226776,0.6713866591453552,100.0,214490.0,1.0
15:42:50.471980,174961.328125,168662.703125,158629.890625,199136.96875,160530.328125,162957.546875,687117.625,158561.671875,-0.086181640625,0.996337890625,-0.142333984375,-1.4038084745407104,-0.4577636420726776,0.4272460639476776,100.0,214491.0,1.0
15:42:50.474431,174932.53125,168644.453125,158615.5,199147.078125,160520.671875,162938.5,687160.5,158566.140625,-0.0859375,0.996826171875,-0.14208984375,-1.2817381620407104,-0.4882812201976776,0.3051757514476776,100.0,214492.0,1.0
15:42:50.478128,174994.5,168657.234375,158625.78125,199153.78125,160527.828125,162952.09375,687094.0625,158568.375,-0.08544921875,0.997314453125,-0.142822265625,-1.4038084745407104,-0.5187987685203552,0.0610351525247097,100.0,214493.0,1.0
15:42:50.488165,175020.6875,168667.4375,158632.484375,199142.34375,160529.609375,162960.859375,687114.1875,158557.375,-0.08447265625,0.998046875,-0.14208984375,-1.3122557401657104,-0.5493163466453552,0.1525878757238388,100.0,214494.0,1.0
15:42:50.493769,174958.828125,168658.21875,158623.984375,199129.734375,160521.65625,162950.296875,687095.0,158552.734375,-0.08203125,0.99951171875,-0.1416015625,-1.3427733182907104,-0.5798339247703552,0.1220703050494194,100.0,214495.0,1.0
15:42:50.493775,174925.75,168635.0625,158607.71875,199141.453125,160511.90625,162927.421875,687163.125,158561.578125,-0.08056640625,0.999755859375,-0.1396484375,-1.3427733182907104,-0.5798339247703552,-0.0915527269244194,100.0,214496.0,1.0
15:42:50.495673,174964.8125,168642.40625,158612.640625,199141.359375,160515.578125,162936.265625,687076.5625,158560.421875,-0.07861328125,0.999755859375,-0.1396484375,-1.3732908964157104,-0.4272460639476776,-0.0915527269244194,100.0,214497.0,1.0
15:42:50.501916,175018.734375,168654.375,158622.5625,199134.390625,160520.671875,162948.609375,687111.4375,158551.484375,-0.079345703125,1.000244140625,-0.142333984375,-1.3732908964157104,-0.4272460639476776,0.0610351525247097,100.0,214498.0,1.0
15:42:50.512501,174963.390625,168659.203125,158624.4375,199125.984375,160522.8125,162952.0,687089.6875,158550.5,-0.080078125,1.00244140625,-0.14208984375,-1.4343260526657104,-0.4577636420726776,0.1525878757238388,100.0,214499.0,1.0
15:42:50.512515,174936.109375,168642.671875,158613.625,199141.359375,160518.703125,162934.03125,687175.6875,158562.296875,-0.078857421875,1.00146484375,-0.140625,-1.5258787870407104,-0.3967284858226776,0.0915527269244194,100.0,214500.0,1.0
15:42:50.515026,174955.421875,168646.6875,158616.84375,199143.859375,160520.484375,162940.5625,687084.8125,158562.75,-0.07861328125,1.0029296875,-0.14208984375,-1.5563963651657104,-0.3051757514476776,0.2136230319738388,100.0,214501.0,1.0
15:42:50.515034,175032.859375,168664.578125,158633.46875,199147.96875,160532.734375,162959.6875,687116.6875,158563.015625,-0.079345703125,1.00390625,-0.14013671875,-1.6174315214157104,-0.1831054538488388,0.2746581733226776,100.0,214502.0,1.0
15:42:50.522173,174981.984375,168671.375,158636.234375,199133.671875,160534.265625,162966.3125,687092.0625,158556.390625,-0.079345703125,1.00341796875,-0.1396484375,-1.7700194120407104,-0.1525878757238388,0.3967284858226776,100.0,214503.0,1.0
15:42:50.525726,174948.28125,168651.78125,158623.09375,199152.078125,160528.8125,162944.9375,687163.5625,158570.25,-0.079833984375,1.00244140625,-0.140380859375,-1.7395018339157104,-0.1525878757238388,0.4882812201976776,100.0,214504.0,1.0
15:42:50.531917,174944.96875,168650.171875,158621.046875,199153.875,160527.375,162944.5,687090.75,158570.4375,-0.080078125,1.003173828125,-0.140625,-1.9226073026657104,0.0,0.6408690810203552,100.0,214505.0,1.0
15:42:50.539985,175026.5,168660.109375,158628.546875,199146.28125,160532.296875,162956.46875,687102.3125,158561.40625,-0.080322265625,1.002197265625,-0.144287109375,-1.8615721464157104,-0.1220703050494194,0.6408690810203552,100.0,214506.0,1.0
15:42:50.540005,174989.578125,168670.296875,158635.34375,199138.765625,160537.65625,162966.84375,687083.5625,158562.484375,-0.081787109375,1.0009765625,-0.14306640625,-1.9836424589157104,0.0,0.6713866591453552,100.0,214507.0,1.0
15:42:50.542557,174954.625,168655.71875,158626.671875,199150.75,160533.90625,162949.859375,687164.8125,158573.921875,-0.082763671875,1.00048828125,-0.13916015625,-1.9531248807907104,0.0,0.6713866591453552,100.0,214508.0,1.0
15:42:50.542577,174935.125,168645.53125,158616.75,199147.25,160524.96875,162941.453125,687121.0,158567.3125,-0.080810546875,0.999755859375,-0.137939453125,-1.9531248807907104,0.0915527269244194,0.5798339247703552,100.0,214509.0,1.0
15:42:50.550713,175019.265625,168658.578125,158626.9375,199150.46875,160530.59375,162955.578125,687107.25,158564.625,-0.08154296875,1.000732421875,-0.1337890625,-2.075195074081421,0.1525878757238388,0.6408690810203552,100.0,214510.0,1.0
15:42:50.578851,175002.015625,168671.453125,158634.265625,199140.734375,160534.4375,162967.296875,687104.8125,158559.078125,-0.08251953125,1.001220703125,-0.134765625,-2.075195074081421,0.1525878757238388,0.6103515028953552,100.0,214511.0,1.0
15:42:50.578862,174956.59375,168659.390625,158626.046875,199139.5625,160528.890625,162953.703125,687134.5,158562.75,-0.082275390625,0.999267578125,-0.139404296875,-2.105712652206421,0.1220703050494194,0.4882812201976776,100.0,214512.0,1.0
15:42:50.603187,174933.171875,168645.078125,158618.265625,199151.8125,160524.515625,162940.734375,687135.1875,158570.078125,-0.079833984375,0.998779296875,-0.140380859375,-2.227782964706421,0.2441406100988388,0.4882812201976776,100.0,214513.0,1.0
15:42:50.606899,175006.75,168656.796875,158628.8125,199153.421875,160531.9375,162954.15625,687100.4375,158571.421875,-0.07958984375,1.000244140625,-0.141845703125,-2.288818120956421,0.3356933295726776,0.4577636420726776,100.0,214514.0,1.0
15:42:50.609442,175012.015625,168667.875,158634.1875,199134.734375,160532.65625,162963.984375,687115.875,158555.0625,-0.0810546875,1.000732421875,-0.138916015625,-2.197265386581421,0.2441406100988388,0.3356933295726776,100.0,214515.0,1.0
15:42:50.612182,174957.03125,168658.046875,158626.578125,199136.796875,160527.375,162952.546875,687116.375,158560.328125,-0.08056640625,1.000732421875,-0.13623046875,-2.258300542831421,0.3356933295726776,0.2441406100988388,100.0,214516.0,1.0
15:42:50.614444,174930.75,168640.875,158615.578125,199151.90625,160521.65625,162934.296875,687159.6875,158571.234375,-0.08056640625,1.000732421875,-0.134033203125,-2.227782964706421,0.3662109076976776,0.1831054538488388,100.0,214517.0,1.0
15:42:50.616951,174988.234375,168650.453125,158622.921875,199152.078125,160524.96875,162945.5625,687081.375,158568.640625,-0.079345703125,1.00048828125,-0.138916015625,-2.319335699081421,0.3967284858226776,0.2746581733226776,100.0,214518.0,1.0
15:42:50.619390,175020.25,168661.71875,158629.984375,199142.96875,160527.203125,162956.390625,687106.3125,158556.75,-0.08056640625,0.998779296875,-0.138916015625,-2.380370855331421,0.3051757514476776,0.1831054538488388,100.0,214519.0,1.0
15:42:50.621904,174961.421875,168658.5,158624.609375,199127.953125,160522.453125,162952.09375,687094.375,158553.265625,-0.080322265625,0.99853515625,-0.13916015625,-2.319335699081421,0.4272460639476776,0.3662109076976776,100.0,214520.0,1.0
15:42:50.624376,174934.234375,168641.6875,158616.75,199148.78125,160520.484375,162935.375,687158.4375,158570.96875,-0.082763671875,0.999267578125,-0.1396484375,-2.349853277206421,0.4882812201976776,0.4577636420726776,100.0,214521.0,1.0
15:42:50.652786,174972.953125,168648.75,158620.59375,199144.3125,160522.71875,162943.328125,687071.5625,158563.640625,-0.08203125,0.999267578125,-0.1376953125,-2.166747808456421,0.3967284858226776,0.4577636420726776,100.0,214522.0,1.0
15:42:50.652839,175037.6875,168668.859375,158639.09375,199154.234375,160536.9375,162964.15625,687119.8125,158568.5625,-0.081298828125,0.9970703125,-0.138671875,-2.136230230331421,0.5187987685203552,0.3662109076976776,100.0,214523.0,1.0
15:42:50.660069,174979.921875,168670.5625,158638.921875,199145.828125,160537.5625,162966.671875,687103.5625,158569.625,-0.08154296875,0.997802734375,-0.134521484375,-2.075195074081421,0.5493163466453552,0.4577636420726776,100.0,214524.0,1.0
15:42:50.660075,174943.0,168646.953125,158618.53125,199144.125,160524.6875,162941.09375,687191.125,158566.328125,-0.081787109375,0.996337890625,-0.136474609375,-2.075195074081421,0.4577636420726776,0.4577636420726776,100.0,214525.0,1.0
15:42:50.662467,174960.796875,168652.6875,158623.90625,199154.40625,160527.46875,162947.4375,687086.75,158571.6875,-0.08251953125,0.9970703125,-0.137451171875,-2.014159917831421,0.5493163466453552,0.5187987685203552,100.0,214526.0,1.0
15:42:50.662471,175036.78125,168664.9375,158634.359375,199149.5,160534.078125,162960.3125,687114.3125,158567.9375,-0.08251953125,0.995849609375,-0.13671875,-1.9226073026657104,0.6408690810203552,0.4577636420726776,100.0,214527.0,1.0
15:42:50.664417,174985.015625,168670.65625,158636.421875,199130.265625,160533.984375,162966.671875,687092.125,158553.890625,-0.08349609375,0.995361328125,-0.13525390625,-1.8920897245407104,0.6103515028953552,0.4272460639476776,100.0,214528.0,1.0
15:42:50.666936,174957.84375,168659.65625,158631.140625,199153.515625,160536.3125,162953.703125,687195.375,158577.671875,-0.082763671875,0.9951171875,-0.136962890625,-1.9226073026657104,0.6103515028953552,0.5187987685203552,100.0,214529.0,1.0
15:42:50.670046,174952.75,168656.96875,158627.296875,199155.03125,160533.28125,162951.828125,687119.8125,158577.140625,-0.08447265625,0.99609375,-0.13720703125,-1.8615721464157104,0.5493163466453552,0.4577636420726776,100.0,214530.0,1.0
15:42:50.670050,175039.109375,168670.65625,158639.375,199159.953125,160539.53125,162966.21875,687121.375,158569.453125,-0.082275390625,0.9951171875,-0.138427734375,-1.8310545682907104,0.3967284858226776,0.4272460639476776,100.0,214531.0,1.0
15:42:50.673729,174997.0,168675.84375,158639.09375,199135.8125,160537.03125,162971.765625,687098.1875,158554.875,-0.0830078125,0.9951171875,-0.13525390625,-1.8005369901657104,0.3967284858226776,0.4272460639476776,100.0,214532.0,1.0
15:42:50.673740,174956.140625,168658.765625,158626.84375,199142.78125,160530.140625,162952.8125,687163.8125,158563.375,-0.084716796875,0.9931640625,-0.13720703125,-1.6784666776657104,0.3662109076976776,0.3967284858226776,100.0,214533.0,1.0
15:42:50.673743,174933.796875,168646.6875,158615.046875,199140.90625,160519.59375,162940.828125,687126.0,158558.453125,-0.085205078125,0.994140625,-0.13818359375,-1.5563963651657104,0.3662109076976776,0.2746581733226776,100.0,214534.0,1.0
15:42:50.673745,175021.234375,168662.15625,158628.8125,199149.9375,160529.34375,162956.109375,687115.375,158564.984375,-0.084228515625,0.995361328125,-0.14013671875,-1.5258787870407104,0.3356933295726776,0.3051757514476776,100.0,214535.0,1.0
15:42:50.675651,175002.90625,168669.484375,158631.765625,199132.421875,160528.8125,162962.828125,687109.125,158552.375,-0.085693359375,0.9951171875,-0.13916015625,-1.4648436307907104,0.2746581733226776,0.2746581733226776,100.0,214536.0,1.0
15:42:50.678711,174957.84375,168658.21875,158622.65625,199135.09375,160524.515625,162950.390625,687127.6875,158556.578125,-0.08544921875,0.99755859375,-0.137939453125,-1.3122557401657104,0.2746581733226776,0.3356933295726776,100.0,214537.0,1.0
15:42:50.678715,174931.828125,168644.90625,158612.90625,199146.359375,160517.890625,162937.609375,687145.25,158564.265625,-0.084716796875,0.996826171875,-0.135498046875,-1.2512205839157104,0.0915527269244194,0.4272460639476776,100.0,214538.0,1.0
15:42:50.680659,175004.78125,168654.296875,158622.375,199155.390625,160523.4375,162948.96875,687089.1875,158571.78125,-0.0859375,0.9931640625,-0.13818359375,-1.4038084745407104,-0.0915527269244194,0.4272460639476776,100.0,214539.0,1.0
15:42:50.683180,175009.34375,168661.625,158624.796875,199130.890625,160520.9375,162955.578125,687096.0625,158545.765625,-0.084716796875,0.994384765625,-0.138916015625,-1.2817381620407104,-0.0610351525247097,0.3967284858226776,100.0,214540.0,1.0
15:42:50.686201,174956.40625,168653.578125,158617.90625,199125.53125,160514.234375,162945.75,687126.75,158543.875,-0.087158203125,0.994140625,-0.135986328125,-1.1901854276657104,-0.1525878757238388,0.3051757514476776,100.0,214541.0,1.0
15:42:50.686205,174928.25,168633.453125,158605.125,199144.9375,160505.296875,162925.53125,687178.875,158554.609375,-0.087646484375,0.995361328125,-0.135986328125,-1.1291502714157104,-0.1831054538488388,0.3356933295726776,100.0,214542.0,1.0
15:42:50.688130,174980.28125,168640.25,158612.015625,199149.5,160510.03125,162935.640625,687093.625,158557.375,-0.086669921875,0.997314453125,-0.13916015625,-1.0375975370407104,-0.3356933295726776,0.3051757514476776,100.0,214543.0,1.0
15:42:50.690665,175008.453125,168646.6875,158616.390625,199130.71875,160511.8125,162943.234375,687104.8125,158545.578125,-0.0859375,0.99755859375,-0.136962890625,-0.9765624403953552,-0.4272460639476776,0.3967284858226776,100.0,214544.0,1.0
15:42:50.699325,174958.5625,168652.140625,158618.890625,199129.734375,160517.0,162946.8125,687091.5,158552.90625,-0.083984375,0.995849609375,-0.136962890625,-0.9460448622703552,-0.5493163466453552,0.3662109076976776,100.0,214545.0,1.0
15:42:50.699337,174932.0,168638.828125,158609.421875,199142.34375,160512.796875,162931.625,687169.1875,158560.78125,-0.083984375,0.996337890625,-0.136962890625,-0.8239745497703552,-0.6103515028953552,0.3051757514476776,100.0,214546.0,1.0
15:42:50.699339,174964.015625,168646.25,158613.703125,199139.5625,160515.75,162941.0,687085.5,158556.046875,-0.0849609375,0.995361328125,-0.13623046875,-0.7934569716453552,-0.6103515028953552,0.2746581733226776,100.0,214547.0,1.0
15:42:50.705119,175029.09375,168666.1875,158631.671875,199144.3125,160529.609375,162961.03125,687116.4375,158557.46875,-0.084228515625,0.992919921875,-0.134765625,-0.7019042372703552,-0.6103515028953552,0.1831054538488388,100.0,214548.0,1.0
15:42:50.705127,174976.890625,168671.71875,158634.0,199134.203125,160531.578125,162966.3125,687095.0,158557.375,-0.082763671875,0.9931640625,-0.135986328125,-0.6103515028953552,-0.6103515028953552,0.1220703050494194,100.0,214549.0,1.0
15:42:50.706966,174945.328125,168649.375,158620.328125,199149.046875,160524.421875,162943.421875,687177.5,158566.5,-0.0830078125,0.99267578125,-0.13525390625,-0.5798339247703552,-0.6408690810203552,0.0915527269244194,100.0,214550.0,1.0
15:42:50.713181,174959.1875,168652.0625,158623.28125,199157.09375,160526.390625,162948.96875,687085.3125,158570.96875,-0.082763671875,0.994140625,-0.1376953125,-0.4272460639476776,-0.7019042372703552,0.1220703050494194,100.0,214551.0,1.0
15:42:50.723947,175038.3125,168666.09375,158634.8125,199156.640625,160533.71875,162962.640625,687105.8125,158568.734375,-0.0810546875,0.99560546875,-0.13671875,-0.3356933295726776,-0.6713866591453552,0.03051757626235485,100.0,214552.0,1.0
15:42:50.723962,174985.828125,168668.328125,158633.28125,199138.671875,160529.703125,162964.15625,687090.0,158557.109375,-0.08056640625,0.998046875,-0.135498046875,-0.2441406100988388,-0.6103515028953552,0.03051757626235485,100.0,214553.0,1.0
15:42:50.726334,174950.15625,168646.6875,158618.09375,199147.890625,160520.578125,162940.015625,687193.125,158563.640625,-0.0810546875,0.9990234375,-0.136474609375,-0.1220703050494194,-0.6103515028953552,0.0915527269244194,100.0,214554.0,1.0
15:42:50.726342,174948.0,168647.578125,158619.703125,199156.5625,160523.4375,162942.796875,687111.6875,158569.71875,-0.0810546875,0.999755859375,-0.1376953125,-0.1525878757238388,-0.5798339247703552,0.1525878757238388,100.0,214555.0,1.0
15:42:50.732042,175028.296875,168658.140625,158626.9375,199146.453125,160527.546875,162954.234375,687115.625,158559.34375,-0.080810546875,0.999755859375,-0.134765625,-0.1525878757238388,-0.5493163466453552,0.2136230319738388,100.0,214556.0,1.0
15:42:50.740631,174992.0,168666.359375,158631.140625,199132.953125,160528.8125,162961.921875,687091.875,158551.296875,-0.0810546875,1.0,-0.13916015625,-0.1831054538488388,-0.3967284858226776,0.0610351525247097,100.0,214557.0,1.0
15:42:50.747509,174952.65625,168651.515625,158621.75,199146.453125,160525.234375,162947.625,687149.8125,158565.34375,-0.0830078125,0.99951171875,-0.137451171875,-0.1525878757238388,-0.3662109076976776,0.0610351525247097,100.0,214558.0,1.0
15:42:50.747518,174937.28125,168644.1875,158616.5625,199161.734375,160522.09375,162941.359375,687124.3125,158571.859375,-0.08251953125,1.00048828125,-0.133544921875,-0.2136230319738388,-0.3662109076976776,0.1220703050494194,100.0,214559.0,1.0
15:42:50.750177,175022.296875,168658.21875,158627.828125,199160.671875,160529.15625,162955.21875,687104.875,158566.5,-0.081787109375,1.001708984375,-0.1337890625,-0.2136230319738388,-0.1831054538488388,0.2441406100988388,100.0,214560.0,1.0
15:42:50.750188,175005.9375,168666.359375,158631.328125,199135.90625,160529.4375,162964.96875,687107.25,158549.0625,-0.08154296875,1.003662109375,-0.1357421875,-0.1831054538488388,-0.1831054538488388,0.1525878757238388,100.0,214561.0,1.0
15:42:50.759430,174957.578125,168654.65625,158622.828125,199139.125,160525.234375,162951.90625,687152.8125,158556.9375,-0.080810546875,1.003173828125,-0.136962890625,-0.1831054538488388,-0.1220703050494194,0.1525878757238388,100.0,214562.0,1.0
15:42:50.763722,174935.84375,168642.578125,158613.4375,199157.09375,160519.5,162938.859375,687166.875,158566.953125,-0.07958984375,1.004150390625,-0.137451171875,-0.2136230319738388,-0.1220703050494194,0.2746581733226776,100.0,214563.0,1.0
15:42:50.763733,175003.625,168650.09375,158618.171875,199154.953125,160521.5625,162947.71875,687094.25,158562.03125,-0.079345703125,1.00439453125,-0.13818359375,-0.3356933295726776,0.0,0.2746581733226776,100.0,214564.0,1.0
15:42:50.770672,175011.125,168657.421875,158621.3125,199132.6875,160521.296875,162955.125,687101.875,158545.21875,-0.080322265625,1.002685546875,-0.1376953125,-0.3662109076976776,0.1220703050494194,0.3051757514476776,100.0,214565.0,1.0
15:42:50.774360,174953.8125,168649.1875,158616.03125,199131.171875,160519.59375,162946.734375,687109.125,158552.015625,-0.0810546875,1.002685546875,-0.1376953125,-0.4577636420726776,0.1525878757238388,0.3051757514476776,100.0,214566.0,1.0
15:42:50.778798,174928.421875,168634.625,158607.984375,199150.390625,160517.0,162930.640625,687168.75,158566.765625,-0.081298828125,1.001708984375,-0.13818359375,-0.4882812201976776,0.1525878757238388,0.3662109076976776,100.0,214567.0,1.0
15:42:50.778814,174981.796875,168643.5625,158614.328125,199146.1875,160519.0625,162940.921875,687082.4375,158561.40625,-0.081298828125,1.0029296875,-0.14013671875,-0.6408690810203552,0.3662109076976776,0.3967284858226776,100.0,214568.0,1.0
15:42:50.788190,175019.0,168654.5625,158621.484375,199137.609375,160520.671875,162951.46875,687104.125,158549.328125,-0.080810546875,1.001708984375,-0.137939453125,-0.6408690810203552,0.4272460639476776,0.4577636420726776,100.0,214569.0,1.0
15:42:50.792483,174961.59375,168653.3125,158619.34375,199131.34375,160518.96875,162950.125,687101.9375,158550.5,-0.080810546875,1.001708984375,-0.13916015625,-0.7629393935203552,0.3662109076976776,0.5493163466453552,100.0,214570.0,1.0
15:42:50.792496,174933.96875,168637.21875,158609.953125,199149.046875,160516.375,162932.875,687178.75,158565.25,-0.081298828125,1.001953125,-0.140380859375,-0.8239745497703552,0.2746581733226776,0.6103515028953552,100.0,214571.0,1.0
15:42:50.799445,174967.59375,168645.625,158616.84375,199150.296875,160521.828125,162943.515625,687083.375,158564.796875,-0.08203125,1.001220703125,-0.1396484375,-0.8544921278953552,0.3662109076976776,0.6103515028953552,100.0,214572.0,1.0
15:42:50.804972,175034.546875,168664.125,158632.9375,199147.703125,160534.53125,162963.265625,687110.8125,158559.34375,-0.082763671875,1.003173828125,-0.139404296875,-0.8239745497703552,0.4577636420726776,0.7324218153953552,100.0,214573.0,1.0
15:42:50.804982,174979.203125,168669.046875,158635.078125,199138.671875,160535.0625,162967.5625,687097.9375,158558.0,-0.08203125,1.002685546875,-0.140869140625,-0.8544921278953552,0.5493163466453552,0.6408690810203552,100.0,214574.0,1.0
15:42:50.810664,174948.71875,168647.765625,158623.453125,199158.875,160529.4375,162945.5625,687200.6875,158575.625,-0.08251953125,1.0009765625,-0.14111328125,-1.0070799589157104,0.6408690810203552,0.6103515028953552,100.0,214575.0,1.0
15:42:50.818752,174954.796875,168646.0625,158621.21875,199153.6875,160527.640625,162946.90625,687100.1875,158571.421875,-0.082763671875,1.001220703125,-0.138916015625,-1.0375975370407104,0.7019042372703552,0.7019042372703552,100.0,214576.0,1.0
15:42:50.818760,175033.296875,168659.65625,158633.203125,199151.28125,160536.3125,162963.53125,687115.375,158567.03125,-0.08154296875,1.001220703125,-0.139892578125,-1.0681151151657104,0.7934569716453552,0.7629393935203552,100.0,214577.0,1.0
15:42:50.821249,174983.234375,168665.828125,158634.09375,199134.828125,160534.4375,162969.96875,687089.0625,158556.671875,-0.0810546875,1.0029296875,-0.140625,-1.1596678495407104,0.7629393935203552,0.8239745497703552,100.0,214578.0,1.0
15:42:50.821255,174952.5625,168648.5625,158622.296875,199157.0,160527.203125,162947.71875,687176.6875,158570.171875,-0.08203125,1.0029296875,-0.140625,-1.1596678495407104,0.7629393935203552,0.7629393935203552,100.0,214579.0,1.0
15:42:50.830711,174947.109375,168645.53125,158617.828125,199155.84375,160523.625,162944.578125,687113.5,158567.125,-0.081298828125,1.002197265625,-0.138916015625,-1.1596678495407104,0.7324218153953552,0.8544921278953552,100.0,214580.0,1.0
15:42:50.834972,175031.609375,168660.453125,158629.796875,199152.890625,160531.9375,162960.859375,687124.9375,158564.890625,-0.08154296875,1.00146484375,-0.14013671875,-1.3427733182907104,0.8239745497703552,0.8239745497703552,100.0,214581.0,1.0
15:42:50.834978,175003.078125,168671.546875,158637.84375,199141.890625,160535.6875,162972.484375,687109.9375,158562.484375,-0.082763671875,1.002197265625,-0.140380859375,-1.3427733182907104,0.7934569716453552,0.8544921278953552,100.0,214582.0,1.0
15:42:50.841967,174957.21875,168650.53125,158620.40625,199142.703125,160524.0625,162948.15625,687152.0,158562.125,-0.084228515625,0.99853515625,-0.137939453125,-1.4343260526657104,0.8544921278953552,0.8239745497703552,100.0,214583.0,1.0
15:42:50.852568,174934.78125,168640.25,158612.015625,199148.78125,160520.046875,162940.203125,687141.3125,158564.4375,-0.084228515625,0.998291015625,-0.14013671875,-1.4038084745407104,0.8544921278953552,0.9155272841453552,100.0,214584.0,1.0
15:42:50.852583,175017.5625,168654.734375,158627.125,199157.09375,160531.84375,162957.453125,687116.0,158569.0,-0.08349609375,1.000244140625,-0.141845703125,-1.5258787870407104,0.8850097060203552,0.9155272841453552,100.0,214585.0,1.0
15:42:50.855350,175004.78125,168661.09375,158629.71875,199137.78125,160529.15625,162963.09375,687111.6875,158552.46875,-0.0830078125,0.998779296875,-0.144287109375,-1.5563963651657104,0.9155272841453552,1.0070799589157104,100.0,214586.0,1.0
15:42:50.855382,174956.046875,168649.015625,158619.4375,199141.265625,160522.453125,162947.625,687108.1875,158557.734375,-0.08203125,1.00048828125,-0.140625,-1.5869139432907104,0.7934569716453552,0.9765624403953552,100.0,214587.0,1.0
15:42:50.862040,174925.46875,168633.640625,158605.21875,199144.3125,160512.71875,162932.421875,687147.8125,158559.96875,-0.084228515625,0.99951171875,-0.1416015625,-1.4648436307907104,0.7629393935203552,1.1291502714157104,100.0,214588.0,1.0
15:42:50.870735,174996.28125,168647.3125,158617.015625,199151.109375,160520.484375,162946.90625,687099.75,158563.8125,-0.08251953125,0.999267578125,-0.14404296875,-1.5258787870407104,0.9155272841453552,1.0070799589157104,100.0,214589.0,1.0
15:42:50.870810,175011.125,168657.15625,158623.71875,199136.0,160522.546875,162956.65625,687116.625,158549.15625,-0.084228515625,0.998291015625,-0.142333984375,-1.4953612089157104,0.8544921278953552,1.0070799589157104,100.0,214590.0,1.0
15:42:50.878557,174957.75,168650.453125,158620.328125,199136.171875,160520.765625,162948.421875,687122.625,158554.4375,-0.082275390625,0.998291015625,-0.143310546875,-1.5563963651657104,0.7934569716453552,1.0375975370407104,100.0,214591.0,1.0
15:42:50.878574,174931.5625,168634.984375,158611.46875,199156.640625,160517.09375,162932.421875,687179.1875,158568.5625,-0.08154296875,0.996826171875,-0.142578125,-1.5869139432907104,0.7934569716453552,1.0681151151657104,100.0,214592.0,1.0
15:42:50.878617,174983.234375,168645.0,158617.734375,199150.03125,160520.765625,162945.03125,687084.25,158561.859375,-0.08203125,0.996826171875,-0.142333984375,-1.5563963651657104,0.9155272841453552,0.9765624403953552,100.0,214593.0,1.0
15:42:50.888125,175027.046875,168660.015625,158630.25,199142.78125,160529.4375,162960.3125,687106.625,158555.859375,-0.0830078125,0.997802734375,-0.1435546875,-1.5258787870407104,1.0070799589157104,1.0375975370407104,100.0,214594.0,1.0
15:42:50.892627,174968.21875,168658.3125,158627.65625,199133.484375,160527.203125,162958.4375,687094.0,158555.140625,-0.08251953125,0.998046875,-0.140869140625,-1.4648436307907104,0.9460448622703552,0.9765624403953552,100.0,214595.0,1.0
15:42:50.892669,174941.84375,168643.390625,158618.265625,199153.15625,160524.15625,162942.609375,687182.4375,158572.21875,-0.083984375,0.998046875,-0.14111328125,-1.4343260526657104,0.9155272841453552,0.9765624403953552,100.0,214596.0,1.0
15:42:50.916905,174973.21875,168651.34375,158623.90625,199154.328125,160527.46875,162952.8125,687092.125,158566.6875,-0.082275390625,0.998046875,-0.142822265625,-1.4038084745407104,0.9460448622703552,1.0681151151657104,100.0,214597.0,1.0
15:42:50.921223,175038.75,168665.734375,158636.234375,199154.953125,160534.796875,162967.296875,687126.8125,158564.359375,-0.081298828125,0.996337890625,-0.144287109375,-1.4648436307907104,0.9460448622703552,0.9765624403953552,100.0,214598.0,1.0
15:42:50.921233,174982.0625,168669.3125,158636.5,199142.78125,160534.53125,162970.328125,687091.3125,158560.6875,-0.08154296875,0.995361328125,-0.143310546875,-1.4648436307907104,0.9460448622703552,1.0375975370407104,100.0,214599.0,1.0
15:42:50.921237,174953.734375,168649.640625,158625.234375,199161.46875,160528.890625,162949.953125,687171.875,158572.578125,-0.081787109375,0.995361328125,-0.142822265625,-1.4038084745407104,0.9460448622703552,1.0070799589157104,100.0,214600.0,1.0
15:42:50.921241,174960.34375,168649.640625,158625.0625,199162.8125,160527.90625,162952.09375,687096.6875,158571.859375,-0.08203125,0.99560546875,-0.140380859375,-1.3122557401657104,0.9155272841453552,1.1596678495407104,100.0,214601.0,1.0
15:42:50.944442,175039.828125,168664.03125,158636.15625,199158.4375,160533.640625,162966.3125,687108.1875,158564.265625,-0.0830078125,0.997314453125,-0.140625,-1.3122557401657104,0.8239745497703552,1.0070799589157104,100.0,214602.0,1.0
15:42:50.971945,174992.0,168670.5625,158637.84375,199137.875,160531.84375,162972.125,687090.3125,158555.0625,-0.08251953125,0.999267578125,-0.14306640625,-1.2817381620407104,0.8239745497703552,1.0375975370407104,100.0,214603.0,1.0
15:42:50.974413,174952.65625,168649.546875,158623.71875,199148.953125,160523.625,162948.609375,687170.25,158563.546875,-0.08349609375,0.999267578125,-0.142333984375,-1.3732908964157104,0.7934569716453552,0.9765624403953552,100.0,214604.0,1.0
15:42:50.977171,174941.65625,168644.90625,158619.609375,199158.171875,160522.28125,162944.578125,687108.6875,158570.4375,-0.08447265625,0.998046875,-0.14208984375,-1.2817381620407104,0.7629393935203552,0.9460448622703552,100.0,214605.0,1.0
15:42:50.979390,175028.390625,168660.546875,158632.390625,199157.8125,160531.9375,162962.375,687100.625,158566.765625,-0.08544921875,0.997802734375,-0.14404296875,-1.1901854276657104,0.7629393935203552,1.0070799589157104,100.0,214606.0,1.0
15:42:50.981978,175001.65625,168672.4375,158639.546875,199139.21875,160533.71875,162973.375,687092.75,158555.765625,-0.084716796875,0.99853515625,-0.14501953125,-1.1901854276657104,0.7629393935203552,0.9155272841453552,100.0,214607.0,1.0
15:42:50.984407,174959.453125,168655.359375,158627.921875,199145.734375,160528.0,162954.59375,687158.75,158564.265625,-0.085693359375,1.0,-0.145263671875,-1.1901854276657104,0.6408690810203552,0.8850097060203552,100.0,214608.0,1.0
15:42:50.986933,174934.140625,168641.78125,158616.75,199147.25,160520.21875,162942.703125,687127.625,158563.734375,-0.085693359375,1.001953125,-0.14306640625,-1.1596678495407104,0.5493163466453552,0.8544921278953552,100.0,214609.0,1.0
15:42:50.989406,175017.296875,168657.234375,158629.71875,199153.421875,160528.8125,162959.515625,687108.9375,158565.25,-0.084716796875,1.00244140625,-0.14453125,-1.2512205839157104,0.5187987685203552,0.7934569716453552,100.0,214610.0,1.0
15:42:50.991942,175008.09375,168667.25,158633.828125,199138.5,160529.15625,162968.0,687112.3125,158554.25,-0.086181640625,1.003662109375,-0.14208984375,-1.2207030057907104,0.5187987685203552,0.8239745497703552,100.0,214611.0,1.0
15:42:50.994362,174956.859375,168653.9375,158622.828125,199138.3125,160522.09375,162952.09375,687128.75,158558.09375,-0.08642578125,1.0048828125,-0.143310546875,-1.1901854276657104,0.4577636420726776,0.7019042372703552,100.0,214612.0,1.0
15:42:50.996874,174931.828125,168638.203125,158612.90625,199153.0625,160516.203125,162935.90625,687148.4375,158566.859375,-0.086669921875,1.0048828125,-0.142578125,-1.1901854276657104,0.3967284858226776,0.7019042372703552,100.0,214613.0,1.0
15:42:50.999392,174993.875,168646.0625,158618.09375,199149.046875,160518.25,162947.71875,687089.375,158562.484375,-0.08837890625,1.005859375,-0.14306640625,-1.3122557401657104,0.3356933295726776,0.6713866591453552,100.0,214614.0,1.0
15:42:51.001886,175011.390625,168657.234375,158626.578125,199137.609375,160521.828125,162959.953125,687107.0625,158551.125,-0.087890625,1.006591796875,-0.141845703125,-1.4648436307907104,0.1831054538488388,0.6408690810203552,100.0,214615.0,1.0
15:42:51.004381,174961.328125,168655.90625,158625.59375,199136.53125,160521.65625,162955.765625,687100.625,158554.078125,-0.090576171875,1.007080078125,-0.1396484375,-1.5258787870407104,0.1525878757238388,0.6408690810203552,100.0,214616.0,1.0
15:42:51.006925,174935.578125,168642.40625,158617.640625,199155.484375,160517.71875,162940.375,687169.25,158566.328125,-0.087890625,1.007080078125,-0.140380859375,-1.6784666776657104,0.0610351525247097,0.5187987685203552,100.0,214617.0,1.0
15:42:51.009407,174986.8125,168652.5,158627.296875,199162.71875,160526.21875,162953.609375,687079.0625,158570.53125,-0.08740234375,1.005859375,-0.139892578125,-1.6784666776657104,0.0,0.5493163466453552,100.0,214618.0,1.0
15:42:51.012021,175027.40625,168663.859375,158635.796875,199146.90625,160531.3125,162966.84375,687096.9375,158558.640625,-0.087646484375,1.00439453125,-0.1396484375,-1.7089842557907104,-0.1525878757238388,0.6103515028953552,100.0,214619.0,1.0
15:42:51.018714,174967.765625,168662.25,158631.765625,199137.953125,160528.359375,162964.34375,687105.4375,158558.359375,-0.086669921875,1.004150390625,-0.140625,-1.8005369901657104,-0.1525878757238388,0.5798339247703552,100.0,214620.0,1.0
15:42:51.018721,174942.828125,168646.515625,158621.578125,199161.734375,160523.4375,162945.828125,687199.125,158574.09375,-0.08544921875,1.002685546875,-0.142333984375,-1.9531248807907104,-0.2136230319738388,0.5187987685203552,100.0,214621.0,1.0
15:42:51.018722,174969.546875,168652.5,158622.734375,199158.171875,160522.8125,162952.984375,687088.25,158568.296875,-0.08349609375,1.002685546875,-0.140869140625,-1.9836424589157104,-0.2441406100988388,0.5798339247703552,100.0,214622.0,1.0
15:42:51.018724,175035.625,168666.359375,158633.28125,199149.84375,160530.328125,162968.640625,687122.5,158560.25,-0.0830078125,1.002685546875,-0.140869140625,-2.105712652206421,-0.3662109076976776,0.7324218153953552,100.0,214623.0,1.0
15:42:51.020657,174981.0,168672.625,158638.03125,199140.109375,160535.15625,162975.421875,687096.3125,158559.96875,-0.08349609375,1.002685546875,-0.14208984375,-2.197265386581421,-0.3356933295726776,0.7324218153953552,100.0,214624.0,1.0
15:42:51.023826,174948.90625,168652.5,158624.890625,199153.25,160528.0,162953.4375,687199.5625,158568.296875,-0.082763671875,1.0029296875,-0.14111328125,-2.227782964706421,-0.3356933295726776,0.8544921278953552,100.0,214625.0,1.0
15:42:51.023829,174953.90625,168651.609375,158623.625,199154.046875,160525.234375,162953.96875,687106.9375,158568.5625,-0.08154296875,1.0009765625,-0.14306640625,-2.319335699081421,-0.2136230319738388,0.9460448622703552,100.0,214626.0,1.0
15:42:51.025617,175039.734375,168667.34375,158639.640625,199162.453125,160535.953125,162969.34375,687123.75,158569.71875,-0.080810546875,1.000732421875,-0.142822265625,-2.441406011581421,-0.3051757514476776,1.0681151151657104,100.0,214627.0,1.0
15:42:51.028704,174996.546875,168675.75,158646.078125,199157.0,160539.890625,162976.140625,687103.75,158569.0,-0.080810546875,0.9990234375,-0.14013671875,-2.563476324081421,-0.3356933295726776,1.1291502714157104,100.0,214628.0,1.0
15:42:51.028714,174953.734375,168650.171875,158626.21875,199156.015625,160526.75,162948.96875,687175.625,158571.6875,-0.0791015625,0.999267578125,-0.13623046875,-2.502441167831421,-0.2136230319738388,1.1291502714157104,100.0,214629.0,1.0
15:42:51.030694,174946.9375,168646.609375,158622.296875,199167.203125,160523.796875,162946.109375,687117.125,158579.375,-0.080322265625,0.999755859375,-0.14013671875,-2.532958745956421,-0.0915527269244194,1.0681151151657104,100.0,214630.0,1.0
15:42:51.033217,175029.015625,168659.5625,158628.546875,199156.90625,160527.375,162958.890625,687106.25,158566.953125,-0.07861328125,0.998779296875,-0.138916015625,-2.471923589706421,-0.0915527269244194,1.1596678495407104,100.0,214631.0,1.0
15:42:51.036910,174999.6875,168670.65625,158632.65625,199136.703125,160527.375,162968.546875,687101.6875,158552.203125,-0.0791015625,0.99853515625,-0.142578125,-2.441406011581421,-0.0610351525247097,1.1596678495407104,100.0,214632.0,1.0
15:42:51.047583,174956.140625,168657.234375,158622.65625,199143.0625,160522.28125,162954.15625,687168.9375,158560.0625,-0.078125,0.99658203125,-0.14111328125,-2.471923589706421,-0.0610351525247097,1.1901854276657104,100.0,214633.0,1.0
15:42:51.047602,174934.234375,168646.0625,158615.046875,199150.390625,160516.734375,162944.3125,687147.125,158562.828125,-0.07958984375,0.995849609375,-0.138916015625,-2.502441167831421,0.0,1.2512205839157104,100.0,214634.0,1.0
15:42:51.050074,175015.328125,168659.03125,158627.03125,199154.765625,160523.796875,162957.453125,687108.3125,158562.203125,-0.07763671875,0.995361328125,-0.140380859375,-2.502441167831421,0.0915527269244194,1.0986326932907104,100.0,214635.0,1.0
15:42:51.050106,175009.15625,168666.984375,158632.125,199137.78125,160524.78125,162966.390625,687114.375,158550.140625,-0.0771484375,0.995361328125,-0.134521484375,-2.380370855331421,0.1220703050494194,1.1291502714157104,100.0,214636.0,1.0
15:42:51.057390,174954.984375,168653.21875,158619.609375,199135.453125,160516.734375,162951.640625,687124.75,158553.53125,-0.078125,0.992919921875,-0.13671875,-2.441406011581421,0.2746581733226776,1.0681151151657104,100.0,214637.0,1.0
15:42:51.063760,174924.84375,168637.03125,158606.5625,199145.46875,160507.609375,162935.015625,687161.75,158557.296875,-0.07763671875,0.993408203125,-0.138916015625,-2.410888433456421,0.3051757514476776,0.9765624403953552,100.0,214638.0,1.0
15:42:51.063774,174994.859375,168650.890625,158618.359375,199154.671875,160515.65625,162948.78125,687085.625,158560.0625,-0.0771484375,0.99462890625,-0.138671875,-2.441406011581421,0.4272460639476776,1.0681151151657104,100.0,214639.0,1.0
15:42:51.065683,175022.484375,168666.984375,158630.515625,199148.15625,160524.25,162965.140625,687101.6875,158555.421875,-0.0771484375,0.99267578125,-0.139892578125,-2.319335699081421,0.5187987685203552,1.0070799589157104,100.0,214640.0,1.0
15:42:51.075693,174963.65625,168662.0625,158625.875,199137.328125,160522.375,162960.671875,687109.3125,158553.09375,-0.078125,0.99462890625,-0.14013671875,-2.258300542831421,0.5493163466453552,0.9460448622703552,100.0,214641.0,1.0
15:42:51.080001,174933.078125,168643.109375,158614.515625,199150.75,160516.015625,162941.28125,687177.4375,158563.109375,-0.080322265625,0.994140625,-0.14111328125,-2.105712652206421,0.5187987685203552,0.9155272841453552,100.0,214642.0,1.0
15:42:51.080016,174981.890625,168652.0625,158622.109375,199152.984375,160520.046875,162951.203125,687077.75,158562.03125,-0.078369140625,0.994384765625,-0.139404296875,-2.105712652206421,0.6408690810203552,0.9155272841453552,100.0,214643.0,1.0
15:42:51.087058,175030.53125,168666.625,158632.9375,199148.0625,160525.3125,162964.078125,687106.4375,158553.984375,-0.07568359375,0.99609375,-0.136962890625,-1.9836424589157104,0.7934569716453552,0.9765624403953552,100.0,214644.0,1.0
15:42:51.097520,174976.609375,168670.828125,158633.28125,199140.109375,160525.59375,162965.953125,687101.25,158552.640625,-0.077392578125,0.99560546875,-0.1396484375,-1.9531248807907104,0.7934569716453552,0.9155272841453552,100.0,214645.0,1.0
15:42:51.097531,174947.203125,168652.140625,158621.75,199157.71875,160520.484375,162946.015625,687178.3125,158565.609375,-0.078369140625,0.99755859375,-0.13818359375,-1.8920897245407104,0.8544921278953552,0.9155272841453552,100.0,214646.0,1.0
15:42:51.100056,174973.125,168657.59375,158627.125,199163.703125,160525.859375,162954.859375,687084.3125,158570.4375,-0.078369140625,0.997314453125,-0.14111328125,-1.7700194120407104,0.8544921278953552,1.0070799589157104,100.0,214647.0,1.0
15:42:51.100065,175046.890625,168676.90625,158645.265625,199166.921875,160540.609375,162976.953125,687117.6875,158573.203125,-0.07861328125,0.997802734375,-0.142578125,-1.7089842557907104,0.9460448622703552,1.0070799589157104,100.0,214648.0,1.0
15:42:51.105626,174989.84375,168681.828125,158643.21875,199147.171875,160537.65625,162982.140625,687090.0,158558.1875,-0.08056640625,0.99853515625,-0.142333984375,-1.6174315214157104,0.8544921278953552,1.0681151151657104,100.0,214649.0,1.0
15:42:51.120031,174954.171875,168661.09375,158627.921875,199158.171875,160528.53125,162959.25,687164.75,158566.046875,-0.080810546875,0.99951171875,-0.138671875,-1.5258787870407104,0.8850097060203552,1.0375975370407104,100.0,214650.0,1.0
15:42:51.120042,174950.953125,168654.46875,158620.328125,199149.140625,160520.671875,162953.515625,687081.125,158560.0625,-0.0810546875,0.99951171875,-0.138671875,-1.4953612089157104,0.8850097060203552,0.9460448622703552,100.0,214651.0,1.0
15:42:51.122475,175032.671875,168666.546875,158631.953125,199151.734375,160528.625,162965.765625,687114.0,158559.4375,-0.08154296875,1.000732421875,-0.137451171875,-1.5563963651657104,0.8239745497703552,1.0681151151657104,100.0,214652.0,1.0
15:42:51.122481,174989.21875,168673.6875,158635.875,199141.890625,160530.0625,162973.015625,687091.5,158557.828125,-0.0810546875,0.999755859375,-0.140625,-1.3427733182907104,0.8239745497703552,1.0986326932907104,100.0,214653.0,1.0
15:42:51.124416,174954.359375,168654.828125,158623.546875,199157.546875,160522.546875,162951.90625,687180.625,158567.125,-0.082763671875,1.000732421875,-0.137451171875,-1.3732908964157104,0.7019042372703552,1.1291502714157104,100.0,214654.0,1.0
15:42:51.130707,174938.4375,168645.625,158615.5,199156.203125,160516.46875,162944.671875,687127.25,158563.015625,-0.085205078125,1.001220703125,-0.135498046875,-1.4343260526657104,0.5798339247703552,1.0986326932907104,100.0,214655.0,1.0
15:42:51.138742,175025.609375,168661.53125,158629.796875,199151.1875,160526.75,162961.484375,687111.6875,158558.8125,-0.086181640625,1.001220703125,-0.138916015625,-1.2817381620407104,0.5187987685203552,0.9765624403953552,100.0,214656.0,1.0
