Timestamp,Fz,FC3,FCz,FC4,Cz,C3,C4
15:50:11.404140,168176.40625,165781.640625,163306.859375,195710.1875,154593.515625,159024.171875,687789.9375,152755.046875,-0.061279296875,1.0078125,-0.068359375,-1.2512205839157104,-1.4343260526657104,-0.7934569716453552,100.0,33843.0,1.0
15:50:11.404151,168175.78125,165782.1875,163305.34375,195708.046875,154591.5625,159025.96875,687742.375,152752.546875,-0.061279296875,1.008544921875,-0.065185546875,-1.1901854276657104,-1.4648436307907104,-0.7019042372703552,100.0,33844.0,1.0
15:50:11.406593,168183.390625,165800.6875,163318.03125,195707.0625,154599.15625,159043.3125,687741.75,152749.5,-0.063232421875,1.00830078125,-0.067138671875,-1.1901854276657104,-1.4953612089157104,-0.6713866591453552,100.0,33845.0,1.0
15:50:11.406602,168189.734375,165815.171875,163325.015625,195700.625,154603.359375,159057.25,687749.25,152749.140625,-0.063720703125,1.0087890625,-0.0673828125,-1.0681151151657104,-1.4648436307907104,-0.6408690810203552,100.0,33846.0,1.0
15:50:11.416023,168177.75,165786.921875,163308.828125,195710.0,154594.859375,159031.0625,687813.875,152756.65625,-0.062255859375,1.009033203125,-0.068359375,-0.9765624403953552,-1.4343260526657104,-0.6713866591453552,100.0,33847.0,1.0
15:50:11.420381,168177.390625,165783.609375,163307.578125,195712.515625,154594.953125,159029.625,687755.875,152757.90625,-0.062744140625,1.0068359375,-0.06787109375,-0.9460448622703552,-1.3732908964157104,-0.5798339247703552,100.0,33848.0,1.0
15:50:11.420390,168186.515625,165806.953125,163321.796875,195713.21875,154604.703125,159050.46875,687748.375,152756.203125,-0.06005859375,1.008544921875,-0.068603515625,-0.9765624403953552,-1.4343260526657104,-0.4577636420726776,100.0,33849.0,1.0
15:50:11.430431,168188.65625,165817.140625,163324.734375,195702.5,154605.5,159061.015625,687716.1875,152750.484375,-0.060302734375,1.011474609375,-0.070068359375,-1.0070799589157104,-1.5258787870407104,-0.3356933295726776,100.0,33850.0,1.0
15:50:11.430442,168180.4375,165795.40625,163312.84375,195710.0,154600.859375,159040.984375,687796.75,152757.734375,-0.0634765625,1.009765625,-0.0693359375,-0.9765624403953552,-1.4038084745407104,-0.5187987685203552,100.0,33851.0,1.0
15:50:11.432863,168173.109375,165782.1875,163304.0,195708.390625,154593.171875,159029.0,687766.3125,152753.703125,-0.063720703125,1.007568359375,-0.07177734375,-0.9765624403953552,-1.4038084745407104,-0.4882812201976776,100.0,33852.0,1.0
15:50:11.432877,168181.328125,165796.125,163315.625,195708.75,154600.046875,159041.78125,687744.5,152751.203125,-0.063720703125,1.00634765625,-0.0732421875,-0.9155272841453552,-1.4343260526657104,-0.5187987685203552,100.0,33853.0,1.0
15:50:11.443506,168191.4375,165816.6875,163326.4375,195702.765625,154606.390625,159061.640625,687724.4375,152749.0625,-0.065185546875,1.006103515625,-0.07080078125,-0.9460448622703552,-1.3427733182907104,-0.5798339247703552,100.0,33854.0,1.0
15:50:11.451052,168188.65625,165806.671875,163319.015625,195710.0,154603.890625,159052.25,687807.5625,152756.828125,-0.06787109375,1.00634765625,-0.06982421875,-0.8850097060203552,-1.3732908964157104,-0.6103515028953552,100.0,33855.0,1.0
15:50:11.451062,168180.171875,165788.34375,163305.875,195714.390625,154595.3125,159034.375,687761.4375,152758.09375,-0.06689453125,1.0068359375,-0.071044921875,-0.7629393935203552,-1.5258787870407104,-0.6408690810203552,100.0,33856.0,1.0
15:50:11.451064,168188.484375,165804.0,163316.6875,195714.390625,154602.28125,159048.046875,687751.5,152756.390625,-0.067626953125,1.0068359375,-0.073486328125,-0.7019042372703552,-1.6174315214157104,-0.7324218153953552,100.0,33857.0,1.0
15:50:11.454768,168192.234375,165819.109375,163324.03125,195700.171875,154605.328125,159062.625,687733.4375,152744.140625,-0.06787109375,1.005615234375,-0.07177734375,-0.6103515028953552,-1.6174315214157104,-0.6713866591453552,100.0,33858.0,1.0
15:50:11.461101,168189.828125,165808.90625,163317.59375,195702.40625,154602.734375,159053.046875,687806.0625,152749.5,-0.0654296875,1.005859375,-0.074462890625,-0.5493163466453552,-1.5563963651657104,-0.5798339247703552,100.0,33859.0,1.0
15:50:11.467944,168179.71875,165786.296875,163302.65625,195709.921875,154593.25,159031.234375,687787.5,152752.453125,-0.064208984375,1.00390625,-0.07421875,-0.4577636420726776,-1.4953612089157104,-0.5798339247703552,100.0,33860.0,1.0
15:50:11.467955,168187.3125,165804.890625,163312.21875,195713.140625,154599.328125,159047.421875,687748.125,152753.078125,-0.0634765625,1.00537109375,-0.071533203125,-0.4882812201976776,-1.5563963651657104,-0.5187987685203552,100.0,33861.0,1.0
15:50:11.474084,168196.796875,165825.640625,163325.09375,195710.453125,154606.671875,159067.625,687726.1875,152749.0625,-0.062744140625,1.005615234375,-0.07275390625,-0.5187987685203552,-1.5869139432907104,-0.3967284858226776,100.0,33862.0,1.0
15:50:11.474098,168197.15625,165815.0,163324.296875,195709.5625,154606.9375,159061.546875,687775.25,152752.8125,-0.0625,1.0068359375,-0.07275390625,-0.4882812201976776,-1.5258787870407104,-0.3051757514476776,100.0,33863.0,1.0
15:50:11.481344,168198.578125,165809.09375,163319.640625,195722.875,154606.125,159047.6875,687784.5,152761.21875,-0.06396484375,1.010498046875,-0.072021484375,-0.4272460639476776,-1.5258787870407104,-0.2136230319738388,100.0,33864.0,1.0
15:50:11.515402,168203.046875,165821.4375,163325.8125,195724.046875,154609.796875,159056.453125,687739.1875,152761.3125,-0.0625,1.0107421875,-0.072265625,-0.4577636420726776,-1.4038084745407104,-0.0915527269244194,100.0,33865.0,1.0
15:50:11.515419,168208.859375,165841.1875,163337.078125,195718.671875,154617.84375,159078.171875,687725.75,152757.015625,-0.061767578125,1.012939453125,-0.072509765625,-0.4272460639476776,-1.3732908964157104,0.0915527269244194,100.0,33866.0,1.0
15:50:11.540860,168210.296875,165836.890625,163334.671875,195711.703125,154615.15625,159073.625,687744.0625,152754.78125,-0.062744140625,1.013916015625,-0.073974609375,-0.4882812201976776,-1.3122557401657104,0.2136230319738388,100.0,33867.0,1.0
15:50:11.540878,168203.140625,165806.046875,163321.515625,195724.765625,154609.078125,159043.046875,687782.875,152763.265625,-0.061279296875,1.01318359375,-0.074462890625,-0.6103515028953552,-1.3122557401657104,0.3051757514476776,100.0,33868.0,1.0
15:50:11.569731,168205.640625,165811.859375,163324.734375,195728.78125,154611.140625,159052.609375,687734.5,152765.59375,-0.06103515625,1.0107421875,-0.07568359375,-0.6408690810203552,-1.3122557401657104,0.3662109076976776,100.0,33869.0,1.0
15:50:11.569750,168215.84375,165835.109375,163338.6875,195730.5625,154620.25,159072.546875,687741.1875,152765.515625,-0.060791015625,1.012939453125,-0.07275390625,-0.7629393935203552,-1.1901854276657104,0.3967284858226776,100.0,33870.0,1.0
15:50:11.569753,168210.203125,165833.59375,163333.40625,195713.40625,154613.109375,159069.6875,687758.125,152755.3125,-0.061767578125,1.012451171875,-0.07177734375,-0.8544921278953552,-1.0681151151657104,0.6713866591453552,100.0,33871.0,1.0
15:50:11.572373,168196.34375,165804.890625,163315.078125,195712.421875,154601.921875,159042.765625,687829.625,152752.359375,-0.06201171875,1.011962890625,-0.072021484375,-0.9155272841453552,-1.0681151151657104,0.8239745497703552,100.0,33872.0,1.0
15:50:11.574898,168194.734375,165793.71875,163313.125,195720.015625,154601.390625,159035.171875,687763.375,152758.53125,-0.060546875,1.011962890625,-0.07177734375,-1.0681151151657104,-1.0070799589157104,0.7629393935203552,100.0,33873.0,1.0
15:50:11.588862,168199.296875,165806.328125,163321.796875,195719.125,154606.046875,159045.546875,687752.75,152755.21875,-0.059326171875,1.01025390625,-0.072265625,-1.1596678495407104,-0.8850097060203552,0.7019042372703552,100.0,33874.0,1.0
15:50:11.588890,168207.078125,165832.609375,163330.28125,195706.609375,154610.953125,159066.90625,687723.9375,152749.234375,-0.06005859375,1.013671875,-0.0712890625,-1.2817381620407104,-0.7934569716453552,0.7019042372703552,100.0,33875.0,1.0
15:50:11.588897,168201.53125,165814.90625,163321.4375,195715.28125,154609.96875,159050.46875,687791.9375,152759.078125,-0.060791015625,1.012939453125,-0.07373046875,-1.3122557401657104,-0.7934569716453552,0.7324218153953552,100.0,33876.0,1.0
15:50:11.588902,168191.34375,165800.59375,163310.890625,195715.546875,154602.90625,159038.03125,687761.0625,152757.109375,-0.060546875,1.014404296875,-0.07470703125,-1.4343260526657104,-0.7934569716453552,0.8239745497703552,100.0,33877.0,1.0
15:50:11.589747,168199.5625,165828.3125,163323.484375,195717.78125,154612.484375,159063.15625,687756.5625,152757.28125,-0.060546875,1.014404296875,-0.07177734375,-1.5563963651657104,-0.7019042372703552,0.6713866591453552,100.0,33878.0,1.0
15:50:11.592600,168201.71875,165833.59375,163329.921875,195707.5,154616.953125,159077.640625,687732.8125,152753.078125,-0.058837890625,1.012939453125,-0.07421875,-1.7700194120407104,-0.5493163466453552,0.7324218153953552,100.0,33879.0,1.0
15:50:11.594773,168189.546875,165799.4375,163314.90625,195702.859375,154608.09375,159043.9375,687795.3125,152753.265625,-0.05810546875,1.011962890625,-0.0712890625,-1.8920897245407104,-0.5493163466453552,0.9155272841453552,100.0,33880.0,1.0
15:50:11.597277,168187.765625,165793.53125,163309.359375,195713.578125,154606.484375,159036.609375,687765.0625,152759.96875,-0.058837890625,1.012939453125,-0.07373046875,-1.8920897245407104,-0.5187987685203552,0.8544921278953552,100.0,33881.0,1.0
15:50:11.599739,168194.5625,165816.609375,163321.171875,195717.0625,154615.15625,159059.3125,687743.625,152761.3125,-0.059326171875,1.0126953125,-0.07421875,-1.9836424589157104,-0.3356933295726776,0.8239745497703552,100.0,33882.0,1.0
15:50:11.602244,168190.453125,165817.59375,163322.328125,195703.21875,154613.640625,159063.15625,687717.0625,152750.84375,-0.059326171875,1.01025390625,-0.0712890625,-2.105712652206421,-0.2441406100988388,0.7324218153953552,100.0,33883.0,1.0
15:50:11.605404,168188.484375,165812.40625,163318.21875,195703.296875,154612.484375,159055.921875,687793.5,152753.96875,-0.05615234375,1.011962890625,-0.072509765625,-2.227782964706421,-0.1220703050494194,0.6713866591453552,100.0,33884.0,1.0
15:50:11.607980,168181.15625,165789.953125,163306.140625,195714.296875,154605.6875,159037.40625,687787.25,152759.078125,-0.056884765625,1.01220703125,-0.072509765625,-2.319335699081421,-0.0610351525247097,0.7934569716453552,100.0,33885.0,1.0
15:50:11.609885,168186.6875,165805.421875,163313.921875,195711.53125,154610.15625,159051.71875,687747.625,152754.78125,-0.05810546875,1.009521484375,-0.07373046875,-2.258300542831421,0.03051757626235485,0.6713866591453552,100.0,33886.0,1.0
15:50:11.612783,168190.453125,165821.78125,163323.125,195703.390625,154614.265625,159066.015625,687725.9375,152747.1875,-0.05712890625,1.0078125,-0.073486328125,-2.288818120956421,0.1220703050494194,0.5493163466453552,100.0,33887.0,1.0
15:50:11.615259,168185.625,165812.046875,163316.25,195697.125,154609.703125,159057.96875,687770.625,152747.1875,-0.056640625,1.0087890625,-0.0751953125,-2.380370855331421,0.1220703050494194,0.6713866591453552,100.0,33888.0,1.0
15:50:11.617301,168176.59375,165787.453125,163300.78125,195705.984375,154600.234375,159031.59375,687797.125,152752.453125,-0.058837890625,1.006591796875,-0.076904296875,-2.380370855331421,0.2746581733226776,0.6103515028953552,100.0,33889.0,1.0
15:50:11.620632,168181.0625,165799.265625,163305.25,195706.875,154601.921875,159043.046875,687757.6875,152750.578125,-0.059326171875,1.007080078125,-0.073974609375,-2.349853277206421,0.2746581733226776,0.6408690810203552,100.0,33890.0,1.0
15:50:11.627201,168185.0,165815.4375,163313.75,195699.90625,154605.328125,159060.03125,687754.6875,152742.703125,-0.056884765625,1.0087890625,-0.071533203125,-2.288818120956421,0.3967284858226776,0.5798339247703552,100.0,33891.0,1.0
15:50:11.627228,168182.21875,165814.453125,163309.71875,195689.265625,154601.21875,159060.46875,687757.5,152737.796875,-0.05712890625,1.004638671875,-0.071533203125,-2.288818120956421,0.4882812201976776,0.4882812201976776,100.0,33892.0,1.0
15:50:11.627235,168168.359375,165785.671875,163290.9375,195696.421875,154588.875,159026.953125,687778.875,152740.65625,-0.060302734375,1.0048828125,-0.073974609375,-2.197265386581421,0.5798339247703552,0.5798339247703552,100.0,33893.0,1.0
15:50:11.627241,168166.75,165784.859375,163288.984375,195698.390625,154585.03125,159027.578125,687745.75,152740.65625,-0.059326171875,1.003662109375,-0.074462890625,-2.075195074081421,0.5798339247703552,0.5187987685203552,100.0,33894.0,1.0
15:50:11.630938,168165.953125,165789.953125,163293.0,195686.765625,154585.828125,159036.78125,687762.875,152727.875,-0.062255859375,1.00537109375,-0.0751953125,-2.136230230331421,0.5798339247703552,0.4882812201976776,100.0,33895.0,1.0
15:50:11.630952,168164.34375,165797.65625,163292.375,195670.484375,154584.765625,159044.46875,687757.3125,152720.625,-0.063232421875,1.005859375,-0.072021484375,-2.197265386581421,0.5493163466453552,0.4577636420726776,100.0,33896.0,1.0
15:50:11.630959,168157.8125,165779.234375,163280.84375,195683.359375,154579.21875,159023.90625,687796.125,152729.75,-0.06298828125,1.006103515625,-0.074462890625,-2.075195074081421,0.4882812201976776,0.3662109076976776,100.0,33897.0,1.0
15:50:11.634122,168153.875,165767.875,163274.9375,195682.921875,154572.609375,159008.96875,687745.625,152726.609375,-0.062255859375,1.005615234375,-0.073486328125,-2.075195074081421,0.5798339247703552,0.3967284858226776,100.0,33898.0,1.0
15:50:11.634137,168160.140625,165789.515625,163286.921875,195679.609375,154581.28125,159029.09375,687759.1875,152722.234375,-0.064453125,1.0048828125,-0.073974609375,-2.105712652206421,0.5798339247703552,0.3662109076976776,100.0,33899.0,1.0
15:50:11.635995,168160.5,165790.3125,163289.6875,195668.34375,154582.890625,159036.953125,687734.125,152718.75,-0.063232421875,1.004638671875,-0.072509765625,-2.014159917831421,0.5798339247703552,0.3356933295726776,100.0,33900.0,1.0
15:50:11.638551,168153.34375,165771.28125,163277.984375,195676.203125,154577.4375,159016.046875,687814.25,152725.71875,-0.06640625,1.005126953125,-0.069091796875,-1.9531248807907104,0.3967284858226776,0.3662109076976776,100.0,33901.0,1.0
15:50:11.651167,168152.359375,165771.359375,163274.40625,195682.296875,154575.828125,159014.25,687768.1875,152728.21875,-0.065673828125,1.006591796875,-0.072998046875,-1.9226073026657104,0.3051757514476776,0.4577636420726776,100.0,33902.0,1.0
15:50:11.657264,168158.703125,165786.5625,163286.828125,195683.546875,154583.875,159028.46875,687762.5,152728.046875,-0.066162109375,1.0068359375,-0.07373046875,-1.8920897245407104,0.3356933295726776,0.3662109076976776,100.0,33903.0,1.0
15:50:11.659827,168163.984375,165801.046875,163294.25,195674.6875,154587.71875,159041.515625,687732.625,152722.234375,-0.06640625,1.009765625,-0.072021484375,-1.9226073026657104,0.3051757514476776,0.3051757514476776,100.0,33904.0,1.0
15:50:11.662276,168156.109375,165778.34375,163282.71875,195677.8125,154581.625,159021.578125,687783.625,152727.875,-0.065185546875,1.007568359375,-0.06982421875,-1.9226073026657104,0.3051757514476776,0.2746581733226776,100.0,33905.0,1.0
15:50:11.665960,168155.125,165774.046875,163275.75,195685.859375,154577.96875,159015.953125,687756.25,152733.140625,-0.067138671875,1.0087890625,-0.06787109375,-1.8615721464157104,0.2441406100988388,0.3051757514476776,100.0,33906.0,1.0
15:50:11.665974,168156.734375,165782.984375,163282.265625,195684.34375,154580.46875,159026.765625,687746.6875,152730.1875,-0.06591796875,1.01025390625,-0.06884765625,-1.8920897245407104,0.2136230319738388,0.1831054538488388,100.0,33907.0,1.0
15:50:11.665977,168158.34375,165789.515625,163286.5625,195670.578125,154579.84375,159030.078125,687723.6875,152718.296875,-0.06494140625,1.008544921875,-0.07080078125,-1.8615721464157104,0.0915527269244194,0.2746581733226776,100.0,33908.0,1.0
15:50:11.669750,168153.171875,165776.546875,163278.96875,195670.125,154575.109375,159017.5625,687789.6875,152720.53125,-0.06396484375,1.006591796875,-0.068359375,-1.8615721464157104,0.03051757626235485,0.3051757514476776,100.0,33909.0,1.0
15:50:11.669764,168146.734375,165760.359375,163267.34375,195678.453125,154567.78125,159001.640625,687778.25,152723.3125,-0.06591796875,1.00634765625,-0.071533203125,-1.8310545682907104,-0.1525878757238388,0.3356933295726776,100.0,33910.0,1.0
15:50:11.669767,168153.875,165771.546875,163275.296875,195678.71875,154573.046875,159013.53125,687756.6875,152721.78125,-0.06640625,1.005126953125,-0.07275390625,-1.8310545682907104,-0.1831054538488388,0.3356933295726776,100.0,33911.0,1.0
15:50:11.672304,168164.078125,165790.765625,163288.171875,195673.796875,154580.46875,159030.4375,687741.375,152717.765625,-0.066650390625,1.005615234375,-0.0693359375,-1.7700194120407104,-0.1831054538488388,0.2441406100988388,100.0,33912.0,1.0
15:50:11.679109,168162.90625,165789.875,163285.765625,195671.65625,154578.765625,159029.09375,687754.6875,152719.640625,-0.067626953125,1.005615234375,-0.0732421875,-1.7395018339157104,-0.2441406100988388,0.2136230319738388,100.0,33913.0,1.0
15:50:11.679120,168154.328125,165764.65625,163271.359375,195683.546875,154572.6875,159004.78125,687775.5625,152727.0625,-0.06787109375,1.0048828125,-0.06884765625,-1.7395018339157104,-0.2746581733226776,0.1220703050494194,100.0,33914.0,1.0
15:50:11.686619,168159.875,165777.984375,163277.359375,195685.6875,154575.546875,159016.84375,687743.0,152726.078125,-0.065673828125,1.004638671875,-0.071044921875,-1.6784666776657104,-0.3967284858226776,0.1220703050494194,100.0,33915.0,1.0
15:50:11.686634,168161.65625,165788.625,163283.96875,195678.171875,154577.4375,159027.578125,687729.6875,152718.03125,-0.06640625,1.00634765625,-0.071533203125,-1.5869139432907104,-0.5187987685203552,0.1220703050494194,100.0,33916.0,1.0
15:50:11.696702,168155.671875,165780.03125,163279.328125,195667.09375,154573.578125,159022.296875,687761.0625,152714.09375,-0.066162109375,1.00537109375,-0.0693359375,-1.5563963651657104,-0.6103515028953552,0.0915527269244194,100.0,33917.0,1.0
15:50:11.696717,168151.109375,165763.046875,163269.125,195680.0625,154569.828125,159003.515625,687800.25,152722.59375,-0.065185546875,1.00537109375,-0.071044921875,-1.5869139432907104,-0.6103515028953552,0.1525878757238388,100.0,33918.0,1.0
15:50:11.698554,168152.453125,165764.125,163269.84375,195680.6875,154569.109375,159006.46875,687745.625,152720.890625,-0.066162109375,1.005859375,-0.07177734375,-1.4648436307907104,-0.5187987685203552,0.1220703050494194,100.0,33919.0,1.0
15:50:11.704794,168160.140625,165783.171875,163282.0,195674.59375,154578.234375,159024.984375,687742.75,152715.265625,-0.0654296875,1.005126953125,-0.071533203125,-1.3732908964157104,-0.5493163466453552,0.0915527269244194,100.0,33920.0,1.0
15:50:11.715512,168163.265625,165789.421875,163286.296875,195667.8125,154581.453125,159032.578125,687737.1875,152715.4375,-0.064208984375,1.005126953125,-0.072265625,-1.4038084745407104,-0.5493163466453552,0.1831054538488388,100.0,33921.0,1.0
15:50:11.715651,168160.046875,165773.59375,163277.625,195683.625,154579.484375,159017.5625,687790.6875,152727.875,-0.06201171875,1.00341796875,-0.07177734375,-1.3732908964157104,-0.5187987685203552,0.1525878757238388,100.0,33922.0,1.0
15:50:11.717860,168158.53125,165774.40625,163275.390625,195683.90625,154576.890625,159019.34375,687743.875,152726.4375,-0.061767578125,1.00537109375,-0.07373046875,-1.3122557401657104,-0.5798339247703552,0.1220703050494194,100.0,33923.0,1.0
15:50:11.717878,168163.53125,165789.609375,163285.765625,195680.6875,154582.703125,159034.09375,687766.0,152721.96875,-0.0634765625,1.00732421875,-0.06982421875,-1.3122557401657104,-0.5187987685203552,0.0915527269244194,100.0,33924.0,1.0
15:50:11.727308,168167.65625,165806.953125,163292.375,195669.859375,154587.359375,159049.125,687740.6875,152718.390625,-0.0625,1.006591796875,-0.072509765625,-1.4343260526657104,-0.6103515028953552,0.1831054538488388,100.0,33925.0,1.0
15:50:11.731663,168162.640625,165788.96875,163283.796875,195679.078125,154585.828125,159031.859375,687788.9375,152728.5,-0.06494140625,1.0087890625,-0.073974609375,-1.3732908964157104,-0.5798339247703552,0.0915527269244194,100.0,33926.0,1.0
15:50:11.731693,168154.953125,165772.703125,163272.4375,195678.890625,154576.71875,159017.5625,687755.4375,152725.984375,-0.064453125,1.0087890625,-0.07421875,-1.2817381620407104,-0.5187987685203552,0.2441406100988388,100.0,33927.0,1.0
15:50:11.746603,168158.53125,165786.65625,163280.390625,195674.6875,154580.5625,159031.59375,687770.4375,152719.46875,-0.064453125,1.009521484375,-0.072021484375,-1.2817381620407104,-0.4577636420726776,0.2136230319738388,100.0,33928.0,1.0
15:50:11.746617,168155.671875,165793.359375,163281.296875,195658.234375,154579.125,159039.46875,687741.6875,152707.84375,-0.06494140625,1.00830078125,-0.067626953125,-1.2817381620407104,-0.5187987685203552,0.1831054538488388,100.0,33929.0,1.0
15:50:11.749122,168151.28125,165783.875,163273.15625,195664.046875,154576.71875,159027.578125,687818.75,152715.265625,-0.0634765625,1.0087890625,-0.069091796875,-1.3122557401657104,-0.4577636420726776,0.1525878757238388,100.0,33930.0,1.0
15:50:11.749133,168144.578125,165763.3125,163262.0625,195669.0625,154568.84375,159007.90625,687767.6875,152717.40625,-0.062744140625,1.009521484375,-0.06884765625,-1.3122557401657104,-0.4577636420726776,0.2136230319738388,100.0,33931.0,1.0
15:50:11.759081,168151.640625,165777.890625,163271.90625,195669.765625,154575.546875,159021.765625,687735.875,152716.953125,-0.061767578125,1.01123046875,-0.070068359375,-1.2512205839157104,-0.3967284858226776,0.3662109076976776,100.0,33932.0,1.0
15:50:11.759090,168154.5,165790.859375,163278.515625,195658.859375,154578.5,159034.8125,687720.3125,152708.734375,-0.061279296875,1.010498046875,-0.068603515625,-1.3732908964157104,-0.2746581733226776,0.4577636420726776,100.0,33933.0,1.0
15:50:11.767851,168151.109375,165778.78125,163270.921875,195661.375,154574.484375,159021.84375,687781.0625,152714.640625,-0.062255859375,1.008056640625,-0.069580078125,-1.4953612089157104,-0.2441406100988388,0.4882812201976776,100.0,33934.0,1.0
15:50:11.767865,168145.65625,165760.546875,163260.375,195672.09375,154569.390625,159003.609375,687772.875,152720.53125,-0.062255859375,1.010986328125,-0.070068359375,-1.4038084745407104,-0.2136230319738388,0.5493163466453552,100.0,33935.0,1.0
15:50:11.771683,168152.71875,165775.828125,163270.375,195675.234375,154576.0,159019.609375,687760.625,152721.15625,-0.06103515625,1.01123046875,-0.0703125,-1.4648436307907104,-0.2441406100988388,0.5798339247703552,100.0,33936.0,1.0
15:50:11.771691,168159.609375,165792.90625,163280.84375,195666.90625,154581.546875,159035.078125,687744.5,152713.203125,-0.062255859375,1.012451171875,-0.0693359375,-1.5258787870407104,-0.1525878757238388,0.6713866591453552,100.0,33937.0,1.0
15:50:11.781665,168158.34375,165790.40625,163279.59375,195663.25,154582.078125,159033.828125,687753.3125,152715.171875,-0.060302734375,1.01220703125,-0.067626953125,-1.6174315214157104,-0.0915527269244194,0.7019042372703552,100.0,33938.0,1.0
15:50:11.781683,168154.5,165773.78125,163269.75,195678.265625,154577.875,159015.328125,687791.125,152724.375,-0.060546875,1.011474609375,-0.0732421875,-1.5869139432907104,0.0,0.7324218153953552,100.0,33939.0,1.0
15:50:11.787965,168157.90625,165780.921875,163272.890625,195678.890625,154577.515625,159022.75,687745.875,152722.234375,-0.0615234375,1.009521484375,-0.06982421875,-1.5869139432907104,0.0610351525247097,0.8239745497703552,100.0,33940.0,1.0
15:50:11.787977,168162.46875,165795.0625,163282.546875,195673.34375,154582.796875,159035.984375,687740.5,152716.421875,-0.060791015625,1.010009765625,-0.069580078125,-1.6174315214157104,0.1831054538488388,0.7934569716453552,100.0,33941.0,1.0
15:50:11.789764,168161.84375,165795.234375,163281.921875,195665.65625,154582.53125,159036.328125,687769.1875,152715.984375,-0.059814453125,1.00830078125,-0.070556640625,-1.6174315214157104,0.1831054538488388,0.7324218153953552,100.0,33942.0,1.0
15:50:11.801042,168153.796875,165772.703125,163267.609375,195676.484375,154575.828125,159013.265625,687798.875,152721.609375,-0.05908203125,1.005859375,-0.069091796875,-1.5258787870407104,0.3051757514476776,0.7629393935203552,100.0,33943.0,1.0
15:50:11.817837,168159.421875,165778.34375,163273.515625,195681.484375,154579.390625,159020.328125,687740.25,152723.671875,-0.06103515625,1.00732421875,-0.071044921875,-1.5563963651657104,0.3051757514476776,0.7629393935203552,100.0,33944.0,1.0
15:50:11.817847,168167.734375,165792.734375,163286.75,195680.40625,154588.34375,159034.71875,687729.75,152720.265625,-0.06103515625,1.00927734375,-0.071533203125,-1.6174315214157104,0.5187987685203552,0.8239745497703552,100.0,33945.0,1.0
15:50:11.817848,168172.390625,165802.65625,163292.375,195673.265625,154593.515625,159044.296875,687737.625,152719.546875,-0.060302734375,1.008544921875,-0.069580078125,-1.5869139432907104,0.4882812201976776,0.8544921278953552,100.0,33946.0,1.0
15:50:11.817849,168166.578125,165783.515625,163283.796875,195689.171875,154590.84375,159024.09375,687794.6875,152731.09375,-0.060302734375,1.0048828125,-0.070556640625,-1.5258787870407104,0.6713866591453552,0.8544921278953552,100.0,33947.0,1.0
15:50:11.819824,168163.453125,165778.96875,163278.609375,195688.453125,154585.65625,159020.59375,687750.5,152728.40625,-0.060302734375,1.00390625,-0.0703125,-1.5258787870407104,0.7324218153953552,0.9155272841453552,100.0,33948.0,1.0
15:50:11.822536,168166.21875,165788.171875,163285.21875,195685.59375,154588.515625,159029.453125,687743.375,152722.6875,-0.059326171875,1.004150390625,-0.0712890625,-1.4648436307907104,0.7019042372703552,0.9155272841453552,100.0,33949.0,1.0
15:50:11.824827,168164.15625,165793.0,163284.5,195670.484375,154584.140625,159034.546875,687734.6875,152713.5625,-0.057861328125,1.00390625,-0.069580078125,-1.4648436307907104,0.7934569716453552,1.0681151151657104,100.0,33950.0,1.0
15:50:11.827279,168158.703125,165778.6875,163275.5625,195677.28125,154579.671875,159019.34375,687808.8125,152721.515625,-0.057861328125,1.004638671875,-0.073486328125,-1.3427733182907104,0.8239745497703552,1.0681151151657104,100.0,33951.0,1.0
15:50:11.844193,168156.203125,165772.703125,163269.75,195680.59375,154576.0,159014.25,687761.125,152721.703125,-0.058349609375,1.005126953125,-0.07177734375,-1.2817381620407104,0.9460448622703552,1.1901854276657104,100.0,33952.0,1.0
15:50:11.844270,168162.828125,165788.96875,163280.3125,195679.609375,154583.15625,159030.53125,687756.75,152718.75,-0.058349609375,1.0048828125,-0.06884765625,-1.3122557401657104,0.9765624403953552,1.2817381620407104,100.0,33953.0,1.0
15:50:11.844297,168166.9375,165802.296875,163287.8125,195669.59375,154588.609375,159043.125,687734.4375,152713.734375,-0.059814453125,1.005126953125,-0.070556640625,-1.1901854276657104,1.0375975370407104,1.1291502714157104,100.0,33954.0,1.0
15:50:11.844318,168162.28125,165789.421875,163280.9375,195676.03125,154586.375,159028.46875,687802.0,152721.078125,-0.060791015625,1.007080078125,-0.0732421875,-1.3732908964157104,0.9765624403953552,1.0681151151657104,100.0,33955.0,1.0
15:50:11.854238,168152.453125,165773.953125,163266.890625,195677.109375,154576.625,159012.28125,687768.1875,152718.21875,-0.06103515625,1.005615234375,-0.069091796875,-1.2207030057907104,1.0681151151657104,1.1596678495407104,100.0,33956.0,1.0
15:50:11.854304,168153.609375,165780.296875,163270.828125,195672.453125,154577.703125,159020.953125,687738.25,152712.125,-0.063232421875,1.0078125,-0.067138671875,-1.3122557401657104,1.0375975370407104,1.0986326932907104,100.0,33957.0,1.0
15:50:11.895424,168153.96875,165784.328125,163275.390625,195662.796875,154578.0625,159027.578125,687718.625,152706.046875,-0.063232421875,1.00634765625,-0.0693359375,-1.2207030057907104,1.1291502714157104,1.1291502714157104,100.0,33958.0,1.0
15:50:11.895451,168150.484375,165774.9375,163270.203125,195663.6875,154576.625,159018.1875,687803.0625,152712.578125,-0.06298828125,1.00830078125,-0.070068359375,-1.1901854276657104,1.0375975370407104,1.0986326932907104,100.0,33959.0,1.0
15:50:11.906898,168141.28125,165758.40625,163257.78125,195670.484375,154569.921875,159000.84375,687781.875,152716.15625,-0.06201171875,1.009033203125,-0.06787109375,-1.1901854276657104,0.9460448622703552,1.1596678495407104,100.0,33960.0,1.0
15:50:11.908712,168143.328125,165767.703125,163263.765625,195667.53125,154572.953125,159012.640625,687753.5625,152713.03125,-0.062255859375,1.00830078125,-0.071533203125,-1.1901854276657104,1.0375975370407104,1.1596678495407104,100.0,33961.0,1.0
15:50:11.911225,168149.671875,165784.78125,163274.5,195662.0,154579.484375,159028.640625,687733.1875,152708.46875,-0.0625,1.009521484375,-0.0693359375,-1.0986326932907104,1.0070799589157104,1.0986326932907104,100.0,33962.0,1.0
15:50:11.913912,168147.625,165782.1875,163270.65625,195658.59375,154576.71875,159024.796875,687778.5,152710.25,-0.06396484375,1.009521484375,-0.072265625,-1.1291502714157104,1.0681151151657104,1.0986326932907104,100.0,33963.0,1.0
15:50:11.916363,168138.5,165760.1875,163256.4375,195668.515625,154569.5625,159002.265625,687782.0625,152714.90625,-0.0654296875,1.007568359375,-0.0712890625,-1.0070799589157104,1.0375975370407104,1.0681151151657104,100.0,33964.0,1.0
15:50:11.918880,168141.0,165767.875,163259.921875,195667.890625,154571.796875,159010.578125,687743.5625,152712.765625,-0.06591796875,1.00634765625,-0.06884765625,-1.0070799589157104,0.9765624403953552,1.0681151151657104,100.0,33965.0,1.0
15:50:11.921879,168146.28125,165779.046875,163270.296875,195662.984375,154579.125,159022.828125,687736.5,152709.09375,-0.065673828125,1.00732421875,-0.071533203125,-0.9460448622703552,0.9765624403953552,1.0375975370407104,100.0,33966.0,1.0
15:50:11.923699,168150.578125,165786.65625,163274.671875,195659.671875,154583.234375,159030.96875,687755.8125,152712.765625,-0.06591796875,1.007568359375,-0.0703125,-0.9460448622703552,0.8850097060203552,0.8239745497703552,100.0,33967.0,1.0
15:50:11.926342,168138.59375,165761.890625,163258.40625,195667.890625,154574.390625,159006.203125,687805.3125,152718.21875,-0.06787109375,1.007080078125,-0.06982421875,-0.8850097060203552,0.8544921278953552,0.7629393935203552,100.0,33968.0,1.0
15:50:11.928690,168135.015625,165759.203125,163254.640625,195664.59375,154570.1875,159005.3125,687746.375,152714.09375,-0.069091796875,1.008056640625,-0.07177734375,-0.9155272841453552,0.7324218153953552,0.7324218153953552,100.0,33969.0,1.0
15:50:11.931339,168142.703125,165777.359375,163266.984375,195661.90625,154577.15625,159022.65625,687741.5625,152711.328125,-0.068115234375,1.008544921875,-0.069580078125,-0.8239745497703552,0.7324218153953552,0.6713866591453552,100.0,33970.0,1.0
15:50:11.933692,168142.25,165785.40625,163269.046875,195649.828125,154576.53125,159030.703125,687748.5625,152706.5,-0.067626953125,1.009765625,-0.068359375,-0.8850097060203552,0.5798339247703552,0.6713866591453552,100.0,33971.0,1.0
15:50:11.936268,168132.15625,165759.109375,163253.03125,195657.25,154568.046875,159003.875,687813.125,152711.953125,-0.06689453125,1.010009765625,-0.06982421875,-0.9460448622703552,0.3662109076976776,0.5798339247703552,100.0,33972.0,1.0
15:50:11.939998,168126.4375,165749.71875,163244.8125,195654.578125,154560.625,158995.46875,687751.75,152706.59375,-0.066650390625,1.009765625,-0.068115234375,-1.0070799589157104,0.3051757514476776,0.5187987685203552,100.0,33973.0,1.0
15:50:11.940064,168129.734375,165764.03125,163253.65625,195651.171875,154565.453125,159008.890625,687743.0625,152700.78125,-0.06689453125,1.007080078125,-0.068115234375,-0.8850097060203552,0.2441406100988388,0.4882812201976776,100.0,33974.0,1.0
15:50:11.940088,168133.671875,165773.0625,163259.828125,195641.78125,154568.046875,159017.5625,687720.5,152697.109375,-0.064453125,1.00927734375,-0.069580078125,-0.8544921278953552,0.0610351525247097,0.5798339247703552,100.0,33975.0,1.0
15:50:11.943385,168127.0625,165753.03125,163248.484375,195650.28125,154562.59375,158997.171875,687798.4375,152705.15625,-0.064453125,1.007568359375,-0.069091796875,-0.8239745497703552,0.0915527269244194,0.6408690810203552,100.0,33976.0,1.0
15:50:11.943463,168121.34375,165745.4375,163239.796875,195653.234375,154556.0625,158990.109375,687759.8125,152705.25,-0.062744140625,1.008544921875,-0.071533203125,-0.7934569716453552,-0.03051757626235485,0.7019042372703552,100.0,33977.0,1.0
15:50:11.945524,168128.3125,165761.4375,163251.609375,195653.6875,154564.640625,159006.5625,687748.5625,152704.171875,-0.064208984375,1.009033203125,-0.069091796875,-0.7934569716453552,-0.0915527269244194,0.7934569716453552,100.0,33978.0,1.0
15:50:11.947806,168131.96875,165775.125,163258.21875,195640.890625,154567.328125,159019.796875,687721.375,152697.015625,-0.0634765625,1.0087890625,-0.072265625,-0.7629393935203552,-0.0610351525247097,0.8850097060203552,100.0,33979.0,1.0
15:50:11.949963,168130.015625,165761.53125,163252.046875,195648.21875,154565.625,159006.109375,687788.625,152706.046875,-0.0615234375,1.01025390625,-0.069091796875,-0.7934569716453552,-0.1220703050494194,0.9155272841453552,100.0,33980.0,1.0
15:50:11.952571,168129.203125,165752.859375,163246.875,195660.5625,154563.921875,158997.359375,687773.125,152712.578125,-0.0595703125,1.00927734375,-0.06787109375,-0.8239745497703552,-0.1525878757238388,1.0681151151657104,100.0,33981.0,1.0
15:50:11.956591,168129.921875,165760.359375,163252.328125,195656.984375,154565.265625,159006.390625,687752.75,152706.765625,-0.061279296875,1.00634765625,-0.0673828125,-0.8544921278953552,-0.1831054538488388,1.0375975370407104,100.0,33982.0,1.0
15:50:11.958279,168132.6875,165773.59375,163258.578125,195644.921875,154568.046875,159018.625,687728.25,152697.015625,-0.060791015625,1.0048828125,-0.068115234375,-0.8544921278953552,-0.1831054538488388,1.0681151151657104,100.0,33983.0,1.0
15:50:11.958342,168131.265625,165766.71875,163252.671875,195645.90625,154564.828125,159010.234375,687768.9375,152701.140625,-0.06298828125,1.007080078125,-0.06787109375,-0.8239745497703552,-0.2136230319738388,1.0986326932907104,100.0,33984.0,1.0
15:50:11.961145,168126.875,165753.484375,163242.21875,195654.9375,154559.015625,158995.46875,687773.0625,152705.25,-0.0615234375,1.0087890625,-0.068603515625,-0.9460448622703552,-0.0915527269244194,1.0375975370407104,100.0,33985.0,1.0
15:50:11.969553,168130.546875,165759.734375,163248.828125,195655.5625,154563.484375,159005.9375,687752.125,152704.71875,-0.06103515625,1.009765625,-0.07177734375,-0.9155272841453552,-0.1220703050494194,1.1291502714157104,100.0,33986.0,1.0
15:50:11.969648,168138.953125,165775.828125,163261.53125,195652.15625,154571.34375,159022.03125,687735.9375,152700.953125,-0.062744140625,1.0078125,-0.06982421875,-0.9765624403953552,-0.3051757514476776,0.8850097060203552,100.0,33987.0,1.0
15:50:11.976061,168138.59375,165775.296875,163260.015625,195648.671875,154571.0,159020.515625,687765.5625,152703.375,-0.060546875,1.006591796875,-0.068115234375,-1.0070799589157104,-0.3051757514476776,0.9155272841453552,100.0,33988.0,1.0
15:50:11.980442,168136.0,165761.96875,163251.875,195663.0625,154568.3125,159004.78125,687793.25,152713.203125,-0.06201171875,1.0087890625,-0.071533203125,-1.0681151151657104,-0.1831054538488388,0.7934569716453552,100.0,33989.0,1.0
15:50:11.980519,168140.734375,165766.0,163257.234375,195667.0,154572.0625,159012.015625,687749.6875,152716.421875,-0.061767578125,1.0078125,-0.072998046875,-1.0070799589157104,-0.1525878757238388,0.7629393935203552,100.0,33990.0,1.0
15:50:11.989918,168141.359375,165776.90625,163264.484375,195659.140625,154575.109375,159021.84375,687741.8125,152708.375,-0.060302734375,1.005859375,-0.0712890625,-1.0070799589157104,-0.2136230319738388,0.6713866591453552,100.0,33991.0,1.0
15:50:11.994345,168140.109375,165777.984375,163262.875,195651.0,154573.765625,159023.28125,687755.0625,152705.78125,-0.059814453125,1.005615234375,-0.071533203125,-1.0375975370407104,-0.1525878757238388,0.5187987685203552,100.0,33992.0,1.0
15:50:11.994382,168136.171875,165760.640625,163253.125,195666.46875,154570.015625,159004.421875,687784.5,152716.875,-0.057373046875,1.00732421875,-0.069580078125,-1.0986326932907104,-0.2136230319738388,0.4272460639476776,100.0,33993.0,1.0
15:50:11.997036,168139.9375,165764.65625,163256.078125,195669.234375,154570.8125,159009.15625,687740.5625,152718.21875,-0.057861328125,1.006103515625,-0.07421875,-0.9460448622703552,-0.0915527269244194,0.5187987685203552,100.0,33994.0,1.0
15:50:12.014942,168145.203125,165779.671875,163267.078125,195667.0,154578.0625,159022.921875,687745.25,152715.0,-0.05712890625,1.004638671875,-0.0732421875,-0.9765624403953552,-0.0610351525247097,0.4577636420726776,100.0,33995.0,1.0
15:50:12.018981,168144.046875,165782.265625,163266.265625,195652.96875,154575.546875,159025.421875,687743.5625,152707.125,-0.057861328125,1.0048828125,-0.072265625,-0.9765624403953552,0.03051757626235485,0.4272460639476776,100.0,33996.0,1.0
15:50:12.019018,168137.78125,165762.0625,163255.1875,195663.15625,154571.34375,159005.3125,687830.625,152715.625,-0.057861328125,1.0048828125,-0.07275390625,-0.9460448622703552,0.1220703050494194,0.5187987685203552,100.0,33997.0,1.0
15:50:12.019032,168136.171875,165759.5625,163252.140625,195664.859375,154569.828125,159004.328125,687759.4375,152715.890625,-0.055908203125,1.005126953125,-0.073486328125,-0.9155272841453552,0.1525878757238388,0.4882812201976776,100.0,33998.0,1.0
15:50:12.021106,168144.671875,165778.15625,163265.640625,195666.734375,154579.125,159022.390625,687753.1875,152715.4375,-0.055419921875,1.00439453125,-0.07275390625,-0.7934569716453552,0.2441406100988388,0.4272460639476776,100.0,33999.0,1.0
15:50:12.023556,168147.359375,165787.8125,163271.0,195657.34375,154581.625,159032.84375,687729.125,152710.96875,-0.056884765625,1.00390625,-0.073486328125,-0.7629393935203552,0.2746581733226776,0.5187987685203552,100.0,34000.0,1.0
15:50:12.027268,168135.8125,165764.390625,163254.828125,195662.53125,154572.25,159009.6875,687786.375,152715.890625,-0.05810546875,1.0048828125,-0.0703125,-0.6408690810203552,0.3356933295726776,0.5798339247703552,100.0,34001.0,1.0
15:50:12.037284,168128.21875,165752.40625,163244.546875,195664.140625,154565.265625,158997.984375,687757.6875,152715.265625,-0.05712890625,1.00341796875,-0.072998046875,-0.6103515028953552,0.4272460639476776,0.5798339247703552,100.0,34002.0,1.0
15:50:12.040392,168133.859375,165768.6875,163255.453125,195665.484375,154572.421875,159013.359375,687752.0625,152714.90625,-0.0576171875,1.001953125,-0.072998046875,-0.5798339247703552,0.4272460639476776,0.5798339247703552,100.0,34003.0,1.0
15:50:12.040403,168134.203125,165776.453125,163258.765625,195651.625,154571.34375,159022.390625,687725.75,152705.609375,-0.0595703125,1.005615234375,-0.07177734375,-0.5493163466453552,0.3967284858226776,0.6103515028953552,100.0,34004.0,1.0
15:50:12.048050,168130.640625,165766.890625,163252.765625,195656.1875,154569.296875,159012.109375,687808.25,152711.234375,-0.060546875,1.00634765625,-0.072265625,-0.5187987685203552,0.3967284858226776,0.7324218153953552,100.0,34005.0,1.0
15:50:12.048082,168123.21875,165749.640625,163240.4375,195658.6875,154561.25,158995.390625,687774.375,152710.515625,-0.0625,1.0087890625,-0.0751953125,-0.5187987685203552,0.3967284858226776,0.6713866591453552,100.0,34006.0,1.0
15:50:12.055385,168128.484375,165762.0625,163247.84375,195657.875,154565.359375,159007.453125,687753.125,152706.765625,-0.0625,1.00830078125,-0.07373046875,-0.4577636420726776,0.4272460639476776,0.6713866591453552,100.0,34007.0,1.0
15:50:12.055399,168130.90625,165774.140625,163253.578125,195645.546875,154567.0625,159019.34375,687726.0,152696.671875,-0.06298828125,1.00732421875,-0.072265625,-0.4577636420726776,0.4272460639476776,0.6713866591453552,100.0,34008.0,1.0
15:50:12.061619,168128.125,165763.5,163248.03125,195645.09375,154563.578125,159008.171875,687764.3125,152699.890625,-0.0625,1.00830078125,-0.07373046875,-0.4272460639476776,0.3662109076976776,0.6408690810203552,100.0,34009.0,1.0
15:50:12.061640,168124.5625,165748.03125,163238.28125,195655.921875,154558.125,158992.078125,687765.4375,152704.71875,-0.0625,1.01025390625,-0.072509765625,-0.4272460639476776,0.2136230319738388,0.6103515028953552,100.0,34010.0,1.0
15:50:12.063514,168130.984375,165761.796875,163247.046875,195656.8125,154562.140625,159004.6875,687736.3125,152705.6875,-0.062744140625,1.011474609375,-0.07275390625,-0.3662109076976776,0.2136230319738388,0.5493163466453552,100.0,34011.0,1.0
15:50:12.073565,168137.421875,165776.453125,163258.40625,195651.625,154569.109375,159018.1875,687732.75,152702.296875,-0.06298828125,1.01220703125,-0.072509765625,-0.3356933295726776,0.0610351525247097,0.5187987685203552,100.0,34012.0,1.0
15:50:12.080410,168134.5625,165769.671875,163253.84375,195646.34375,154566.25,159011.03125,687783.75,152702.921875,-0.062744140625,1.01171875,-0.070068359375,-0.3967284858226776,0.0915527269244194,0.5798339247703552,100.0,34013.0,1.0
15:50:12.080457,168126.875,165748.828125,163240.96875,195656.265625,154560.078125,158991.625,687806.6875,152708.109375,-0.06298828125,1.0107421875,-0.070556640625,-0.5187987685203552,0.0915527269244194,0.6103515028953552,100.0,34014.0,1.0
15:50:12.093309,168128.484375,165755.890625,163244.546875,195656.265625,154561.96875,158999.671875,687744.8125,152706.859375,-0.063720703125,1.01123046875,-0.07373046875,-0.5187987685203552,0.03051757626235485,0.5187987685203552,100.0,34015.0,1.0
15:50:12.093331,168135.546875,165774.9375,163255.984375,195651.4375,154568.671875,159015.140625,687727.5625,152701.21875,-0.062744140625,1.011962890625,-0.070556640625,-0.7019042372703552,-0.1220703050494194,0.4272460639476776,100.0,34016.0,1.0
15:50:12.093337,168137.078125,165780.578125,163256.4375,195643.75,154568.9375,159019.53125,687750.625,152700.78125,-0.0615234375,1.0126953125,-0.073974609375,-0.7934569716453552,-0.1220703050494194,0.4577636420726776,100.0,34017.0,1.0
15:50:12.093342,168127.234375,165751.6875,163240.96875,195653.59375,154560.703125,158991.984375,687799.75,152707.484375,-0.061767578125,1.010498046875,-0.076171875,-0.7324218153953552,-0.1831054538488388,0.4577636420726776,100.0,34018.0,1.0
15:50:12.099047,168125.625,165752.140625,163239.0,195651.796875,154557.5,158993.59375,687736.3125,152704.171875,-0.059814453125,1.010009765625,-0.07470703125,-0.7629393935203552,-0.2136230319738388,0.6408690810203552,100.0,34019.0,1.0
15:50:12.107854,168130.015625,165768.953125,163249.8125,195647.953125,154564.90625,159009.6875,687724.9375,152698.09375,-0.059326171875,1.0087890625,-0.072509765625,-0.7934569716453552,-0.2136230319738388,0.6713866591453552,100.0,34020.0,1.0
15:50:12.107867,168129.03125,165772.34375,163249.8125,195636.328125,154563.921875,159013.984375,687743.1875,152692.734375,-0.0615234375,1.00927734375,-0.072509765625,-0.8544921278953552,-0.2441406100988388,0.6103515028953552,100.0,34021.0,1.0
15:50:12.109792,168120.625,165749.375,163237.390625,195647.953125,154559.109375,158991.625,687801.375,152702.03125,-0.060791015625,1.00927734375,-0.076904296875,-0.7934569716453552,-0.2441406100988388,0.6408690810203552,100.0,34022.0,1.0
15:50:12.117346,168122.671875,165750.078125,163238.28125,195654.578125,154560.625,158994.046875,687741.6875,152705.421875,-0.060791015625,1.008544921875,-0.07421875,-0.8239745497703552,-0.1220703050494194,0.6408690810203552,100.0,34023.0,1.0
15:50:12.121966,168130.640625,165765.375,163250.359375,195654.75,154569.296875,159009.15625,687743.375,152703.8125,-0.059326171875,1.007080078125,-0.07470703125,-0.9155272841453552,-0.2136230319738388,0.6408690810203552,100.0,34024.0,1.0
15:50:12.122027,168137.703125,165781.734375,163258.40625,195645.359375,154574.390625,159024.171875,687727.0625,152700.515625,-0.0576171875,1.00830078125,-0.077880859375,-0.8544921278953552,-0.2746581733226776,0.7324218153953552,100.0,34025.0,1.0
15:50:12.127332,168134.65625,165766.53125,163251.421875,195656.09375,154572.15625,159007.28125,687813.375,152710.171875,-0.056884765625,1.004638671875,-0.076416015625,-0.8850097060203552,-0.1831054538488388,0.7019042372703552,100.0,34026.0,1.0
15:50:12.140324,168133.671875,165755.984375,163246.421875,195662.359375,154568.671875,158998.0625,687768.125,152711.328125,-0.05712890625,1.00537109375,-0.075439453125,-0.9460448622703552,-0.1831054538488388,0.5798339247703552,100.0,34027.0,1.0
15:50:12.140340,168137.34375,165767.34375,163254.28125,195657.796875,154573.671875,159009.6875,687761.25,152704.53125,-0.060791015625,1.00341796875,-0.076171875,-0.9155272841453552,-0.2136230319738388,0.6103515028953552,100.0,34028.0,1.0
15:50:12.168716,168137.515625,165779.765625,163258.3125,195642.421875,154572.953125,159019.890625,687721.0,152694.421875,-0.060302734375,1.006591796875,-0.07861328125,-0.8544921278953552,-0.1525878757238388,0.5798339247703552,100.0,34029.0,1.0
15:50:12.168736,168135.109375,165765.1875,163251.421875,195650.109375,154570.90625,159004.859375,687801.3125,152704.265625,-0.063232421875,1.00634765625,-0.0791015625,-0.8544921278953552,-0.1831054538488388,0.4272460639476776,100.0,34030.0,1.0
15:50:12.177698,168131.171875,165750.171875,163243.203125,195657.609375,154565.625,158990.5625,687782.875,152707.84375,-0.0634765625,1.0068359375,-0.078125,-0.9460448622703552,-0.2136230319738388,0.4272460639476776,100.0,34031.0,1.0
15:50:12.177714,168134.84375,165761.703125,163250.171875,195656.265625,154569.109375,159002.8125,687745.4375,152703.015625,-0.062744140625,1.007080078125,-0.07763671875,-0.8850097060203552,-0.2441406100988388,0.3051757514476776,100.0,34032.0,1.0
15:50:12.177718,168136.453125,165773.421875,163255.8125,195645.546875,154570.8125,159014.25,687718.875,152693.625,-0.063720703125,1.00732421875,-0.074462890625,-0.9155272841453552,-0.2136230319738388,0.1831054538488388,100.0,34033.0,1.0
15:50:12.177744,168134.84375,165767.34375,163251.421875,195647.59375,154569.109375,159007.546875,687782.875,152699.53125,-0.0625,1.011474609375,-0.073974609375,-0.8850097060203552,-0.1831054538488388,0.1220703050494194,100.0,34034.0,1.0
15:50:12.177753,168129.5625,165751.25,163240.875,195656.984375,154562.671875,158991.1875,687761.25,152704.71875,-0.05908203125,1.010986328125,-0.076171875,-0.9155272841453552,-0.2136230319738388,0.1220703050494194,100.0,34035.0,1.0
15:50:12.179110,168137.78125,165765.375,163251.25,195659.484375,154570.71875,159005.21875,687740.9375,152705.421875,-0.060791015625,1.01123046875,-0.07470703125,-1.1291502714157104,-0.2136230319738388,0.1220703050494194,100.0,34036.0,1.0
15:50:12.179124,168142.4375,165779.234375,163261.0,195652.25,154575.640625,159018.625,687726.125,152698.453125,-0.05908203125,1.012939453125,-0.07666015625,-1.1291502714157104,-0.2746581733226776,0.2441406100988388,100.0,34037.0,1.0
15:50:12.185918,168137.515625,165773.328125,163254.5625,195644.296875,154570.71875,159013.53125,687763.9375,152696.671875,-0.058349609375,1.013671875,-0.077880859375,-1.0986326932907104,-0.1831054538488388,0.2746581733226776,100.0,34038.0,1.0
15:50:12.185964,168132.515625,165755.359375,163244.546875,195657.4375,154567.140625,158994.5,687816.5625,152706.046875,-0.057373046875,1.013427734375,-0.07958984375,-1.1901854276657104,-0.1220703050494194,0.3051757514476776,100.0,34039.0,1.0
15:50:12.185977,168137.25,165764.921875,163249.8125,195656.8125,154570.640625,159005.3125,687756.4375,152703.90625,-0.058349609375,1.011474609375,-0.074951171875,-1.2207030057907104,-0.0915527269244194,0.3662109076976776,100.0,34040.0,1.0
15:50:12.186008,168139.9375,165780.390625,163257.859375,195646.890625,154575.28125,159019.703125,687745.625,152695.5,-0.05908203125,1.0107421875,-0.074462890625,-1.3122557401657104,-0.1220703050494194,0.4882812201976776,100.0,34041.0,1.0
15:50:12.193530,168136.796875,165782.453125,163257.421875,195636.875,154575.828125,159023.90625,687735.6875,152695.765625,-0.060791015625,1.01171875,-0.078125,-1.3732908964157104,-0.0915527269244194,0.4882812201976776,100.0,34042.0,1.0
15:50:12.201782,168121.25,165751.875,163234.96875,195643.578125,154560.171875,158992.796875,687791.0,152697.46875,-0.062744140625,1.01123046875,-0.076416015625,-1.4343260526657104,-0.2136230319738388,0.3967284858226776,100.0,34043.0,1.0
15:50:12.201823,168119.375,165745.171875,163227.734375,195641.78125,154550.609375,158986.453125,687738.4375,152689.953125,-0.059814453125,1.01123046875,-0.0751953125,-1.5563963651657104,-0.1220703050494194,0.5187987685203552,100.0,34044.0,1.0
15:50:12.204081,168128.671875,165764.84375,163243.203125,195641.25,154561.6875,159006.921875,687729.0625,152688.4375,-0.06103515625,1.01171875,-0.076904296875,-1.6174315214157104,-0.1525878757238388,0.6408690810203552,100.0,34045.0,1.0
15:50:12.204104,168131.265625,165772.078125,163248.921875,195633.921875,154565.53125,159013.625,687737.1875,152688.265625,-0.0615234375,1.01123046875,-0.077392578125,-1.7089842557907104,-0.1220703050494194,0.7019042372703552,100.0,34046.0,1.0
15:50:12.216127,168123.03125,165752.3125,163237.21875,195643.21875,154561.34375,158992.609375,687805.3125,152695.140625,-0.06298828125,1.010986328125,-0.073486328125,-1.7700194120407104,-0.03051757626235485,0.6103515028953552,100.0,34047.0,1.0
15:50:12.219160,168121.421875,165750.078125,163233.71875,195644.65625,154557.3125,158990.46875,687750.3125,152693.09375,-0.0625,1.011962890625,-0.073974609375,-1.7700194120407104,-0.0915527269244194,0.5493163466453552,100.0,34048.0,1.0
15:50:12.219202,168130.359375,165766.984375,163246.328125,195646.078125,154565.359375,159006.390625,687755.0,152692.015625,-0.061767578125,1.01123046875,-0.076904296875,-1.8920897245407104,-0.1831054538488388,0.7019042372703552,100.0,34049.0,1.0
15:50:12.221191,168133.140625,165774.21875,163249.734375,195636.15625,154565.890625,159012.640625,687735.5625,152688.0,-0.06201171875,1.01025390625,-0.07568359375,-1.9226073026657104,-0.2746581733226776,0.6103515028953552,100.0,34050.0,1.0
15:50:12.271674,168129.734375,165759.46875,163242.484375,195650.109375,154565.71875,158997.4375,687794.5,152702.5625,-0.06103515625,1.01171875,-0.07177734375,-1.9836424589157104,-0.3051757514476776,0.5493163466453552,100.0,34051.0,1.0
15:50:12.271707,168125.359375,165748.75,163235.609375,195653.140625,154562.046875,158989.390625,687764.9375,152704.078125,-0.059814453125,1.012939453125,-0.07421875,-2.044677495956421,-0.2136230319738388,0.5187987685203552,100.0,34052.0,1.0
15:50:12.273775,168128.75,165760.8125,163243.109375,195649.828125,154565.453125,159001.28125,687751.4375,152699.078125,-0.059326171875,1.0107421875,-0.076416015625,-2.044677495956421,-0.2136230319738388,0.5798339247703552,100.0,34053.0,1.0
15:50:12.280010,168130.359375,165772.171875,163246.953125,195637.140625,154566.078125,159011.75,687723.25,152689.78125,-0.059814453125,1.010009765625,-0.0732421875,-2.288818120956421,-0.1831054538488388,0.5493163466453552,100.0,34054.0,1.0
15:50:12.284560,168124.28125,165756.34375,163237.125,195639.375,154560.796875,158996.375,687809.6875,152693.890625,-0.06005859375,1.009765625,-0.073486328125,-2.349853277206421,-0.1220703050494194,0.4882812201976776,100.0,34055.0,1.0
15:50:12.284797,168120.0,165744.265625,163228.0,195645.359375,154554.453125,158984.203125,687775.0,152695.6875,-0.05859375,1.009521484375,-0.070556640625,-2.380370855331421,-0.1525878757238388,0.5187987685203552,100.0,34056.0,1.0
15:50:12.287240,168127.59375,165760.640625,163238.28125,195645.28125,154559.8125,158999.671875,687748.375,152693.890625,-0.060302734375,1.00927734375,-0.072021484375,-2.441406011581421,-0.1525878757238388,0.4577636420726776,100.0,34057.0,1.0
15:50:12.289954,168130.984375,165773.78125,163246.0625,195634.375,154563.484375,159012.828125,687724.9375,152686.03125,-0.05908203125,1.0068359375,-0.07373046875,-2.441406011581421,-0.0915527269244194,0.4577636420726776,100.0,34058.0,1.0
15:50:12.292312,168128.40625,165763.3125,163240.515625,195636.875,154560.53125,159002.625,687786.8125,152690.671875,-0.0595703125,1.00634765625,-0.07421875,-2.441406011581421,-0.0915527269244194,0.3967284858226776,100.0,34059.0,1.0
15:50:12.294857,168119.1875,165744.265625,163227.28125,195647.15625,154552.21875,158983.40625,687789.875,152694.515625,-0.059326171875,1.00341796875,-0.0751953125,-2.410888433456421,-0.0915527269244194,0.3662109076976776,100.0,34060.0,1.0
15:50:12.303170,168125.984375,165756.078125,163237.5625,195651.265625,154559.1875,158995.46875,687753.8125,152697.5625,-0.05908203125,1.004150390625,-0.07568359375,-2.410888433456421,-0.0915527269244194,0.4577636420726776,100.0,34061.0,1.0
15:50:12.303217,168131.265625,165769.75,163247.046875,195642.59375,154564.46875,159008.625,687743.1875,152689.953125,-0.060546875,1.005615234375,-0.07666015625,-2.380370855331421,-0.1220703050494194,0.4272460639476776,100.0,34062.0,1.0
15:50:12.303225,168137.34375,165774.9375,163251.15625,195642.859375,154569.296875,159013.265625,687754.4375,152696.125,-0.0615234375,1.005615234375,-0.075439453125,-2.349853277206421,-0.03051757626235485,0.3662109076976776,100.0,34063.0,1.0
15:50:12.304888,168129.828125,165755.09375,163238.640625,195652.515625,154563.296875,158993.515625,687789.9375,152702.03125,-0.060791015625,1.00537109375,-0.07470703125,-2.319335699081421,0.0,0.3662109076976776,100.0,34064.0,1.0
15:50:12.307262,168129.46875,165756.34375,163238.375,195649.484375,154560.890625,158996.375,687741.9375,152698.28125,-0.06201171875,1.005615234375,-0.07421875,-2.227782964706421,-0.0915527269244194,0.3662109076976776,100.0,34065.0,1.0
15:50:12.310565,168136.0,165773.234375,163249.90625,195646.890625,154567.0625,159011.390625,687736.625,152694.421875,-0.06201171875,1.003662109375,-0.073974609375,-2.166747808456421,0.0,0.3356933295726776,100.0,34066.0,1.0
15:50:12.310582,168137.875,165778.15625,163252.328125,195641.609375,154568.84375,159017.296875,687748.75,152695.328125,-0.062255859375,1.004638671875,-0.073486328125,-2.105712652206421,0.03051757626235485,0.2746581733226776,100.0,34067.0,1.0
15:50:12.312442,168127.5,165755.359375,163237.125,195648.859375,154561.515625,158995.46875,687819.8125,152699.609375,-0.0615234375,1.003662109375,-0.072265625,-2.105712652206421,-0.03051757626235485,0.3051757514476776,100.0,34068.0,1.0
15:50:12.315377,168128.3125,165758.046875,163237.296875,195649.296875,154561.0625,158998.609375,687756.0625,152699.078125,-0.060302734375,1.004150390625,-0.073486328125,-2.044677495956421,0.03051757626235485,0.2136230319738388,100.0,34069.0,1.0
15:50:12.315394,168129.5625,165768.328125,163244.28125,195643.3125,154563.578125,159006.734375,687748.8125,152691.84375,-0.06201171875,1.003662109375,-0.073974609375,-1.9226073026657104,-0.0915527269244194,0.1525878757238388,100.0,34070.0,1.0
15:50:12.317834,168127.859375,165768.953125,163242.3125,195630.4375,154560.171875,159008.171875,687729.125,152685.9375,-0.06103515625,1.004638671875,-0.07177734375,-1.8920897245407104,-0.03051757626235485,0.1831054538488388,100.0,34071.0,1.0
15:50:12.317846,168124.28125,165754.828125,163232.65625,195643.671875,154557.21875,158991.09375,687803.375,152697.109375,-0.063232421875,1.0048828125,-0.0693359375,-1.9531248807907104,-0.0915527269244194,0.1831054538488388,100.0,34072.0,1.0
15:50:12.319896,168123.921875,165757.140625,163230.421875,195645.640625,154556.859375,158993.859375,687755.0625,152696.671875,-0.06494140625,1.00537109375,-0.0703125,-1.8310545682907104,-0.1525878757238388,0.1220703050494194,100.0,34073.0,1.0
15:50:12.323013,168125.71875,165762.875,163237.484375,195643.75,154560.171875,159001.90625,687739.625,152692.640625,-0.06591796875,1.00634765625,-0.0703125,-1.8310545682907104,-0.1525878757238388,0.1525878757238388,100.0,34074.0,1.0
15:50:12.323025,168122.3125,165764.921875,163235.328125,195630.609375,154555.890625,159005.21875,687718.9375,152684.59375,-0.06689453125,1.007080078125,-0.07177734375,-1.7700194120407104,-0.2136230319738388,0.1525878757238388,100.0,34075.0,1.0
15:50:12.332910,168113.921875,165747.21875,163222.1875,195635.703125,154548.8125,158986.796875,687815.0,152690.046875,-0.0654296875,1.004638671875,-0.0712890625,-1.8005369901657104,-0.2746581733226776,0.1220703050494194,100.0,34076.0,1.0
15:50:12.332935,168109.09375,165736.5,163213.515625,195637.5,154542.375,158976.25,687764.375,152688.890625,-0.066162109375,1.005859375,-0.072021484375,-1.7700194120407104,-0.3662109076976776,0.2441406100988388,100.0,34077.0,1.0
15:50:12.342410,168117.3125,165752.859375,163226.390625,195639.546875,154550.78125,158993.234375,687747.375,152687.546875,-0.06591796875,1.007080078125,-0.072509765625,-1.6784666776657104,-0.3356933295726776,0.2441406100988388,100.0,34078.0,1.0
15:50:12.342436,168121.6875,165766.796875,163234.703125,195628.828125,154555.53125,159006.65625,687715.375,152681.90625,-0.065673828125,1.00927734375,-0.072021484375,-1.6479490995407104,-0.4882812201976776,0.3051757514476776,100.0,34079.0,1.0
15:50:12.346188,168120.625,165756.875,163231.3125,195636.421875,154555.796875,158995.828125,687800.9375,152692.015625,-0.065185546875,1.009765625,-0.071533203125,-1.6784666776657104,-0.5187987685203552,0.3662109076976776,100.0,34080.0,1.0
15:50:12.359353,168116.6875,165745.53125,163224.34375,195645.09375,154553.015625,158985.90625,687772.125,152696.21875,-0.063720703125,1.008544921875,-0.072265625,-1.6174315214157104,-0.3967284858226776,0.2746581733226776,100.0,34081.0,1.0
15:50:12.359376,168122.765625,165760.015625,163234.171875,195645.90625,154559.453125,159001.46875,687736.375,152694.421875,-0.064453125,1.00732421875,-0.0732421875,-1.6174315214157104,-0.4882812201976776,0.2441406100988388,100.0,34082.0,1.0
15:50:12.359383,168122.671875,165770.015625,163237.03125,195631.859375,154558.390625,159009.78125,687712.0625,152682.8125,-0.0654296875,1.0087890625,-0.07080078125,-1.7089842557907104,-0.5493163466453552,0.1831054538488388,100.0,34083.0,1.0
15:50:12.359388,168115.34375,165759.5625,163228.625,195627.9375,154552.75,158999.765625,687804.6875,152684.59375,-0.064697265625,1.010498046875,-0.070556640625,-1.8310545682907104,-0.6713866591453552,0.2746581733226776,100.0,34084.0,1.0
15:50:12.371983,168106.859375,165738.546875,163215.484375,195636.609375,154547.203125,158980.8125,687789.9375,152688.171875,-0.06298828125,1.01123046875,-0.069091796875,-1.8310545682907104,-0.7019042372703552,0.3967284858226776,100.0,34085.0,1.0
15:50:12.372011,168112.9375,165750.625,163224.421875,195637.5,154552.9375,158992.53125,687753.9375,152688.625,-0.066162109375,1.010986328125,-0.0703125,-1.8920897245407104,-0.6408690810203552,0.4272460639476776,100.0,34086.0,1.0
15:50:12.372018,168117.140625,165764.484375,163233.359375,195630.25,154557.3125,159004.78125,687742.3125,152681.734375,-0.066650390625,1.010498046875,-0.071044921875,-1.9531248807907104,-0.7019042372703552,0.4272460639476776,100.0,34087.0,1.0
15:50:12.379082,168113.296875,165757.765625,163228.359375,195624.359375,154553.734375,158997.625,687746.5625,152681.28125,-0.066162109375,1.010498046875,-0.070556640625,-1.9226073026657104,-0.7019042372703552,0.4272460639476776,100.0,34088.0,1.0
15:50:12.379102,168108.640625,165739.171875,163218.703125,195638.03125,154549.890625,158977.59375,687757.3125,152690.9375,-0.064453125,1.010986328125,-0.06982421875,-1.9226073026657104,-0.7324218153953552,0.4272460639476776,100.0,34089.0,1.0
15:50:12.381043,168111.59375,165747.21875,163222.546875,195638.125,154551.859375,158986.71875,687738.5625,152689.15625,-0.063232421875,1.009521484375,-0.07177734375,-1.9531248807907104,-0.7629393935203552,0.3051757514476776,100.0,34090.0,1.0
15:50:12.391751,168115.4375,165760.09375,163231.125,195632.671875,154555.890625,158999.40625,687730.75,152683.34375,-0.062744140625,1.009033203125,-0.071044921875,-2.044677495956421,-0.7324218153953552,0.3967284858226776,100.0,34091.0,1.0
15:50:12.391789,168113.5625,165757.953125,163229.34375,195625.515625,154552.3125,158996.8125,687764.0,152681.46875,-0.063232421875,1.00732421875,-0.072021484375,-2.075195074081421,-0.7019042372703552,0.3662109076976776,100.0,34092.0,1.0
15:50:12.399556,168105.515625,165737.125,163216.640625,195636.6875,154545.78125,158975.09375,687803.625,152689.15625,-0.064697265625,1.00830078125,-0.071044921875,-1.9531248807907104,-0.6103515028953552,0.3051757514476776,100.0,34093.0,1.0
15:50:12.399628,168108.28125,165742.3125,163219.59375,195638.21875,154548.8125,158982.328125,687745.4375,152689.953125,-0.06201171875,1.009765625,-0.071044921875,-1.9531248807907104,-0.6408690810203552,0.4272460639476776,100.0,34094.0,1.0
15:50:12.405522,168118.296875,165757.953125,163234.0,195640.0,154559.734375,158998.25,687757.875,152689.953125,-0.0615234375,1.009521484375,-0.07275390625,-1.9226073026657104,-0.6408690810203552,0.3967284858226776,100.0,34095.0,1.0
15:50:12.405646,168119.8125,165765.1875,163236.9375,195628.828125,154560.078125,159004.859375,687740.5,152684.328125,-0.0615234375,1.008544921875,-0.071044921875,-1.9226073026657104,-0.7019042372703552,0.4272460639476776,100.0,34096.0,1.0
15:50:12.411269,168111.59375,165743.828125,163223.71875,195636.328125,154554.28125,158984.390625,687821.6875,152689.0625,-0.060546875,1.007080078125,-0.072998046875,-1.9226073026657104,-0.6408690810203552,0.4577636420726776,100.0,34097.0,1.0
15:50:12.419265,168109.984375,165738.734375,163219.59375,195638.84375,154552.3125,158982.875,687755.5,152688.703125,-0.060546875,1.006591796875,-0.07373046875,-1.9531248807907104,-0.5187987685203552,0.4272460639476776,100.0,34098.0,1.0
15:50:12.419343,168117.578125,165754.828125,163231.578125,195640.453125,154559.8125,158997.171875,687750.625,152688.625,-0.06103515625,1.007080078125,-0.07080078125,-1.9836424589157104,-0.4272460639476776,0.4882812201976776,100.0,34099.0,1.0
15:50:12.434311,168120.4375,165766.53125,163237.921875,195629.0,154562.140625,159008.265625,687723.0,152684.234375,-0.061279296875,1.0087890625,-0.07080078125,-1.9531248807907104,-0.4272460639476776,0.4882812201976776,100.0,34100.0,1.0
15:50:12.434396,168112.390625,165748.203125,163225.671875,195633.46875,154555.171875,158988.234375,687798.875,152687.453125,-0.059814453125,1.00634765625,-0.06787109375,-1.9836424589157104,-0.4577636420726776,0.4577636420726776,100.0,34101.0,1.0
15:50:12.436859,168107.921875,165737.828125,163217.90625,195637.5,154549.453125,158977.59375,687762.125,152687.71875,-0.0595703125,1.005859375,-0.0693359375,-1.8920897245407104,-0.3356933295726776,0.4272460639476776,100.0,34102.0,1.0
15:50:12.436928,168118.828125,165759.46875,163232.296875,195639.734375,154559.90625,158997.53125,687752.375,152687.28125,-0.06005859375,1.006591796875,-0.069580078125,-1.9226073026657104,-0.3662109076976776,0.4577636420726776,100.0,34103.0,1.0
15:50:12.444196,168126.609375,165778.15625,163242.9375,195631.859375,154566.875,159016.390625,687729.6875,152683.34375,-0.060546875,1.0048828125,-0.06884765625,-1.8920897245407104,-0.3356933295726776,0.5187987685203552,100.0,34104.0,1.0
15:50:12.444220,168117.484375,165761.625,163230.859375,195632.21875,154560.265625,159001.015625,687793.4375,152686.03125,-0.060302734375,1.006103515625,-0.06982421875,-1.7395018339157104,-0.2136230319738388,0.4577636420726776,100.0,34105.0,1.0
15:50:12.450433,168109.625,165743.640625,163219.421875,195636.78125,154553.5625,158984.390625,687765.8125,152687.28125,-0.059814453125,1.00537109375,-0.070068359375,-1.7395018339157104,-0.0915527269244194,0.4882812201976776,100.0,34106.0,1.0
15:50:12.450500,168113.5625,165756.96875,163226.84375,195633.296875,154559.28125,158998.875,687742.5625,152683.796875,-0.05908203125,1.006103515625,-0.071533203125,-1.7089842557907104,-0.0610351525247097,0.5493163466453552,100.0,34107.0,1.0
15:50:12.464815,168116.78125,165770.203125,163233.09375,195621.671875,154561.875,159011.03125,687715.1875,152673.859375,-0.05908203125,1.00732421875,-0.070556640625,-1.6479490995407104,0.0610351525247097,0.6408690810203552,100.0,34108.0,1.0
15:50:12.472930,168112.3125,165759.734375,163226.125,195619.890625,154558.125,158999.953125,687775.625,152675.75,-0.060791015625,1.008544921875,-0.072998046875,-1.6174315214157104,0.0610351525247097,0.6103515028953552,100.0,34109.0,1.0
15:50:12.472956,168102.828125,165738.734375,163212.09375,195627.75,154549.0,158977.421875,687762.375,152677.53125,-0.06298828125,1.0068359375,-0.07275390625,-1.5563963651657104,0.0,0.6103515028953552,100.0,34110.0,1.0
15:50:12.475837,168104.4375,165744.625,163214.40625,195626.140625,154547.5625,158983.765625,687726.125,152673.953125,-0.062744140625,1.007568359375,-0.069580078125,-1.5869139432907104,0.1220703050494194,0.6713866591453552,100.0,34111.0,1.0
15:50:12.475860,168112.21875,165761.171875,163224.875,195620.78125,154554.8125,158999.328125,687712.0625,152669.484375,-0.061279296875,1.00830078125,-0.071533203125,-1.6479490995407104,0.1831054538488388,0.5798339247703552,100.0,34112.0,1.0
15:50:12.477260,168115.171875,165762.515625,163227.28125,195622.125,154558.125,159001.46875,687792.8125,152676.1875,-0.061279296875,1.00732421875,-0.0712890625,-1.6174315214157104,0.1831054538488388,0.7019042372703552,100.0,34113.0,1.0
15:50:12.479827,168108.90625,165741.59375,163216.46875,195634.90625,154552.484375,158980.015625,687826.0,152685.40625,-0.06201171875,1.005859375,-0.07080078125,-1.5258787870407104,0.2136230319738388,0.7324218153953552,100.0,34114.0,1.0
15:50:12.489851,168113.109375,165748.46875,163221.203125,195636.25,154555.25,158987.703125,687752.3125,152686.03125,-0.0625,1.00732421875,-0.0712890625,-1.4953612089157104,0.2441406100988388,0.7324218153953552,100.0,34115.0,1.0
15:50:12.500424,168117.140625,165762.421875,163229.703125,195631.421875,154559.90625,159000.296875,687742.4375,152680.484375,-0.064453125,1.009033203125,-0.06787109375,-1.5563963651657104,0.3051757514476776,0.6713866591453552,100.0,34116.0,1.0
15:50:12.500450,168116.6875,165762.953125,163227.640625,195621.671875,154557.21875,159000.65625,687743.0625,152676.734375,-0.062255859375,1.00830078125,-0.0673828125,-1.4953612089157104,0.3051757514476776,0.7019042372703552,100.0,34117.0,1.0
15:50:12.502437,168107.390625,165738.28125,163212.890625,195630.796875,154547.921875,158975.0,687807.375,152682.453125,-0.062255859375,1.00732421875,-0.071533203125,-1.4343260526657104,0.2746581733226776,0.7324218153953552,100.0,34118.0,1.0
15:50:12.504797,168110.078125,165743.5625,163215.03125,195633.5625,154549.453125,158980.640625,687755.25,152682.890625,-0.063232421875,1.00732421875,-0.0703125,-1.4648436307907104,0.2441406100988388,0.7324218153953552,100.0,34119.0,1.0
15:50:12.507850,168114.546875,165759.109375,163225.671875,195630.875,154555.890625,158995.921875,687749.1875,152677.984375,-0.0634765625,1.0087890625,-0.0712890625,-1.4038084745407104,0.2441406100988388,0.7934569716453552,100.0,34120.0,1.0
15:50:12.507863,168118.46875,165768.859375,163230.859375,195622.5625,154558.828125,159005.84375,687735.5625,152677.265625,-0.0625,1.00830078125,-0.072265625,-1.3732908964157104,0.2441406100988388,0.7629393935203552,100.0,34121.0,1.0
15:50:12.523024,168111.140625,165751.0625,163218.796875,195632.671875,154553.015625,158986.171875,687813.75,152683.96875,-0.063720703125,1.0078125,-0.072509765625,-1.2817381620407104,0.1831054538488388,0.8850097060203552,100.0,34122.0,1.0
15:50:12.523050,168107.484375,165744.984375,163213.515625,195632.40625,154549.890625,158983.3125,687755.6875,152681.90625,-0.06298828125,1.008544921875,-0.06884765625,-1.2817381620407104,0.1831054538488388,0.8850097060203552,100.0,34123.0,1.0
15:50:12.525831,168116.78125,165763.9375,163227.90625,195633.921875,154559.109375,159001.734375,687750.0,152681.28125,-0.063232421875,1.008056640625,-0.07177734375,-1.3732908964157104,0.2441406100988388,0.8850097060203552,100.0,34124.0,1.0
15:50:12.539654,168119.90625,165769.03125,163232.46875,195623.015625,154559.734375,159006.296875,687726.8125,152675.5625,-0.062744140625,1.008056640625,-0.06982421875,-1.3732908964157104,0.2441406100988388,0.9460448622703552,100.0,34125.0,1.0
15:50:12.539710,168116.328125,165751.609375,163224.0625,195633.5625,154557.21875,158988.5,687779.5,152685.21875,-0.06103515625,1.010009765625,-0.071044921875,-1.4953612089157104,0.1831054538488388,1.0070799589157104,100.0,34126.0,1.0
15:50:12.539721,168113.828125,165744.625,163219.953125,195639.46875,154556.15625,158983.859375,687743.375,152689.6875,-0.063232421875,1.01123046875,-0.0712890625,-1.4953612089157104,0.1831054538488388,1.0681151151657104,100.0,34127.0,1.0
15:50:12.542864,168120.625,165760.453125,163230.6875,195640.53125,154562.671875,158999.5,687742.75,152688.078125,-0.0634765625,1.010986328125,-0.070068359375,-1.5869139432907104,0.1525878757238388,1.0070799589157104,100.0,34128.0,1.0
15:50:12.542874,168126.96875,165775.125,163235.15625,195626.859375,154560.078125,159010.046875,687722.1875,152677.0,-0.06396484375,1.008544921875,-0.068115234375,-1.4648436307907104,0.0915527269244194,0.9765624403953552,100.0,34129.0,1.0
15:50:12.544839,168124.375,165763.140625,163228.1875,195632.21875,154557.671875,158997.625,687810.125,152684.140625,-0.062255859375,1.005615234375,-0.070068359375,-1.4953612089157104,0.1831054538488388,0.9460448622703552,100.0,34130.0,1.0
15:50:12.547260,168112.3125,165744.359375,163214.140625,195632.3125,154549.171875,158982.6875,687781.5625,152683.4375,-0.0595703125,1.005859375,-0.072021484375,-1.4648436307907104,0.1831054538488388,1.0070799589157104,100.0,34131.0,1.0
15:50:12.551331,168116.78125,165756.4375,163221.125,195630.34375,154552.3125,158994.671875,687751.875,152679.59375,-0.059326171875,1.00634765625,-0.069580078125,-1.4648436307907104,0.2441406100988388,1.0375975370407104,100.0,34132.0,1.0
15:50:12.561772,168125.265625,165774.21875,163232.296875,195625.25,154558.46875,159009.875,687732.1875,152675.03125,-0.060302734375,1.004638671875,-0.070068359375,-1.4953612089157104,0.2136230319738388,0.9155272841453552,100.0,34133.0,1.0
15:50:12.561798,168120.703125,165764.75,163226.75,195624.625,154555.890625,159001.28125,687777.8125,152678.15625,-0.06005859375,1.003173828125,-0.0693359375,-1.5258787870407104,0.3051757514476776,0.9155272841453552,100.0,34134.0,1.0
15:50:12.564321,168110.96875,165743.203125,163211.8125,195629.09375,154545.25,158979.65625,687761.0,152678.515625,-0.0615234375,1.0029296875,-0.070556640625,-1.4343260526657104,0.2746581733226776,0.9155272841453552,100.0,34135.0,1.0
15:50:12.564352,168113.109375,165749.8125,163217.453125,195626.5,154547.203125,158987.609375,687743.0625,152673.953125,-0.062255859375,1.002197265625,-0.0693359375,-1.4648436307907104,0.3051757514476776,0.9460448622703552,100.0,34136.0,1.0
15:50:12.576014,168116.0625,165764.203125,163226.65625,195619.171875,154553.734375,159000.75,687738.25,152667.96875,-0.062255859375,1.0029296875,-0.072021484375,-1.4648436307907104,0.2746581733226776,0.9460448622703552,100.0,34137.0,1.0
15:50:12.584529,168116.0625,165763.765625,163225.671875,195617.109375,154553.921875,158999.859375,687771.375,152671.265625,-0.06396484375,1.00390625,-0.071533203125,-1.4648436307907104,0.2136230319738388,0.7629393935203552,100.0,34138.0,1.0
15:50:12.584558,168108.1875,165741.859375,163211.46875,195625.0625,154546.046875,158976.171875,687790.3125,152674.84375,-0.064697265625,1.00439453125,-0.07177734375,-1.3732908964157104,0.1220703050494194,0.7324218153953552,100.0,34139.0,1.0
15:50:12.584565,168110.34375,165745.34375,163212.71875,195626.671875,154546.140625,158980.8125,687743.5625,152674.140625,-0.063232421875,1.005859375,-0.074462890625,-1.3732908964157104,0.2136230319738388,0.7019042372703552,100.0,34140.0,1.0
15:50:12.587908,168115.796875,165762.15625,163222.8125,195622.65625,154553.640625,158997.71875,687752.0625,152670.375,-0.062744140625,1.0078125,-0.073486328125,-1.2512205839157104,0.0915527269244194,0.6103515028953552,100.0,34141.0,1.0
15:50:12.587928,168119.09375,165768.953125,163227.015625,195618.28125,154557.765625,159004.59375,687748.625,152674.84375,-0.060791015625,1.010009765625,-0.072265625,-1.2512205839157104,0.0915527269244194,0.6408690810203552,100.0,34142.0,1.0
15:50:12.620500,168108.46875,165743.828125,163212.453125,195627.84375,154548.8125,158978.40625,687813.375,152680.390625,-0.0625,1.010009765625,-0.072265625,-1.2817381620407104,0.03051757626235485,0.5187987685203552,100.0,34143.0,1.0
15:50:12.656057,168112.03125,165750.265625,163216.109375,195630.796875,154551.234375,158986.265625,687753.4375,152680.21875,-0.0625,1.009521484375,-0.07275390625,-1.1596678495407104,0.1220703050494194,0.6408690810203552,100.0,34144.0,1.0
15:50:12.658572,168122.5,165769.578125,163231.046875,195630.4375,154561.6875,159005.125,687733.875,152678.0625,-0.059814453125,1.010498046875,-0.07275390625,-1.1596678495407104,0.1220703050494194,0.6103515028953552,100.0,34145.0,1.0
15:50:12.661052,168125.359375,165777.265625,163235.15625,195621.3125,154563.75,159012.46875,687727.625,152675.5625,-0.06201171875,1.010009765625,-0.069580078125,-1.1901854276657104,0.0915527269244194,0.6103515028953552,100.0,34146.0,1.0
15:50:12.663532,168118.296875,165755.890625,163224.421875,195634.640625,154560.625,158990.375,687790.3125,152688.34375,-0.063720703125,1.009033203125,-0.072998046875,-1.2207030057907104,-0.03051757626235485,0.6103515028953552,100.0,34147.0,1.0
15:50:12.666068,168113.296875,165745.96875,163217.0,195634.1875,154553.46875,158982.875,687743.5625,152685.125,-0.06396484375,1.0078125,-0.073974609375,-1.2207030057907104,0.0,0.6103515028953552,100.0,34148.0,1.0
15:50:12.668509,168114.984375,165757.328125,163224.0625,195628.640625,154555.96875,158995.125,687742.9375,152677.078125,-0.065185546875,1.01025390625,-0.072509765625,-1.3427733182907104,0.03051757626235485,0.6103515028953552,100.0,34149.0,1.0
15:50:12.671065,168119.453125,165768.59375,163230.859375,195620.15625,154559.640625,159007.28125,687733.25,152674.765625,-0.065185546875,1.010498046875,-0.0703125,-1.4038084745407104,0.0610351525247097,0.5493163466453552,100.0,34150.0,1.0
15:50:12.673572,168114.546875,165753.390625,163222.640625,195630.703125,154558.125,158990.46875,687823.0,152685.671875,-0.0654296875,1.01025390625,-0.07177734375,-1.5563963651657104,0.0,0.4882812201976776,100.0,34151.0,1.0
15:50:12.676022,168111.6875,165744.71875,163216.015625,195635.984375,154553.734375,158981.625,687772.0625,152687.71875,-0.066650390625,1.009521484375,-0.073486328125,-1.5563963651657104,-0.1831054538488388,0.4577636420726776,100.0,34152.0,1.0
15:50:12.678593,168116.953125,165759.46875,163224.78125,195635.0,154559.109375,158996.734375,687749.625,152684.59375,-0.06640625,1.011474609375,-0.072265625,-1.5869139432907104,-0.2136230319738388,0.3662109076976776,100.0,34153.0,1.0
15:50:12.681025,168120.796875,165772.4375,163230.421875,195623.546875,154561.0625,159008.34375,687719.5,152676.640625,-0.06640625,1.01416015625,-0.069580078125,-1.5869139432907104,-0.3051757514476776,0.3356933295726776,100.0,34154.0,1.0
15:50:12.683501,168119.453125,165764.203125,163223.796875,195628.640625,154559.453125,158998.34375,687793.0,152683.875,-0.066162109375,1.012939453125,-0.0693359375,-1.6174315214157104,-0.3967284858226776,0.2136230319738388,100.0,34155.0,1.0
15:50:12.686250,168109.625,165744.265625,163209.234375,195631.328125,154549.171875,158978.578125,687782.5,152682.8125,-0.06396484375,1.0107421875,-0.072021484375,-1.5869139432907104,-0.4577636420726776,0.3662109076976776,100.0,34156.0,1.0
15:50:12.689275,168114.71875,165755.453125,163216.734375,195629.984375,154553.46875,158990.921875,687748.8125,152679.59375,-0.064208984375,1.0107421875,-0.072509765625,-1.6174315214157104,-0.4577636420726776,0.5187987685203552,100.0,34157.0,1.0
15:50:12.699424,168118.5625,165767.609375,163224.34375,195620.953125,154555.96875,159002.09375,687724.5625,152672.34375,-0.061767578125,1.007080078125,-0.071044921875,-1.7089842557907104,-0.5187987685203552,0.7019042372703552,100.0,34158.0,1.0
15:50:12.699507,168118.828125,165761.703125,163223.0,195626.140625,154556.859375,158994.5,687789.875,152681.109375,-0.0595703125,1.010009765625,-0.06787109375,-1.7700194120407104,-0.4882812201976776,0.6713866591453552,100.0,34159.0,1.0
15:50:12.699536,168112.9375,165744.546875,163213.25,195637.046875,154551.953125,158977.140625,687783.625,152686.734375,-0.059326171875,1.009521484375,-0.06982421875,-1.7700194120407104,-0.4882812201976776,0.7629393935203552,100.0,34160.0,1.0
15:50:12.699557,168118.203125,165756.15625,163220.5,195639.203125,154557.21875,158990.46875,687748.125,152687.71875,-0.057861328125,1.007568359375,-0.070068359375,-1.7700194120407104,-0.4882812201976776,0.9155272841453552,100.0,34161.0,1.0
15:50:12.699578,168120.984375,165770.109375,163227.734375,195629.890625,154560.53125,159002.71875,687721.8125,152679.765625,-0.058349609375,1.00830078125,-0.0703125,-1.7700194120407104,-0.3662109076976776,1.0070799589157104,100.0,34162.0,1.0
15:50:12.711052,168120.796875,165767.15625,163225.859375,195626.671875,154560.0,159001.203125,687775.8125,152684.140625,-0.058349609375,1.0068359375,-0.071533203125,-1.7089842557907104,-0.2441406100988388,1.0070799589157104,100.0,34163.0,1.0
15:50:12.711143,168112.84375,165745.34375,163213.78125,195638.390625,154554.453125,158980.546875,687821.5,152691.65625,-0.05859375,1.007568359375,-0.072998046875,-1.7089842557907104,-0.2746581733226776,1.0070799589157104,100.0,34164.0,1.0
15:50:12.711172,168116.328125,165755.359375,163218.796875,195637.59375,154557.046875,158991.359375,687759.5625,152688.625,-0.059814453125,1.00634765625,-0.072265625,-1.9226073026657104,-0.1525878757238388,1.0070799589157104,100.0,34165.0,1.0
15:50:12.714513,168123.75,165773.78125,163230.0625,195631.953125,154563.125,159008.171875,687761.4375,152681.28125,-0.05908203125,1.0068359375,-0.07080078125,-1.8920897245407104,-0.0610351525247097,0.9765624403953552,100.0,34166.0,1.0
15:50:12.714604,168122.5,165774.9375,163229.34375,195621.40625,154562.3125,159009.0625,687739.5,152678.15625,-0.058837890625,1.006103515625,-0.07177734375,-1.8920897245407104,-0.1220703050494194,1.0070799589157104,100.0,34167.0,1.0
15:50:12.716711,168117.9375,165755.890625,163219.59375,195633.734375,154560.53125,158988.765625,687787.5,152687.71875,-0.06005859375,1.006591796875,-0.07275390625,-1.8920897245407104,-0.03051757626235485,0.8239745497703552,100.0,34168.0,1.0
15:50:12.716870,168120.078125,165757.421875,163221.296875,195635.265625,154562.046875,158991.1875,687746.5,152687.546875,-0.05810546875,1.00537109375,-0.068359375,-1.8310545682907104,-0.03051757626235485,0.8544921278953552,100.0,34169.0,1.0
15:50:12.718604,168127.0625,165772.4375,163232.390625,195634.546875,154569.296875,159005.671875,687754.0625,152685.046875,-0.05908203125,1.005126953125,-0.06982421875,-1.9226073026657104,0.0,0.7629393935203552,100.0,34170.0,1.0
15:50:12.721779,168124.46875,165774.9375,163230.6875,195619.078125,154564.5625,159008.078125,687721.875,152676.90625,-0.05859375,1.005859375,-0.072998046875,-1.8920897245407104,0.0915527269244194,0.7019042372703552,100.0,34171.0,1.0
15:50:12.721857,168117.046875,165755.453125,163219.0625,195629.71875,154559.734375,158986.453125,687792.1875,152685.9375,-0.060546875,1.00537109375,-0.070068359375,-1.8920897245407104,0.1525878757238388,0.5798339247703552,100.0,34172.0,1.0
15:50:12.723675,168114.359375,165751.421875,163215.9375,195631.78125,154556.859375,158984.125,687752.1875,152686.5625,-0.060791015625,1.005126953125,-0.0693359375,-1.8310545682907104,0.1525878757238388,0.4882812201976776,100.0,34173.0,1.0
15:50:12.726325,168123.65625,165771.984375,163229.34375,195632.578125,154566.171875,159003.4375,687759.875,152684.59375,-0.060546875,1.005859375,-0.0712890625,-1.8310545682907104,0.2136230319738388,0.5187987685203552,100.0,34174.0,1.0
15:50:12.729078,168123.75,165780.578125,163232.296875,195619.53125,154567.5,159012.109375,687728.25,152677.703125,-0.056396484375,1.007080078125,-0.06982421875,-1.8920897245407104,0.2441406100988388,0.4882812201976776,100.0,34175.0,1.0
15:50:12.731974,168122.140625,165766.71875,163227.015625,195631.15625,154567.421875,158998.96875,687797.4375,152689.328125,-0.0556640625,1.0068359375,-0.070556640625,-1.8920897245407104,0.3051757514476776,0.5187987685203552,100.0,34176.0,1.0
15:50:12.732059,168119.375,165756.25,163219.15625,195634.640625,154561.515625,158989.84375,687759.0,152688.0,-0.056884765625,1.005859375,-0.074951171875,-1.8615721464157104,0.4882812201976776,0.5187987685203552,100.0,34177.0,1.0
15:50:12.737415,168125.0,165769.390625,163228.1875,195634.8125,154567.0625,159003.4375,687762.375,152685.125,-0.05859375,1.00634765625,-0.07470703125,-1.8310545682907104,0.4882812201976776,0.6713866591453552,100.0,34178.0,1.0
15:50:12.741787,168130.640625,165783.609375,163237.390625,195625.0625,154572.421875,159016.84375,687730.5625,152680.65625,-0.057373046875,1.006591796875,-0.073974609375,-1.8310545682907104,0.5493163466453552,0.7934569716453552,100.0,34179.0,1.0
15:50:12.741855,168122.765625,165769.578125,163226.390625,195623.28125,154566.078125,159001.640625,687784.5625,152682.359375,-0.056884765625,1.00732421875,-0.0732421875,-1.8310545682907104,0.5493163466453552,0.7019042372703552,100.0,34180.0,1.0
15:50:12.751191,168113.109375,165751.15625,163211.90625,195627.125,154556.15625,158983.3125,687773.3125,152682.453125,-0.058349609375,1.008056640625,-0.072021484375,-1.7700194120407104,0.5798339247703552,0.7019042372703552,100.0,34181.0,1.0
15:50:12.754258,168118.75,165760.8125,163220.9375,195627.21875,154562.40625,158995.296875,687751.9375,152682.0,-0.05908203125,1.00927734375,-0.072509765625,-1.8005369901657104,0.5798339247703552,0.7019042372703552,100.0,34182.0,1.0
15:50:12.754350,168126.078125,165778.25,163233.71875,195620.953125,154570.28125,159012.546875,687728.6875,152677.984375,-0.0595703125,1.007568359375,-0.070068359375,-1.8005369901657104,0.6408690810203552,0.8850097060203552,100.0,34183.0,1.0
15:50:12.762444,168122.859375,165770.46875,163228.453125,195619.4375,154567.0625,159004.5,687783.875,152681.015625,-0.060546875,1.00927734375,-0.0712890625,-1.7395018339157104,0.6713866591453552,0.9460448622703552,100.0,34184.0,1.0
15:50:12.770723,168116.515625,165753.21875,163216.5625,195629.359375,154560.890625,158987.875,687794.75,152685.484375,-0.060302734375,1.010009765625,-0.0703125,-1.7089842557907104,0.6713866591453552,0.8850097060203552,100.0,34185.0,1.0
15:50:12.770811,168121.96875,165765.375,163224.78125,195631.78125,154566.25,159001.203125,687750.9375,152686.65625,-0.0634765625,1.01025390625,-0.0712890625,-1.7700194120407104,0.6713866591453552,0.8544921278953552,100.0,34186.0,1.0
15:50:12.770841,168126.4375,165779.59375,163233.71875,195624.796875,154570.453125,159014.703125,687734.25,152680.65625,-0.064697265625,1.010009765625,-0.0693359375,-1.7395018339157104,0.7019042372703552,0.7629393935203552,100.0,34187.0,1.0
15:50:12.772696,168127.234375,165779.234375,163234.078125,195623.90625,154571.078125,159013.359375,687755.0,152685.578125,-0.063720703125,1.009033203125,-0.072021484375,-1.7395018339157104,0.6408690810203552,0.7629393935203552,100.0,34188.0,1.0
15:50:12.779876,168121.15625,165759.734375,163223.078125,195636.515625,154565.53125,158992.078125,687789.375,152694.515625,-0.062744140625,1.009765625,-0.067626953125,-1.8920897245407104,0.6103515028953552,0.7324218153953552,100.0,34189.0,1.0
15:50:12.808091,168124.375,165765.1875,163226.9375,195638.921875,154567.140625,158999.5,687752.5625,152694.34375,-0.0625,1.008544921875,-0.068603515625,-1.8615721464157104,0.5493163466453552,0.6713866591453552,100.0,34190.0,1.0
15:50:12.808178,168125.53125,165774.9375,163233.09375,195632.046875,154569.828125,159009.609375,687753.125,152686.65625,-0.06396484375,1.010009765625,-0.068603515625,-1.8310545682907104,0.4577636420726776,0.6408690810203552,100.0,34191.0,1.0
15:50:12.814975,168122.046875,165773.78125,163230.140625,195620.59375,154567.0625,159008.890625,687737.3125,152683.25,-0.062744140625,1.010498046875,-0.0693359375,-1.8920897245407104,0.3051757514476776,0.6713866591453552,100.0,34192.0,1.0
15:50:12.817365,168113.296875,165751.6875,163215.9375,195630.171875,154560.359375,158986.625,687804.875,152689.0625,-0.063720703125,1.009765625,-0.0693359375,-1.8615721464157104,0.2441406100988388,0.6408690810203552,100.0,34193.0,1.0
15:50:12.819875,168114.8125,165753.921875,163216.015625,195630.96875,154560.0,158989.125,687746.5625,152687.28125,-0.060546875,1.009033203125,-0.07080078125,-1.8615721464157104,0.0915527269244194,0.6713866591453552,100.0,34194.0,1.0
15:50:12.824827,168120.984375,165772.890625,163226.21875,195625.421875,154565.71875,159005.125,687737.75,152677.984375,-0.060791015625,1.010498046875,-0.0703125,-1.8615721464157104,0.1831054538488388,0.7019042372703552,100.0,34195.0,1.0
15:50:12.827292,168119.453125,165773.328125,163225.59375,195612.546875,154563.296875,159008.34375,687727.8125,152671.1875,-0.060791015625,1.009765625,-0.067138671875,-1.9531248807907104,0.03051757626235485,0.7629393935203552,100.0,34196.0,1.0
15:50:12.830424,168116.0625,165753.21875,163216.5625,195626.59375,154560.4375,158986.53125,687793.0,152682.984375,-0.061279296875,1.010009765625,-0.06640625,-1.9836424589157104,0.0,0.7629393935203552,100.0,34197.0,1.0
15:50:12.830472,168115.4375,165750.078125,163213.421875,195630.4375,154556.859375,158982.515625,687750.0,152683.875,-0.061279296875,1.008056640625,-0.07080078125,-2.044677495956421,-0.0915527269244194,0.7019042372703552,100.0,34198.0,1.0
15:50:12.832321,168120.53125,165765.734375,163223.4375,195629.265625,154562.59375,158996.734375,687746.75,152681.109375,-0.06298828125,1.0068359375,-0.0693359375,-2.014159917831421,-0.2441406100988388,0.7934569716453552,100.0,34199.0,1.0
15:50:12.835859,168123.21875,165776.1875,163228.453125,195618.71875,154565.265625,159008.171875,687727.6875,152677.984375,-0.06103515625,1.0068359375,-0.070556640625,-2.014159917831421,-0.2746581733226776,0.8239745497703552,100.0,34200.0,1.0
15:50:12.835884,168120.265625,165762.421875,163221.5625,195629.890625,154563.21875,158992.796875,687792.0,152690.671875,-0.06103515625,1.009521484375,-0.0712890625,-2.075195074081421,-0.3662109076976776,0.6103515028953552,100.0,34201.0,1.0
15:50:12.837329,168118.296875,165754.640625,163217.8125,195637.046875,154561.34375,158985.640625,687745.875,152695.234375,-0.0625,1.0087890625,-0.0703125,-2.014159917831421,-0.3356933295726776,0.6103515028953552,100.0,34202.0,1.0
15:50:12.839794,168122.765625,165768.40625,163227.109375,195633.65625,154566.875,159000.578125,687742.8125,152690.046875,-0.0625,1.006103515625,-0.06982421875,-1.9836424589157104,-0.4272460639476776,0.5187987685203552,100.0,34203.0,1.0
15:50:12.844770,168126.4375,165779.953125,163233.09375,195622.75,154570.453125,159013.09375,687713.0625,152682.0,-0.06396484375,1.005126953125,-0.06884765625,-1.9226073026657104,-0.5493163466453552,0.4882812201976776,100.0,34204.0,1.0
15:50:12.844788,168121.25,165764.03125,163223.984375,195625.15625,154565.984375,158997.171875,687792.875,152687.09375,-0.06396484375,1.00390625,-0.0703125,-1.8920897245407104,-0.6408690810203552,0.4272460639476776,100.0,34205.0,1.0
15:50:12.844794,168114.71875,165746.515625,163212.265625,195630.171875,154557.9375,158980.640625,687767.75,152687.546875,-0.064453125,1.0029296875,-0.072021484375,-1.8615721464157104,-0.7629393935203552,0.3356933295726776,100.0,34206.0,1.0
15:50:12.853589,168120.078125,165761.078125,163222.640625,195631.78125,154564.828125,158996.90625,687748.5625,152685.9375,-0.062744140625,1.00341796875,-0.0693359375,-1.6784666776657104,-0.8850097060203552,0.3662109076976776,100.0,34207.0,1.0
15:50:12.861637,168126.515625,165779.40625,163233.546875,195626.234375,154572.421875,159013.53125,687728.4375,152682.8125,-0.06298828125,1.004150390625,-0.069091796875,-1.6479490995407104,-0.9155272841453552,0.2441406100988388,100.0,34208.0,1.0
15:50:12.861652,168120.53125,165765.90625,163224.15625,195623.734375,154565.890625,159000.484375,687777.625,152685.21875,-0.0625,1.005859375,-0.0712890625,-1.6174315214157104,-1.0681151151657104,0.0915527269244194,100.0,34209.0,1.0
15:50:12.869147,168115.796875,165750.625,163215.125,195636.15625,154561.96875,158984.484375,687772.0,152691.296875,-0.06298828125,1.00634765625,-0.07177734375,-1.4953612089157104,-1.1291502714157104,-0.0915527269244194,100.0,34210.0,1.0
15:50:12.869175,168124.28125,165768.40625,163227.015625,195640.71875,154571.078125,159002.453125,687746.5625,152695.140625,-0.0625,1.007568359375,-0.068603515625,-1.4953612089157104,-1.1291502714157104,-0.1220703050494194,100.0,34211.0,1.0
15:50:12.871664,168131.703125,165785.21875,163238.46875,195636.421875,154578.0625,159018.1875,687729.5,152691.5625,-0.06298828125,1.00634765625,-0.0703125,-1.4038084745407104,-1.2207030057907104,-0.1831054538488388,100.0,34212.0,1.0
15:50:12.871699,168129.65625,165781.015625,163235.0625,195630.609375,154574.84375,159014.78125,687752.8125,152691.296875,-0.061767578125,1.00830078125,-0.070556640625,-1.4343260526657104,-1.2817381620407104,-0.1831054538488388,100.0,34213.0,1.0
15:50:12.884108,168118.5625,165758.75,163220.40625,195638.03125,154565.890625,158993.328125,687799.6875,152694.25,-0.063232421875,1.00732421875,-0.0693359375,-1.4038084745407104,-1.3122557401657104,-0.1525878757238388,100.0,34214.0,1.0
15:50:12.892640,168120.078125,165760.90625,163223.078125,195637.9375,154567.5,158997.265625,687743.875,152692.1875,-0.062255859375,1.008056640625,-0.068603515625,-1.2817381620407104,-1.2817381620407104,-0.1525878757238388,100.0,34215.0,1.0
15:50:12.892670,168126.515625,165776.1875,163233.546875,195633.921875,154574.484375,159010.859375,687732.625,152688.0,-0.06005859375,1.010498046875,-0.069091796875,-1.2512205839157104,-1.4343260526657104,-0.1220703050494194,100.0,34216.0,1.0
15:50:12.892680,168127.421875,165782.09375,163235.515625,195627.3125,154576.0,159015.6875,687741.375,152689.328125,-0.05859375,1.009521484375,-0.071533203125,-1.3122557401657104,-1.4038084745407104,-0.0610351525247097,100.0,34217.0,1.0
15:50:12.898617,168117.84375,165759.5625,163220.84375,195635.796875,154568.21875,158993.234375,687805.875,152694.703125,-0.059814453125,1.00830078125,-0.070556640625,-1.3427733182907104,-1.3122557401657104,-0.1220703050494194,100.0,34218.0,1.0
15:50:12.903192,168116.953125,165758.578125,163218.53125,195635.265625,154565.984375,158995.03125,687748.625,152692.015625,-0.06005859375,1.008544921875,-0.0703125,-1.3122557401657104,-1.2817381620407104,0.03051757626235485,100.0,34219.0,1.0
15:50:12.903204,168120.796875,165772.53125,163227.28125,195630.25,154570.015625,159007.453125,687751.3125,152685.046875,-0.05908203125,1.007080078125,-0.07080078125,-1.1901854276657104,-1.1901854276657104,0.1525878757238388,100.0,34220.0,1.0
15:50:12.910312,168122.40625,165780.65625,163230.234375,195620.328125,154569.46875,159016.046875,687730.1875,152681.015625,-0.058837890625,1.007568359375,-0.072265625,-1.2207030057907104,-1.2207030057907104,0.1831054538488388,100.0,34221.0,1.0
15:50:12.922223,168118.125,165763.765625,163221.5625,195633.109375,154567.0625,158999.234375,687796.1875,152691.65625,-0.056884765625,1.00830078125,-0.071533203125,-1.2207030057907104,-1.1901854276657104,0.2746581733226776,100.0,34222.0,1.0
15:50:12.922249,168118.828125,165760.90625,163220.140625,195638.125,154567.0625,158997.984375,687749.1875,152693.359375,-0.058837890625,1.00927734375,-0.069091796875,-1.2207030057907104,-1.1901854276657104,0.3967284858226776,100.0,34223.0,1.0
15:50:12.922257,168120.265625,165771.71875,163226.390625,195632.84375,154570.28125,159007.90625,687754.0625,152684.78125,-0.0595703125,1.0078125,-0.06884765625,-1.2512205839157104,-0.9765624403953552,0.4882812201976776,100.0,34224.0,1.0
15:50:12.922262,168121.421875,165780.578125,163229.078125,195620.328125,154568.84375,159016.21875,687727.375,152677.078125,-0.059326171875,1.009033203125,-0.07080078125,-1.2512205839157104,-0.9155272841453552,0.5493163466453552,100.0,34225.0,1.0
15:50:12.926045,168113.203125,165760.1875,163217.453125,195626.859375,154563.390625,158996.8125,687806.125,152684.421875,-0.059326171875,1.010986328125,-0.06982421875,-1.3427733182907104,-0.8239745497703552,0.4882812201976776,100.0,34226.0,1.0
15:50:12.932899,168106.9375,165748.296875,163207.890625,195628.5625,154556.0625,158986.0,687763.125,152683.796875,-0.057373046875,1.010498046875,-0.072021484375,-1.2817381620407104,-0.7629393935203552,0.5493163466453552,100.0,34227.0,1.0
15:50:12.932913,168113.640625,165764.921875,163219.59375,195629.71875,154564.109375,159003.078125,687751.875,152683.515625,-0.05712890625,1.01025390625,-0.073974609375,-1.2512205839157104,-0.7019042372703552,0.4272460639476776,100.0,34228.0,1.0
15:50:12.934804,168117.3125,165777.625,163226.21875,195620.78125,154566.703125,159015.953125,687725.375,152676.28125,-0.058349609375,1.01025390625,-0.07373046875,-1.2512205839157104,-0.6103515028953552,0.4272460639476776,100.0,34229.0,1.0
15:50:12.945009,168110.25,165762.6875,163215.84375,195622.921875,154560.53125,159001.203125,687783.25,152679.953125,-0.05712890625,1.00927734375,-0.06982421875,-1.2817381620407104,-0.6408690810203552,0.4882812201976776,100.0,34230.0,1.0
15:50:12.954486,168105.421875,165749.453125,163206.984375,195631.0625,154555.171875,158987.78125,687779.1875,152681.90625,-0.056884765625,1.00830078125,-0.06787109375,-1.3732908964157104,-0.5187987685203552,0.3967284858226776,100.0,34231.0,1.0
15:50:12.954503,168113.296875,165765.015625,163217.625,195633.109375,154562.234375,159003.515625,687754.375,152681.28125,-0.05615234375,1.0087890625,-0.066162109375,-1.5563963651657104,-0.3051757514476776,0.3967284858226776,100.0,34232.0,1.0
15:50:12.954809,168116.421875,165777.359375,163223.984375,195623.640625,154565.71875,159016.125,687725.5625,152673.953125,-0.056396484375,1.008544921875,-0.068115234375,-1.5563963651657104,-0.3356933295726776,0.4272460639476776,100.0,34233.0,1.0
15:50:12.981582,168114.0,165769.21875,163218.171875,195621.40625,154562.765625,159007.640625,687765.1875,152676.09375,-0.057373046875,1.00830078125,-0.06689453125,-1.4953612089157104,-0.2136230319738388,0.3967284858226776,100.0,34234.0,1.0
15:50:12.981593,168107.5625,165751.515625,163207.34375,195632.21875,154557.046875,158990.734375,687760.625,152681.5625,-0.057861328125,1.0087890625,-0.068359375,-1.7395018339157104,-0.1220703050494194,0.3051757514476776,100.0,34235.0,1.0
15:50:13.006144,168109.359375,165758.75,163210.203125,195629.71875,154556.859375,158999.046875,687732.75,152676.90625,-0.057373046875,1.009521484375,-0.07275390625,-1.5563963651657104,-0.1220703050494194,0.3356933295726776,100.0,34236.0,1.0
15:50:13.008561,168112.9375,165771.453125,163218.703125,195620.953125,154560.796875,159011.03125,687714.8125,152670.109375,-0.05712890625,1.0068359375,-0.071044921875,-1.6174315214157104,-0.03051757626235485,0.3356933295726776,100.0,34237.0,1.0
15:50:13.013714,168110.96875,165770.734375,163216.5625,195614.515625,154559.546875,159010.3125,687769.75,152670.828125,-0.05810546875,1.007568359375,-0.069580078125,-1.5869139432907104,0.0,0.2746581733226776,100.0,34238.0,1.0
15:50:13.013777,168105.59375,165752.765625,163205.65625,195627.3125,154555.96875,158991.71875,687784.25,152678.875,-0.0595703125,1.00634765625,-0.068359375,-1.6479490995407104,0.1220703050494194,0.2136230319738388,100.0,34239.0,1.0
15:50:13.016099,168111.6875,165761.34375,163211.640625,195632.671875,154560.796875,159001.203125,687753.3125,152681.734375,-0.05859375,1.006591796875,-0.06640625,-1.6784666776657104,0.2136230319738388,0.3051757514476776,100.0,34240.0,1.0
15:50:13.018553,168113.5625,165769.84375,163218.25,195626.859375,154563.296875,159009.328125,687742.125,152675.03125,-0.057861328125,1.005859375,-0.070556640625,-1.5869139432907104,0.3356933295726776,0.2746581733226776,100.0,34241.0,1.0
15:50:13.024823,168114.984375,165773.328125,163219.421875,195618.546875,154563.484375,159012.828125,687740.75,152673.515625,-0.058837890625,1.00439453125,-0.07080078125,-1.6174315214157104,0.3662109076976776,0.3356933295726776,100.0,34242.0,1.0
15:50:13.027341,168108.015625,165753.484375,163207.890625,195630.609375,154557.671875,158992.25,687799.3125,152681.828125,-0.059326171875,1.0048828125,-0.06884765625,-1.6174315214157104,0.3967284858226776,0.2136230319738388,100.0,34243.0,1.0
15:50:13.029934,168109.4375,165756.875,163208.78125,195631.859375,154558.65625,158996.734375,687750.3125,152682.265625,-0.06103515625,1.001953125,-0.0703125,-1.5563963651657104,0.4882812201976776,0.1220703050494194,100.0,34244.0,1.0
15:50:13.032288,168115.171875,165772.171875,163219.234375,195630.34375,154566.171875,159010.9375,687737.625,152677.53125,-0.059814453125,1.002685546875,-0.06982421875,-1.5258787870407104,0.4577636420726776,0.1525878757238388,100.0,34245.0,1.0
15:50:13.034858,168114.546875,165778.34375,163221.46875,195617.65625,154566.25,159017.65625,687730.9375,152670.015625,-0.06201171875,1.003173828125,-0.070068359375,-1.4648436307907104,0.5493163466453552,0.1220703050494194,100.0,34246.0,1.0
15:50:13.037280,168109.71875,165761.265625,163212.53125,195631.0625,154564.640625,158998.15625,687787.25,152680.125,-0.060302734375,1.004150390625,-0.06640625,-1.4343260526657104,0.5493163466453552,0.03051757626235485,100.0,34247.0,1.0
15:50:13.039791,168109.0,165756.875,163209.046875,195634.015625,154560.890625,158994.3125,687746.3125,152678.96875,-0.065673828125,1.0068359375,-0.0693359375,-1.2512205839157104,0.5187987685203552,0.0610351525247097,100.0,34248.0,1.0
15:50:13.043855,168118.46875,165774.40625,163222.734375,195634.640625,154569.03125,159011.03125,687740.5625,152677.890625,-0.06591796875,1.003173828125,-0.0703125,-1.1291502714157104,0.5493163466453552,0.1220703050494194,100.0,34249.0,1.0
15:50:13.043895,168123.65625,165786.03125,163229.703125,195625.15625,154573.3125,159022.203125,687722.4375,152673.859375,-0.0654296875,1.00341796875,-0.07177734375,-1.0681151151657104,0.5187987685203552,0.0,100.0,34250.0,1.0
15:50:13.044860,168117.21875,165769.75,163218.890625,195631.78125,154567.953125,159005.484375,687790.1875,152680.21875,-0.068359375,1.00439453125,-0.07275390625,-1.0070799589157104,0.4272460639476776,0.0915527269244194,100.0,34251.0,1.0
15:50:13.047927,168112.9375,165759.46875,163212.0,195635.703125,154562.234375,158996.109375,687755.5,152680.125,-0.067138671875,1.00439453125,-0.0712890625,-0.9460448622703552,0.3662109076976776,-0.03051757626235485,100.0,34252.0,1.0
15:50:13.047946,168122.953125,165778.515625,163226.84375,195637.59375,154572.609375,159015.0625,687745.625,152680.125,-0.066162109375,1.004150390625,-0.071533203125,-0.8544921278953552,0.3356933295726776,0.0,100.0,34253.0,1.0
15:50:13.049790,168124.46875,165788.53125,163231.3125,195625.421875,154574.296875,159025.25,687718.125,152673.15625,-0.06884765625,1.00537109375,-0.07177734375,-0.8850097060203552,0.3356933295726776,0.03051757626235485,100.0,34254.0,1.0
15:50:13.052350,168116.515625,165772.171875,163219.6875,195626.40625,154568.484375,159009.515625,687809.4375,152677.703125,-0.069580078125,1.00537109375,-0.070556640625,-0.7324218153953552,0.2136230319738388,0.03051757626235485,100.0,34255.0,1.0
15:50:13.056038,168109.625,165757.234375,163209.140625,195632.3125,154562.140625,158996.109375,687774.9375,152680.65625,-0.06787109375,1.00634765625,-0.07080078125,-0.8239745497703552,0.2136230319738388,-0.0610351525247097,100.0,34256.0,1.0
15:50:13.056071,168112.03125,165765.546875,163213.609375,195631.0625,154565.0,159004.859375,687758.8125,152676.453125,-0.06689453125,1.00537109375,-0.06982421875,-0.7629393935203552,0.1525878757238388,0.03051757626235485,100.0,34257.0,1.0
15:50:13.057396,168113.5625,165775.296875,163218.890625,195618.984375,154565.8125,159012.828125,687728.875,152666.09375,-0.06640625,1.0068359375,-0.070556640625,-0.7934569716453552,0.03051757626235485,0.0,100.0,34258.0,1.0
15:50:13.061625,168115.4375,165772.890625,163218.4375,195622.390625,154566.796875,159009.0625,687767.125,152672.96875,-0.065673828125,1.01025390625,-0.072265625,-0.7629393935203552,0.0,0.1525878757238388,100.0,34259.0,1.0
15:50:13.061654,168112.3125,165758.21875,163211.1875,195635.34375,154563.484375,158993.421875,687787.1875,152680.921875,-0.066162109375,1.01025390625,-0.07421875,-0.6408690810203552,-0.03051757626235485,0.2136230319738388,100.0,34260.0,1.0
15:50:13.074203,168118.203125,165770.46875,163218.34375,195637.140625,154568.046875,159007.015625,687749.6875,152680.84375,-0.06884765625,1.009033203125,-0.073486328125,-0.7324218153953552,-0.1220703050494194,0.3051757514476776,100.0,34261.0,1.0
15:50:13.075375,168121.25,165783.703125,163226.578125,195629.09375,154573.3125,159020.875,687730.5625,152673.953125,-0.068603515625,1.008056640625,-0.0703125,-0.7019042372703552,-0.0915527269244194,0.2441406100988388,100.0,34262.0,1.0
15:50:13.075399,168119.453125,165780.921875,163224.0625,195623.015625,154572.0625,159019.96875,687772.0,152675.203125,-0.066650390625,1.008056640625,-0.071044921875,-0.7934569716453552,-0.2441406100988388,0.2441406100988388,100.0,34263.0,1.0
15:50:13.082682,168111.046875,165758.671875,163210.03125,195633.109375,154565.265625,158997.4375,687805.3125,152680.65625,-0.0673828125,1.00732421875,-0.070556640625,-0.7019042372703552,-0.1220703050494194,0.3356933295726776,100.0,34264.0,1.0
15:50:13.082874,168118.203125,165766.625,163216.5625,195637.9375,154569.828125,159006.109375,687748.375,152684.59375,-0.0673828125,1.007568359375,-0.071533203125,-0.7324218153953552,-0.2746581733226776,0.2441406100988388,100.0,34265.0,1.0
15:50:13.082902,168124.28125,165782.265625,163227.015625,195634.1875,154576.0,159019.53125,687721.875,152679.765625,-0.068115234375,1.009033203125,-0.071533203125,-0.7019042372703552,-0.3662109076976776,0.3356933295726776,100.0,34266.0,1.0
15:50:13.093468,168122.234375,165782.8125,163225.5,195623.734375,154572.875,159020.421875,687748.0,152675.296875,-0.0673828125,1.007568359375,-0.069580078125,-0.6408690810203552,-0.3967284858226776,0.4272460639476776,100.0,34267.0,1.0
15:50:13.098479,168114.453125,165760.984375,163212.984375,195634.546875,154565.890625,158996.8125,687801.375,152683.25,-0.06689453125,1.00732421875,-0.0703125,-0.6408690810203552,-0.3662109076976776,0.2746581733226776,100.0,34268.0,1.0
15:50:13.098506,168117.21875,165764.65625,163213.515625,195638.921875,154565.53125,159000.484375,687751.0625,152684.859375,-0.066162109375,1.009521484375,-0.070556640625,-0.6713866591453552,-0.3356933295726776,0.3051757514476776,100.0,34269.0,1.0
15:50:13.103722,168120.890625,165777.703125,163221.5625,195634.09375,154570.1875,159012.90625,687749.4375,152677.984375,-0.065185546875,1.0078125,-0.06884765625,-0.7019042372703552,-0.3356933295726776,0.3356933295726776,100.0,34270.0,1.0
15:50:13.107989,168122.671875,165786.828125,163224.609375,195621.578125,154570.28125,159020.78125,687725.9375,152673.0625,-0.066162109375,1.008544921875,-0.07421875,-0.7019042372703552,-0.4577636420726776,0.2746581733226776,100.0,34271.0,1.0
15:50:13.108011,168119.453125,165769.21875,163215.9375,195633.46875,154567.5,159001.375,687787.0,152683.609375,-0.06591796875,1.007568359375,-0.0732421875,-0.6713866591453552,-0.4577636420726776,0.3662109076976776,100.0,34272.0,1.0
15:50:13.119864,168115.96875,165760.546875,163210.84375,195634.375,154563.21875,158995.65625,687750.625,152681.5625,-0.066162109375,1.009033203125,-0.07373046875,-0.6713866591453552,-0.4577636420726776,0.2746581733226776,100.0,34273.0,1.0
15:50:13.126112,168123.03125,165775.203125,163222.734375,195634.015625,154571.0,159008.890625,687742.1875,152677.890625,-0.064208984375,1.0087890625,-0.072265625,-0.7019042372703552,-0.3967284858226776,0.3356933295726776,100.0,34274.0,1.0
15:50:13.126142,168128.3125,165789.328125,163230.234375,195624.796875,154574.03125,159023.109375,687724.875,152673.859375,-0.064208984375,1.009765625,-0.07275390625,-0.7324218153953552,-0.3967284858226776,0.3051757514476776,100.0,34275.0,1.0
15:50:13.127302,168123.921875,165773.953125,163220.5,195633.109375,154568.9375,159006.390625,687811.5,152681.46875,-0.064697265625,1.008544921875,-0.070556640625,-0.7324218153953552,-0.3967284858226776,0.3356933295726776,100.0,34276.0,1.0
15:50:13.131085,168119.28125,165763.234375,163212.359375,195638.484375,154564.46875,158995.5625,687755.625,152682.71875,-0.0625,1.00830078125,-0.073974609375,-0.8544921278953552,-0.3967284858226776,0.3662109076976776,100.0,34277.0,1.0
15:50:13.139754,168123.75,165776.28125,163221.46875,195636.25,154568.9375,159008.53125,687733.375,152678.609375,-0.063720703125,1.0087890625,-0.072021484375,-0.7934569716453552,-0.3967284858226776,0.4577636420726776,100.0,34278.0,1.0
15:50:13.139774,168125.53125,165785.9375,163225.40625,195622.5625,154568.75,159019.34375,687709.1875,152669.21875,-0.062255859375,1.00830078125,-0.07177734375,-0.8850097060203552,-0.2746581733226776,0.3051757514476776,100.0,34279.0,1.0
15:50:13.147373,168123.65625,165776.90625,163221.125,195629.625,154568.9375,159010.140625,687800.5625,152677.53125,-0.062744140625,1.009033203125,-0.073974609375,-0.8544921278953552,-0.2441406100988388,0.4272460639476776,100.0,34280.0,1.0
15:50:13.158317,168118.75,165762.421875,163213.078125,195639.109375,154564.46875,158995.65625,687771.625,152682.359375,-0.062744140625,1.0087890625,-0.076171875,-0.8239745497703552,-0.2441406100988388,0.5187987685203552,100.0,34281.0,1.0
15:50:13.158340,168124.109375,165773.15625,163222.375,195640.625,154570.09375,159007.09375,687752.3125,152682.625,-0.0634765625,1.00830078125,-0.072998046875,-0.8544921278953552,-0.1525878757238388,0.5187987685203552,100.0,34282.0,1.0
15:50:13.159775,168132.328125,165791.65625,163234.078125,195634.640625,154577.15625,159024.265625,687723.875,152678.96875,-0.063720703125,1.008544921875,-0.071533203125,-0.8850097060203552,-0.0915527269244194,0.5187987685203552,100.0,34283.0,1.0
15:50:13.163031,168134.296875,165788.625,163233.8125,195636.875,154579.21875,159021.3125,687782.5,152685.125,-0.065185546875,1.0087890625,-0.0751953125,-1.0070799589157104,-0.03051757626235485,0.5187987685203552,100.0,34284.0,1.0
15:50:13.163042,168127.234375,165769.84375,163221.296875,195645.984375,154572.6875,159002.984375,687778.75,152688.796875,-0.063720703125,1.00927734375,-0.07373046875,-0.9155272841453552,0.03051757626235485,0.6408690810203552,100.0,34285.0,1.0
15:50:13.168093,168131.34375,165779.859375,163226.296875,195645.71875,154574.125,159012.546875,687741.5625,152685.578125,-0.064208984375,1.009033203125,-0.073486328125,-1.0375975370407104,0.0610351525247097,0.7629393935203552,100.0,34286.0,1.0
15:50:13.171565,168132.953125,165790.3125,163231.125,195635.890625,154575.015625,159021.3125,687723.6875,152676.015625,-0.0625,1.010009765625,-0.07421875,-1.0375975370407104,0.03051757626235485,0.6103515028953552,100.0,34287.0,1.0
15:50:13.171572,168131.796875,165789.25,163228.359375,195630.875,154572.515625,159020.421875,687764.625,152676.28125,-0.0634765625,1.01025390625,-0.07373046875,-1.1291502714157104,0.0610351525247097,0.6713866591453552,100.0,34288.0,1.0
15:50:13.181500,168122.5,165765.375,163213.703125,195641.78125,154562.59375,158995.75,687790.75,152681.28125,-0.062255859375,1.009521484375,-0.075927734375,-0.9765624403953552,0.1525878757238388,0.7629393935203552,100.0,34289.0,1.0
15:50:13.185608,168124.203125,165769.9375,163215.75,195641.515625,154562.046875,159000.75,687747.1875,152680.21875,-0.06201171875,1.010498046875,-0.075439453125,-1.1291502714157104,0.3051757514476776,0.7629393935203552,100.0,34290.0,1.0
15:50:13.185628,168129.46875,165785.75,163227.28125,195637.3125,154570.09375,159015.953125,687743.0,152676.8125,-0.0625,1.00927734375,-0.074462890625,-1.1901854276657104,0.3051757514476776,0.7629393935203552,100.0,34291.0,1.0
15:50:13.186161,168129.65625,165788.171875,163228.1875,195628.640625,154571.34375,159019.609375,687751.25,152674.484375,-0.063720703125,1.00927734375,-0.072265625,-1.1596678495407104,0.3662109076976776,0.7019042372703552,100.0,34292.0,1.0
15:50:13.203550,168127.234375,165773.328125,163220.3125,195644.734375,154570.015625,159003.96875,687789.875,152686.203125,-0.064453125,1.0087890625,-0.071533203125,-1.2207030057907104,0.3662109076976776,0.7629393935203552,100.0,34293.0,1.0
15:50:13.207241,168127.421875,165774.5,163220.140625,195644.65625,154568.671875,159006.296875,687740.6875,152685.125,-0.06396484375,1.010986328125,-0.071533203125,-1.2207030057907104,0.3051757514476776,0.7324218153953552,100.0,34294.0,1.0
15:50:13.207290,168129.734375,165785.578125,163226.390625,195638.84375,154571.34375,159015.953125,687748.75,152677.796875,-0.06298828125,1.0087890625,-0.072021484375,-1.2817381620407104,0.3967284858226776,0.7629393935203552,100.0,34295.0,1.0
15:50:13.207310,168129.65625,165791.03125,163225.59375,195627.3125,154569.203125,159020.6875,687729.875,152671.984375,-0.0625,1.009765625,-0.07275390625,-1.3427733182907104,0.5493163466453552,0.7934569716453552,100.0,34296.0,1.0
15:50:13.212348,168121.15625,165771.0,163212.796875,195637.046875,154563.125,159000.65625,687805.5,152679.671875,-0.060791015625,1.010986328125,-0.07373046875,-1.3427733182907104,0.4272460639476776,0.8239745497703552,100.0,34297.0,1.0
15:50:13.215327,168114.09375,165762.875,163203.59375,195633.921875,154554.546875,158993.421875,687751.125,152675.46875,-0.06201171875,1.010009765625,-0.074462890625,-1.3732908964157104,0.4882812201976776,1.0070799589157104,100.0,34298.0,1.0
15:50:13.217367,168116.78125,165773.859375,163211.8125,195631.15625,154560.171875,159005.125,687753.4375,152671.1875,-0.0615234375,1.009765625,-0.072998046875,-1.3427733182907104,0.4577636420726776,1.0681151151657104,100.0,34299.0,1.0
15:50:13.224798,168121.421875,165784.953125,163219.328125,195622.5625,154564.640625,159016.484375,687726.0,152668.765625,-0.0625,1.009033203125,-0.07177734375,-1.4038084745407104,0.5187987685203552,1.0681151151657104,100.0,34300.0,1.0
15:50:13.229256,168117.84375,165769.75,163211.015625,195633.03125,154562.5,159001.015625,687789.375,152677.890625,-0.0625,1.008056640625,-0.07421875,-1.4648436307907104,0.5493163466453552,1.0681151151657104,100.0,34301.0,1.0
15:50:13.229275,168117.3125,165764.03125,163207.625,195641.515625,154562.234375,158996.734375,687776.625,152681.640625,-0.062744140625,1.009521484375,-0.07177734375,-1.5563963651657104,0.5798339247703552,0.9765624403953552,100.0,34302.0,1.0
15:50:13.243159,168120.53125,165774.84375,163214.765625,195638.03125,154566.25,159006.734375,687752.375,152676.90625,-0.0625,1.00830078125,-0.072265625,-1.6174315214157104,0.6713866591453552,1.0986326932907104,100.0,34303.0,1.0
15:50:13.259913,168120.171875,165781.640625,163217.28125,195623.015625,154565.625,159014.25,687726.1875,152666.53125,-0.0625,1.0087890625,-0.072509765625,-1.5258787870407104,0.6103515028953552,1.0375975370407104,100.0,34304.0,1.0
15:50:13.259961,168114.265625,165767.875,163209.578125,195624.890625,154561.515625,159000.296875,687811.875,152669.84375,-0.06201171875,1.006591796875,-0.073486328125,-1.4953612089157104,0.6713866591453552,1.0681151151657104,100.0,34305.0,1.0
15:50:13.259975,168104.265625,165749.90625,163196.4375,195626.765625,154551.859375,158982.875,687762.6875,152668.59375,-0.06005859375,1.0078125,-0.07666015625,-1.4953612089157104,0.7629393935203552,1.0986326932907104,100.0,34306.0,1.0
15:50:13.259986,168110.421875,165765.015625,163204.84375,195626.234375,154557.84375,158998.15625,687739.9375,152666.796875,-0.06005859375,1.007568359375,-0.073974609375,-1.5258787870407104,0.7629393935203552,1.1901854276657104,100.0,34307.0,1.0
15:50:13.261026,168117.84375,165781.90625,163215.75,195621.21875,154565.265625,159013.984375,687720.0,152662.421875,-0.0595703125,1.01025390625,-0.07568359375,-1.4953612089157104,0.8850097060203552,1.1596678495407104,100.0,34308.0,1.0
15:50:13.261129,168114.546875,165774.046875,163211.1875,195622.03125,154563.75,159008.078125,687802.1875,152667.703125,-0.060791015625,1.00732421875,-0.07421875,-1.5563963651657104,0.7629393935203552,1.1291502714157104,100.0,34309.0,1.0
15:50:13.261162,168108.1875,165755.453125,163199.578125,195631.78125,154556.15625,158987.875,687807.0,152673.421875,-0.06201171875,1.009033203125,-0.073486328125,-1.6784666776657104,0.7019042372703552,1.1901854276657104,100.0,34310.0,1.0
15:50:13.263548,168111.859375,165764.921875,163204.21875,195631.0625,154559.28125,158998.875,687765.5625,152671.453125,-0.061279296875,1.010498046875,-0.072509765625,-1.6479490995407104,0.7934569716453552,1.1596678495407104,100.0,34311.0,1.0
15:50:13.272277,168119.1875,165779.40625,163215.390625,195626.140625,154566.875,159011.5625,687743.1875,152667.15625,-0.06005859375,1.009521484375,-0.07275390625,-1.6784666776657104,0.7629393935203552,1.1901854276657104,100.0,34312.0,1.0
15:50:13.279209,168123.21875,165780.65625,163217.546875,195627.390625,154569.828125,159012.90625,687751.4375,152672.171875,-0.06201171875,1.005126953125,-0.072998046875,-1.7395018339157104,0.7934569716453552,1.0986326932907104,100.0,34313.0,1.0
15:50:13.279238,168119.453125,165765.546875,163208.0625,195641.25,154565.09375,158996.015625,687801.9375,152679.234375,-0.06298828125,1.00830078125,-0.0751953125,-1.8005369901657104,0.8239745497703552,1.0681151151657104,100.0,34314.0,1.0
15:50:13.288914,168126.96875,165776.453125,163213.25,195642.0625,154565.09375,159005.3125,687754.0625,152676.28125,-0.062744140625,1.010009765625,-0.07666015625,-1.7395018339157104,0.7324218153953552,1.0986326932907104,100.0,34315.0,1.0
15:50:13.288939,168133.765625,165789.953125,163223.265625,195636.953125,154570.015625,159016.84375,687733.5,152670.203125,-0.062744140625,1.0107421875,-0.07470703125,-1.7700194120407104,0.7934569716453552,1.1596678495407104,100.0,34316.0,1.0
15:50:13.293769,168136.890625,165794.15625,163226.75,195631.6875,154573.3125,159021.5,687743.4375,152672.171875,-0.0634765625,1.008544921875,-0.07275390625,-1.7395018339157104,0.7324218153953552,1.0681151151657104,100.0,34317.0,1.0
15:50:13.305872,168133.671875,165776.09375,163217.28125,195646.265625,154570.71875,159001.375,687775.875,152682.625,-0.063720703125,1.005615234375,-0.074951171875,-1.7395018339157104,0.6713866591453552,1.0070799589157104,100.0,34318.0,1.0
15:50:13.305955,168140.203125,165782.984375,163221.296875,195650.546875,154572.421875,159007.453125,687737.3125,152683.078125,-0.065185546875,1.005615234375,-0.07666015625,-1.8310545682907104,0.6713866591453552,1.0070799589157104,100.0,34319.0,1.0
15:50:13.305981,168150.484375,165801.046875,163235.328125,195650.46875,154580.734375,159021.765625,687733.25,152679.765625,-0.06201171875,1.005615234375,-0.075927734375,-1.7700194120407104,0.4882812201976776,1.0375975370407104,100.0,34320.0,1.0
15:50:13.306003,168159.6875,165815.796875,163244.546875,195645.1875,154587.171875,159033.921875,687747.375,152681.28125,-0.060546875,1.009033203125,-0.07275390625,-1.7700194120407104,0.5493163466453552,1.0070799589157104,100.0,34321.0,1.0
15:50:13.321496,168157.1875,165800.59375,163236.40625,195659.84375,154586.28125,159018.1875,687803.6875,152694.421875,-0.060302734375,1.00927734375,-0.07177734375,-1.7700194120407104,0.5493163466453552,0.9765624403953552,100.0,34322.0,1.0
15:50:13.323027,168160.5,165798.90625,163234.4375,195664.859375,154583.421875,159016.84375,687750.875,152694.421875,-0.06298828125,1.008056640625,-0.07080078125,-1.8310545682907104,0.5187987685203552,1.0681151151657104,100.0,34323.0,1.0
15:50:13.323092,168173.015625,165820.09375,163249.28125,195667.984375,154592.625,159035.34375,687747.9375,152694.078125,-0.06201171875,1.00732421875,-0.069580078125,-1.8615721464157104,0.6408690810203552,0.9460448622703552,100.0,34324.0,1.0
15:50:13.348159,168178.640625,165834.390625,163257.6875,195658.5,154598.34375,159050.015625,687720.8125,152691.75,-0.060546875,1.007080078125,-0.073486328125,-1.8615721464157104,0.5798339247703552,0.9155272841453552,100.0,34325.0,1.0
15:50:13.348217,168175.78125,165819.90625,163249.375,195667.984375,154595.3125,159033.390625,687779.9375,152700.6875,-0.05908203125,1.00537109375,-0.0712890625,-1.8615721464157104,0.6103515028953552,0.8544921278953552,100.0,34326.0,1.0
15:50:13.374262,168169.796875,165808.015625,163239.453125,195671.03125,154588.96875,159020.78125,687758.125,152700.515625,-0.056396484375,1.005126953125,-0.072021484375,-1.7395018339157104,0.7019042372703552,0.9460448622703552,100.0,34327.0,1.0
15:50:13.377889,168176.5,165825.984375,163252.140625,195669.328125,154597.8125,159038.65625,687740.0625,152698.0,-0.057861328125,1.00634765625,-0.076171875,-1.8615721464157104,0.6408690810203552,1.0375975370407104,100.0,34328.0,1.0
15:50:13.377957,168181.328125,165838.953125,163259.5625,195659.578125,154599.78125,159051.359375,687721.875,152691.75,-0.059326171875,1.005126953125,-0.071044921875,-1.8615721464157104,0.5798339247703552,1.0681151151657104,100.0,34329.0,1.0
15:50:13.377975,168179.984375,165829.75,163254.5625,195665.75,154597.8125,159041.25,687800.9375,152699.890625,-0.0615234375,1.005126953125,-0.07373046875,-2.044677495956421,0.5187987685203552,0.9765624403953552,100.0,34330.0,1.0
15:50:13.380521,168176.140625,165814.09375,163245.265625,195673.34375,154592.359375,159026.046875,687771.8125,152702.296875,-0.06298828125,1.0078125,-0.07373046875,-1.8920897245407104,0.5187987685203552,0.9765624403953552,100.0,34331.0,1.0
15:50:13.380707,168181.859375,165824.828125,163253.390625,195672.8125,154597.71875,159038.21875,687751.4375,152700.0625,-0.064208984375,1.007568359375,-0.072021484375,-1.9836424589157104,0.5187987685203552,1.0070799589157104,100.0,34332.0,1.0
15:50:13.383637,168187.859375,165840.828125,163264.65625,195665.03125,154604.4375,159054.65625,687728.4375,152694.875,-0.064208984375,1.010498046875,-0.0732421875,-2.044677495956421,0.3662109076976776,0.9765624403953552,100.0,34333.0,1.0
15:50:13.384914,168183.734375,165835.015625,163258.765625,195663.15625,154602.546875,159048.671875,687772.6875,152698.28125,-0.063720703125,1.0107421875,-0.072265625,-2.014159917831421,0.3051757514476776,0.8544921278953552,100.0,34334.0,1.0
15:50:13.387332,168173.28125,165813.390625,163244.71875,195669.953125,154594.421875,159029.1875,687792.625,152700.78125,-0.061767578125,1.009521484375,-0.072998046875,-2.014159917831421,0.2746581733226776,0.9155272841453552,100.0,34335.0,1.0
15:50:13.389812,168176.5,165824.5625,163252.140625,195668.875,154599.78125,159043.484375,687750.3125,152699.078125,-0.06298828125,1.010009765625,-0.072998046875,-1.9531248807907104,0.1831054538488388,0.9460448622703552,100.0,34336.0,1.0
15:50:13.392500,168179.359375,165838.6875,163261.34375,195660.921875,154605.0625,159057.171875,687723.6875,152692.28125,-0.062255859375,1.0107421875,-0.075439453125,-2.014159917831421,0.1831054538488388,0.9765624403953552,100.0,34337.0,1.0
15:50:13.394770,168180.703125,165836.71875,163260.90625,195658.0625,154603.890625,159054.65625,687759.8125,152693.890625,-0.061279296875,1.010986328125,-0.0751953125,-1.8920897245407104,0.1525878757238388,0.9155272841453552,100.0,34338.0,1.0
15:50:13.397331,168169.703125,165810.703125,163243.015625,195666.640625,154592.453125,159027.21875,687783.125,152696.390625,-0.062744140625,1.011962890625,-0.07421875,-1.8615721464157104,0.1525878757238388,0.9460448622703552,100.0,34339.0,1.0
15:50:13.400126,168164.34375,165808.734375,163239.359375,195662.171875,154588.0625,159027.390625,687741.5625,152690.40625,-0.06005859375,1.01416015625,-0.072998046875,-1.9531248807907104,0.0610351525247097,0.9460448622703552,100.0,34340.0,1.0
15:50:13.402453,168165.40625,165821.703125,163247.5,195653.40625,154594.59375,159041.703125,687734.9375,152683.34375,-0.0625,1.01513671875,-0.068603515625,-1.9531248807907104,0.0915527269244194,0.7934569716453552,100.0,34341.0,1.0
15:50:13.405525,168166.671875,165826.53125,163249.375,195646.96875,154597.09375,159049.125,687760.8125,152684.6875,-0.062255859375,1.01416015625,-0.06884765625,-2.044677495956421,0.03051757626235485,0.7629393935203552,100.0,34342.0,1.0
15:50:13.407335,168156.828125,165802.5625,163235.953125,195657.4375,154591.640625,159024.984375,687817.6875,152692.8125,-0.06494140625,1.013916015625,-0.06982421875,-2.258300542831421,0.0610351525247097,0.6408690810203552,100.0,34343.0,1.0
15:50:13.410453,168152.09375,165798.359375,163232.390625,195655.828125,154588.609375,159022.65625,687756.75,152690.40625,-0.0634765625,1.0126953125,-0.068359375,-2.380370855331421,-0.0610351525247097,0.5798339247703552,100.0,34344.0,1.0
15:50:13.410477,168153.609375,165810.515625,163239.890625,195650.734375,154593.25,159034.28125,687758.375,152684.59375,-0.065673828125,1.01123046875,-0.068603515625,-2.349853277206421,-0.2746581733226776,0.3356933295726776,100.0,34345.0,1.0
