Timestamp,Fz,FC3,FCz,FC4,Cz,C3,C4
15:33:41.408545,165455.484375,191243.859375,181206.40625,207987.734375,193411.265625,192161.171875,690338.375,202650.3125,0.048095703125,1.008544921875,-0.0615234375,-3.082275152206421,-0.2746581733226776,1.0070799589157104,93.33334350585938,82465.0,1.0
15:33:41.415112,165595.859375,191267.734375,181229.828125,208025.8125,193431.828125,192165.375,690590.375,202658.0,0.047119140625,1.00927734375,-0.05908203125,-3.143310308456421,-0.2136230319738388,0.9155272841453552,93.33334350585938,82466.0,1.0
15:33:41.415163,165586.109375,191275.515625,181228.9375,207993.09375,193440.234375,192170.03125,691279.0625,202653.796875,0.04638671875,1.009033203125,-0.064208984375,-3.021239995956421,-0.3051757514476776,0.8544921278953552,93.33334350585938,82467.0,1.0
15:33:41.417567,165460.671875,191253.6875,181212.65625,207998.28125,193424.859375,192168.0625,691026.375,202657.375,0.046630859375,1.0087890625,-0.062744140625,-2.990722417831421,-0.2136230319738388,1.0070799589157104,93.33334350585938,82468.0,1.0
15:33:41.417578,165445.75,191247.078125,181211.859375,207996.140625,193418.0625,192165.015625,690363.4375,202655.140625,0.047607421875,1.00927734375,-0.058837890625,-3.021239995956421,-0.2441406100988388,1.0986326932907104,93.33334350585938,82469.0,1.0
15:33:41.425747,165577.890625,191265.046875,181229.5625,208027.78125,193433.171875,192164.484375,690474.125,202659.515625,0.049072265625,1.007568359375,-0.0615234375,-2.899169683456421,-0.2136230319738388,1.0070799589157104,93.33334350585938,82470.0,1.0
15:33:41.433903,165600.234375,191275.421875,181229.5625,208003.90625,193442.90625,192166.984375,691170.0,202655.765625,0.048095703125,1.008056640625,-0.06201171875,-2.807616949081421,-0.3051757514476776,1.0070799589157104,93.33334350585938,82471.0,1.0
15:33:41.433982,165476.765625,191254.671875,181213.296875,207995.78125,193430.75,192163.671875,691141.1875,202658.453125,0.0478515625,1.007080078125,-0.0625,-2.746581792831421,-0.3967284858226776,1.0681151151657104,93.33334350585938,82472.0,1.0
15:33:41.440181,165437.25,191247.34375,181214.71875,208001.953125,193426.546875,192164.578125,690417.8125,202662.46875,0.04931640625,1.01025390625,-0.061279296875,-2.716064214706421,-0.3051757514476776,1.0070799589157104,93.33334350585938,82473.0,1.0
15:33:41.440265,165558.9375,191261.828125,181231.703125,208026.0,193439.15625,192162.0625,690410.4375,202664.4375,0.047607421875,1.0078125,-0.0625,-2.685546636581421,-0.2441406100988388,0.9765624403953552,93.33334350585938,82474.0,1.0
15:33:41.445798,165611.5,191271.390625,181232.328125,208015.625,193448.453125,192160.1875,691059.0,202660.5,0.048095703125,1.00830078125,-0.062255859375,-2.655029058456421,-0.1831054538488388,1.0375975370407104,93.33334350585938,82475.0,1.0
15:33:41.450139,165495.359375,191251.90625,181212.75,207992.015625,193435.671875,192157.421875,691247.5,202657.90625,0.0478515625,1.0078125,-0.063720703125,-2.593993902206421,-0.2136230319738388,1.0986326932907104,93.33334350585938,82476.0,1.0
15:33:41.450149,165425.171875,191237.78125,181206.3125,207997.390625,193422.34375,192157.0625,690509.1875,202660.328125,0.046630859375,1.00927734375,-0.063232421875,-2.563476324081421,-0.2441406100988388,1.1291502714157104,93.33334350585938,82477.0,1.0
15:33:41.464585,165534.078125,191258.703125,181228.40625,208014.90625,193435.9375,192163.140625,690355.625,202663.8125,0.04638671875,1.009033203125,-0.057861328125,-2.471923589706421,-0.2441406100988388,1.0375975370407104,93.33334350585938,82478.0,1.0
15:33:41.467609,165621.875,191276.40625,181236.796875,208022.15625,193447.921875,192165.015625,690927.125,202662.03125,0.047607421875,1.008544921875,-0.059814453125,-2.502441167831421,-0.1831054538488388,1.0681151151657104,93.33334350585938,82479.0,1.0
15:33:41.467631,165522.0,191262.640625,181217.40625,207984.6875,193433.890625,192161.53125,691315.0,202652.8125,0.0458984375,1.0087890625,-0.060791015625,-2.410888433456421,-0.2441406100988388,1.1291502714157104,93.33334350585938,82480.0,1.0
15:33:41.469566,165428.046875,191242.515625,181205.6875,207994.25,193416.0,192156.703125,690620.5,202653.53125,0.0458984375,1.011474609375,-0.0595703125,-2.410888433456421,-0.2746581733226776,0.9765624403953552,93.33334350585938,82481.0,1.0
15:33:41.472087,165506.890625,191253.25,181221.609375,208001.140625,193423.515625,192157.515625,690328.8125,202653.359375,0.046142578125,1.010498046875,-0.05615234375,-2.441406011581421,-0.3051757514476776,0.9765624403953552,93.33334350585938,82482.0,1.0
15:33:41.479554,165615.53125,191268.0,181232.25,208020.984375,193436.46875,192155.8125,690801.5,202653.703125,0.047119140625,1.010986328125,-0.060302734375,-2.410888433456421,-0.2441406100988388,0.9460448622703552,93.33334350585938,82483.0,1.0
15:33:41.488893,165537.75,191259.953125,181215.25,207978.078125,193428.515625,192155.625,691339.25,202645.21875,0.048583984375,1.01220703125,-0.05859375,-2.349853277206421,-0.1831054538488388,0.9460448622703552,93.33334350585938,82484.0,1.0
15:33:41.488924,165420.625,191233.3125,181195.234375,207985.671875,193406.4375,192149.46875,690752.1875,202645.03125,0.04736328125,1.0107421875,-0.0595703125,-2.288818120956421,-0.2136230319738388,0.9460448622703552,93.33334350585938,82485.0,1.0
15:33:41.493942,165467.640625,191239.203125,181203.90625,207981.921875,193407.953125,192150.265625,690315.3125,202641.015625,0.048095703125,1.01171875,-0.05712890625,-2.288818120956421,-0.1220703050494194,0.9460448622703552,93.33334350585938,82486.0,1.0
15:33:41.493953,165594.78125,191256.46875,181218.390625,208012.5,193423.15625,192150.171875,690672.625,202645.75,0.04833984375,1.010986328125,-0.05615234375,-2.288818120956421,-0.1525878757238388,0.8850097060203552,93.33334350585938,82487.0,1.0
15:33:41.495783,165552.765625,191258.34375,181208.46875,207973.96875,193423.15625,192154.46875,691320.0625,202641.46875,0.049072265625,1.012451171875,-0.0595703125,-2.258300542831421,-0.1831054538488388,0.9155272841453552,93.33334350585938,82488.0,1.0
15:33:41.498336,165429.109375,191236.265625,181192.375,207983.265625,193405.71875,192151.34375,690893.25,202647.1875,0.04833984375,1.01220703125,-0.06005859375,-2.227782964706421,-0.2746581733226776,0.9765624403953552,93.33334350585938,82489.0,1.0
15:33:41.508231,165448.515625,191239.125,181200.59375,207979.953125,193405.90625,192153.3125,690325.0625,202646.203125,0.048095703125,1.010009765625,-0.06103515625,-2.227782964706421,-0.1525878757238388,1.0375975370407104,93.33334350585938,82490.0,1.0
15:33:41.511361,165589.328125,191262.015625,181221.34375,208015.890625,193425.65625,192156.96875,690553.0625,202652.375,0.04736328125,1.01025390625,-0.05810546875,-2.258300542831421,-0.1220703050494194,1.0375975370407104,93.33334350585938,82491.0,1.0
15:33:41.511383,165579.5,191268.625,181215.96875,207981.65625,193429.234375,192160.109375,691258.3125,202644.328125,0.05126953125,1.010986328125,-0.0576171875,-2.227782964706421,-0.03051757626235485,1.0681151151657104,93.33334350585938,82492.0,1.0
15:33:41.517108,165447.625,191240.109375,181192.546875,207978.609375,193408.578125,192152.859375,691034.9375,202641.8125,0.049072265625,1.01123046875,-0.05908203125,-2.288818120956421,-0.0610351525247097,0.9460448622703552,93.33334350585938,82493.0,1.0
15:33:41.525120,165428.046875,191231.4375,181191.65625,207973.25,193402.6875,192149.8125,690366.375,202639.40625,0.048583984375,1.0126953125,-0.057861328125,-2.227782964706421,0.0,0.9765624403953552,93.33334350585938,82494.0,1.0
15:33:41.525157,165561.703125,191249.484375,181211.765625,208003.90625,193419.578125,192151.421875,690471.0,202643.515625,0.048583984375,1.010498046875,-0.055419921875,-2.288818120956421,-0.03051757626235485,0.9155272841453552,93.33334350585938,82495.0,1.0
15:33:41.527029,165589.421875,191263.53125,181214.71875,207982.453125,193431.203125,192156.4375,691154.3125,202640.75,0.04736328125,1.010986328125,-0.0576171875,-2.319335699081421,-0.03051757626235485,0.9460448622703552,93.33334350585938,82496.0,1.0
15:33:41.537000,165468.8125,191246.71875,181198.71875,207970.65625,193419.578125,192155.8125,691149.0625,202642.09375,0.048583984375,1.011474609375,-0.0576171875,-2.349853277206421,0.03051757626235485,1.0070799589157104,93.33334350585938,82497.0,1.0
15:33:41.541346,165422.859375,191236.265625,181195.234375,207970.5625,193411.359375,192155.546875,690420.75,202641.375,0.04931640625,1.012451171875,-0.056640625,-2.349853277206421,0.03051757626235485,1.0070799589157104,93.33334350585938,82498.0,1.0
15:33:41.541361,165547.671875,191257.625,181218.125,207996.40625,193428.78125,192161.4375,690381.75,202646.46875,0.048583984375,1.010986328125,-0.056640625,-2.319335699081421,-0.0610351525247097,0.9460448622703552,93.33334350585938,82499.0,1.0
15:33:41.551394,165608.546875,191273.71875,181224.203125,207990.40625,193440.328125,192164.484375,691022.375,202643.703125,0.049072265625,1.011962890625,-0.053466796875,-2.197265386581421,0.0,1.0375975370407104,93.33334350585938,82500.0,1.0
15:33:41.551420,165492.5,191254.3125,181203.015625,207962.703125,193425.484375,192160.015625,691241.875,202636.546875,0.0498046875,1.0107421875,-0.053955078125,-2.227782964706421,-0.03051757626235485,1.0375975370407104,93.33334350585938,82501.0,1.0
15:33:41.553360,165414.453125,191234.921875,181192.28125,207966.1875,193410.015625,192154.921875,690502.0,202637.609375,0.051513671875,1.010498046875,-0.05712890625,-2.227782964706421,0.1220703050494194,1.0070799589157104,93.33334350585938,82502.0,1.0
15:33:41.555926,165516.203125,191249.21875,181209.265625,207981.734375,193418.953125,192156.25,690332.125,202641.28125,0.050537109375,1.0107421875,-0.05615234375,-2.258300542831421,0.0610351525247097,1.0681151151657104,93.33334350585938,82503.0,1.0
15:33:41.568302,165606.9375,191264.25,181217.046875,207993.09375,193431.640625,192155.453125,690893.625,202642.625,0.05078125,1.00927734375,-0.05859375,-2.319335699081421,0.0915527269244194,1.0070799589157104,93.33334350585938,82504.0,1.0
15:33:41.571374,165510.734375,191251.640625,181200.0625,207957.421875,193422.171875,192153.21875,691301.5625,202637.703125,0.0498046875,1.0087890625,-0.05908203125,-2.319335699081421,0.0,1.0986326932907104,93.33334350585938,82505.0,1.0
15:33:41.571383,165413.109375,191229.28125,181186.734375,207967.171875,193405.09375,192147.859375,690617.8125,202639.140625,0.05029296875,1.010498046875,-0.0546875,-2.319335699081421,-0.0610351525247097,1.0681151151657104,93.33334350585938,82506.0,1.0
15:33:41.573347,165488.5625,191239.484375,181200.0625,207970.828125,193411.53125,192149.8125,690302.1875,202637.4375,0.052734375,1.010986328125,-0.054443359375,-2.288818120956421,0.1220703050494194,1.0070799589157104,93.33334350585938,82507.0,1.0
15:33:41.579746,165601.765625,191257.453125,181212.9375,207991.9375,193426.90625,192149.375,690761.3125,202638.15625,0.04931640625,1.010498046875,-0.053466796875,-2.166747808456421,0.1220703050494194,0.9155272841453552,93.33334350585938,82508.0,1.0
15:33:41.588883,165530.765625,191252.171875,181198.265625,207949.375,193422.890625,192150.171875,691322.4375,202629.5625,0.049072265625,1.0107421875,-0.053466796875,-2.197265386581421,0.03051757626235485,0.9460448622703552,93.33334350585938,82509.0,1.0
15:33:41.588907,165415.703125,191228.84375,181181.90625,207958.5,193404.734375,192145.0,690748.9375,202631.265625,0.0498046875,1.01025390625,-0.05078125,-2.258300542831421,0.0915527269244194,0.9155272841453552,93.33334350585938,82510.0,1.0
15:33:41.591358,165460.234375,191232.328125,181189.859375,207956.609375,193406.796875,192144.90625,690293.875,202628.046875,0.05029296875,1.011474609375,-0.0546875,-2.197265386581421,0.1220703050494194,0.9155272841453552,93.33334350585938,82511.0,1.0
15:33:41.591412,165588.078125,191247.4375,181204.34375,207989.25,193421.09375,192142.21875,690644.875,202630.90625,0.050048828125,1.012451171875,-0.0537109375,-2.288818120956421,0.2136230319738388,1.0375975370407104,93.33334350585938,82512.0,1.0
15:33:41.600890,165546.234375,191245.46875,181192.453125,207946.328125,193418.328125,192140.875,691299.25,202621.875,0.051513671875,1.0107421875,-0.053466796875,-2.227782964706421,0.1525878757238388,1.0986326932907104,93.33334350585938,82513.0,1.0
15:33:41.605166,165417.21875,191218.921875,181171.53125,207950.0,193395.796875,192132.296875,690896.8125,202621.53125,0.053466796875,1.009765625,-0.0546875,-2.258300542831421,0.1525878757238388,1.0986326932907104,93.33334350585938,82514.0,1.0
15:33:41.605180,165428.125,191218.640625,181176.359375,207945.078125,193391.765625,192131.046875,690318.0,202619.5625,0.055419921875,1.008056640625,-0.05517578125,-2.136230230331421,0.1831054538488388,1.1596678495407104,93.33334350585938,82515.0,1.0
15:33:41.634958,165563.484375,191236.078125,181192.015625,207977.890625,193404.734375,192129.25,690538.5625,202623.140625,0.0537109375,1.0068359375,-0.052978515625,-2.258300542831421,0.3051757514476776,1.0681151151657104,93.33334350585938,82516.0,1.0
15:33:41.637151,165557.40625,191240.90625,181185.84375,207944.375,193409.921875,192131.671875,691233.125,202617.859375,0.0537109375,1.005615234375,-0.055908203125,-2.227782964706421,0.3356933295726776,1.0070799589157104,93.33334350585938,82517.0,1.0
15:33:41.639511,165432.421875,191220.34375,181171.0,207947.046875,193397.578125,192130.78125,691034.4375,202624.921875,0.053955078125,1.008056640625,-0.0595703125,-2.227782964706421,0.2746581733226776,1.0986326932907104,93.33334350585938,82518.0,1.0
15:33:41.642042,165415.96875,191217.84375,181175.734375,207949.734375,193395.171875,192133.015625,690358.0625,202629.03125,0.052978515625,1.00830078125,-0.056884765625,-2.075195074081421,0.3662109076976776,1.0986326932907104,93.33334350585938,82519.0,1.0
15:33:41.644584,165552.9375,191239.484375,181199.703125,207985.578125,193413.59375,192136.40625,690457.125,202636.28125,0.05419921875,1.01123046875,-0.057373046875,-2.075195074081421,0.3967284858226776,1.0986326932907104,93.33334350585938,82520.0,1.0
15:33:41.670842,165586.296875,191253.515625,181203.71875,207966.71875,193425.84375,192142.9375,691144.375,202634.671875,0.05224609375,1.00927734375,-0.05859375,-2.014159917831421,0.4272460639476776,1.0986326932907104,93.33334350585938,82521.0,1.0
15:33:41.697015,165466.390625,191237.59375,181189.5,207954.734375,193416.453125,192144.546875,691168.625,202636.8125,0.0556640625,1.010009765625,-0.05859375,-1.9836424589157104,0.4272460639476776,1.0986326932907104,93.33334350585938,82522.0,1.0
15:33:41.699571,165419.90625,191231.875,181190.9375,207959.5625,193412.421875,192149.28125,690435.9375,202640.828125,0.055908203125,1.009033203125,-0.05810546875,-1.8310545682907104,0.4272460639476776,1.0986326932907104,93.33334350585938,82523.0,1.0
15:33:41.702016,165541.765625,191250.75,181211.234375,207983.4375,193427.625,192153.3125,690388.1875,202643.34375,0.057373046875,1.009765625,-0.056884765625,-1.7395018339157104,0.4882812201976776,1.0070799589157104,93.33334350585938,82524.0,1.0
15:33:41.704463,165604.796875,191264.421875,181214.359375,207977.1875,193437.8125,192154.640625,691020.125,202640.484375,0.056884765625,1.00830078125,-0.057373046875,-1.6174315214157104,0.5798339247703552,0.9155272841453552,93.33334350585938,82525.0,1.0
15:33:41.707010,165490.625,191247.25,181194.96875,207950.171875,193422.890625,192151.15625,691259.125,202634.578125,0.0556640625,1.009033203125,-0.05859375,-1.5258787870407104,0.6408690810203552,0.8239745497703552,93.33334350585938,82526.0,1.0
15:33:41.709500,165411.046875,191228.921875,181184.234375,207956.703125,193406.171875,192148.296875,690519.5625,202635.03125,0.05615234375,1.00830078125,-0.057861328125,-1.5258787870407104,0.6408690810203552,0.8544921278953552,93.33334350585938,82527.0,1.0
15:33:41.711985,165511.90625,191243.765625,181200.59375,207972.796875,193416.0,192151.96875,690340.25,202637.53125,0.052734375,1.0087890625,-0.057373046875,-1.4038084745407104,0.6713866591453552,0.8544921278953552,93.33334350585938,82528.0,1.0
15:33:41.714458,165602.203125,191256.828125,181208.1875,207983.53125,193426.734375,192149.734375,690889.875,202637.078125,0.0498046875,1.008544921875,-0.054443359375,-1.3732908964157104,0.6103515028953552,0.5187987685203552,93.33334350585938,82529.0,1.0
15:33:41.717091,165508.15625,191245.5625,181190.484375,207946.328125,193417.078125,192147.9375,691317.6875,202632.96875,0.048095703125,1.010009765625,-0.056396484375,-1.3122557401657104,0.6713866591453552,0.3356933295726776,93.33334350585938,82530.0,1.0
15:33:41.719469,165406.84375,191224.09375,181176.71875,207956.171875,193401.421875,192144.8125,690646.3125,202636.09375,0.047607421875,1.012451171875,-0.0546875,-1.4343260526657104,0.7934569716453552,0.0915527269244194,93.33334350585938,82531.0,1.0
15:33:41.722070,165483.46875,191237.875,181193.703125,207963.140625,193411.359375,192150.359375,690313.625,202638.6875,0.048828125,1.011962890625,-0.05615234375,-1.4038084745407104,0.6713866591453552,0.03051757626235485,93.33334350585938,82532.0,1.0
15:33:41.724564,165604.34375,191260.578125,181211.953125,207994.53125,193430.9375,192155.625,690758.6875,202646.109375,0.048828125,1.013427734375,-0.05419921875,-1.4343260526657104,0.5493163466453552,-0.0915527269244194,93.33334350585938,82533.0,1.0
15:33:41.727040,165540.96875,191258.4375,181202.375,207955.8125,193429.59375,192159.390625,691332.6875,202642.171875,0.048828125,1.0126953125,-0.0556640625,-1.5258787870407104,0.5493163466453552,-0.2441406100988388,93.33334350585938,82534.0,1.0
15:33:41.729500,165423.84375,191233.125,181186.203125,207965.828125,193412.421875,192152.859375,690782.375,202645.65625,0.048583984375,1.0126953125,-0.055908203125,-1.4648436307907104,0.5493163466453552,-0.2746581733226776,93.33334350585938,82535.0,1.0
15:33:41.732042,165466.21875,191240.1875,181197.90625,207966.984375,193417.609375,192155.546875,690311.3125,202647.90625,0.0498046875,1.013916015625,-0.056396484375,-1.6174315214157104,0.4882812201976776,-0.3662109076976776,93.33334350585938,82536.0,1.0
15:33:41.734557,165595.953125,191258.96875,181213.921875,207997.921875,193433.171875,192154.734375,690637.625,202652.1875,0.050048828125,1.013671875,-0.054931640625,-1.7395018339157104,0.4882812201976776,-0.4577636420726776,93.33334350585938,82537.0,1.0
15:33:41.737034,165559.734375,191259.0625,181203.984375,207955.8125,193430.125,192153.484375,691300.0,202642.53125,0.052001953125,1.013671875,-0.054443359375,-1.7700194120407104,0.3662109076976776,-0.3051757514476776,93.33334350585938,82538.0,1.0
15:33:41.739546,165433.140625,191232.859375,181184.859375,207961.265625,193410.734375,192147.859375,690920.8125,202641.640625,0.051025390625,1.014404296875,-0.05615234375,-1.7395018339157104,0.2746581733226776,-0.4272460639476776,93.33334350585938,82539.0,1.0
15:33:41.742622,165437.703125,191230.890625,181186.28125,207952.140625,193405.984375,192147.3125,690331.8125,202634.390625,0.048828125,1.0146484375,-0.05712890625,-1.8005369901657104,0.3967284858226776,-0.3662109076976776,93.33334350585938,82540.0,1.0
15:33:41.742683,165574.046875,191251.015625,181205.25,207984.25,193423.421875,192150.890625,690542.875,202638.15625,0.049560546875,1.015380859375,-0.056396484375,-1.8615721464157104,0.3967284858226776,-0.3356933295726776,93.33334350585938,82541.0,1.0
15:33:41.749491,165570.015625,191254.3125,181197.640625,207947.140625,193426.46875,192152.5,691237.5,202629.390625,0.048828125,1.014404296875,-0.054931640625,-1.8005369901657104,0.3662109076976776,-0.2441406100988388,93.33334350585938,82542.0,1.0
15:33:41.749556,165437.96875,191226.6875,181175.734375,207939.1875,193407.515625,192145.625,691062.125,202628.234375,0.048583984375,1.01513671875,-0.052978515625,-1.8920897245407104,0.3356933295726776,-0.1525878757238388,93.33334350585938,82543.0,1.0
15:33:41.749583,165412.125,191217.65625,181173.6875,207934.625,193400.359375,192143.734375,690374.0,202627.515625,0.0478515625,1.014892578125,-0.05615234375,-1.8615721464157104,0.3356933295726776,-0.2441406100988388,93.33334350585938,82544.0,1.0
15:33:41.753271,165545.4375,191236.703125,181193.890625,207968.515625,193416.890625,192145.078125,690461.4375,202633.140625,0.04833984375,1.0146484375,-0.05517578125,-2.105712652206421,0.2136230319738388,-0.1525878757238388,93.33334350585938,82545.0,1.0
15:33:41.753328,165582.453125,191250.125,181196.84375,207953.484375,193426.546875,192148.203125,691141.0,202629.921875,0.046630859375,1.01611328125,-0.053955078125,-2.227782964706421,0.1831054538488388,-0.0915527269244194,93.33334350585938,82546.0,1.0
15:33:41.753352,165459.78125,191231.34375,181178.78125,207937.484375,193410.90625,192144.90625,691190.8125,202627.515625,0.044921875,1.014404296875,-0.05322265625,-2.227782964706421,0.1220703050494194,-0.1525878757238388,93.33334350585938,82547.0,1.0
15:33:41.756397,165408.546875,191221.5,181177.796875,207940.96875,193404.109375,192146.0625,690454.25,202629.296875,0.0419921875,1.013671875,-0.05126953125,-2.227782964706421,0.0610351525247097,0.0915527269244194,93.33334350585938,82548.0,1.0
15:33:41.756463,165532.109375,191244.03125,181202.109375,207966.09375,193423.0625,192152.5,690394.125,202635.65625,0.043212890625,1.01416015625,-0.0517578125,-2.288818120956421,0.0,0.0915527269244194,93.33334350585938,82549.0,1.0
15:33:41.758569,165604.625,191262.90625,181213.296875,207966.71875,193439.421875,192157.59375,691021.375,202637.171875,0.042724609375,1.015380859375,-0.05224609375,-2.349853277206421,-0.0915527269244194,0.0,93.33334350585938,82550.0,1.0
15:33:41.760872,165497.328125,191249.84375,181197.46875,207940.171875,193429.953125,192157.515625,691288.25,202634.046875,0.04248046875,1.011962890625,-0.0537109375,-2.380370855331421,-0.1831054538488388,0.0610351525247097,93.33334350585938,82551.0,1.0
15:33:41.763289,165416.421875,191233.125,181188.875,207949.828125,193415.109375,192154.828125,690551.875,202636.546875,0.042724609375,1.011962890625,-0.053955078125,-2.471923589706421,-0.2136230319738388,0.1220703050494194,93.33334350585938,82552.0,1.0
15:33:41.765780,165510.390625,191243.6875,181203.015625,207963.140625,193422.4375,192154.734375,690342.0625,202638.59375,0.043212890625,1.01171875,-0.05224609375,-2.502441167831421,-0.2746581733226776,0.1220703050494194,93.33334350585938,82553.0,1.0
15:33:41.768381,165603.453125,191257.265625,181210.15625,207977.0,193432.359375,192153.390625,690878.875,202638.6875,0.042236328125,1.011962890625,-0.052734375,-2.441406011581421,-0.3662109076976776,0.2136230319738388,93.33334350585938,82554.0,1.0
15:33:41.770779,165511.453125,191246.8125,181191.296875,207937.390625,193420.46875,192151.703125,691335.3125,202631.171875,0.043212890625,1.011962890625,-0.051025390625,-2.441406011581421,-0.4577636420726776,0.1525878757238388,93.33334350585938,82555.0,1.0
15:33:41.773301,165407.65625,191224.453125,181176.90625,207946.6875,193403.578125,192146.421875,690669.1875,202634.046875,0.045166015625,1.01025390625,-0.052734375,-2.380370855331421,-0.6103515028953552,0.2746581733226776,93.33334350585938,82556.0,1.0
15:33:41.780205,165480.796875,191238.765625,181196.484375,207952.234375,193414.578125,192152.0625,690324.0625,202637.4375,0.046630859375,1.0107421875,-0.0537109375,-2.380370855331421,-0.5187987685203552,0.3051757514476776,93.33334350585938,82557.0,1.0
15:33:41.780276,165602.828125,191260.3125,181216.421875,207979.234375,193434.15625,192156.171875,690764.5,202641.90625,0.046142578125,1.01025390625,-0.0556640625,-2.319335699081421,-0.7019042372703552,0.2136230319738388,93.33334350585938,82558.0,1.0
15:33:41.782662,165542.03125,191258.796875,181207.484375,207937.75,193433.25,192158.5,691347.0625,202635.65625,0.044921875,1.009521484375,-0.05419921875,-2.258300542831421,-0.7324218153953552,0.3356933295726776,93.33334350585938,82559.0,1.0
15:33:41.782725,165427.328125,191236.53125,181193.265625,207950.890625,193418.953125,192154.375,690812.6875,202641.640625,0.0458984375,1.0087890625,-0.056884765625,-2.075195074081421,-0.7019042372703552,0.3051757514476776,93.33334350585938,82560.0,1.0
15:33:41.797114,165467.5625,191244.125,181205.875,207952.0625,193425.84375,192158.046875,690326.125,202644.40625,0.046630859375,1.0068359375,-0.05322265625,-2.075195074081421,-0.7629393935203552,0.2746581733226776,93.33334350585938,82561.0,1.0
15:33:41.801983,165601.21875,191264.421875,181224.734375,207988.171875,193443.890625,192159.296875,690640.875,202650.671875,0.046630859375,1.00732421875,-0.0556640625,-2.014159917831421,-0.7934569716453552,0.3356933295726776,93.33334350585938,82562.0,1.0
15:33:41.802049,165567.78125,191264.609375,181214.1875,207946.609375,193442.5625,192160.28125,691308.0,202640.75,0.048583984375,1.009033203125,-0.056884765625,-1.9531248807907104,-0.7324218153953552,0.2746581733226776,93.33334350585938,82563.0,1.0
15:33:41.802082,165438.59375,191239.03125,181193.359375,207948.484375,193423.15625,192156.4375,690949.9375,202641.46875,0.048095703125,1.008544921875,-0.05615234375,-1.9836424589157104,-0.7629393935203552,0.3356933295726776,93.33334350585938,82564.0,1.0
15:33:41.805158,165442.171875,191238.40625,181196.21875,207942.9375,193420.46875,192158.21875,690346.0625,202639.859375,0.0478515625,1.010009765625,-0.053955078125,-1.8920897245407104,-0.7629393935203552,0.4272460639476776,93.33334350585938,82565.0,1.0
15:33:41.805219,165576.09375,191255.921875,181211.765625,207974.859375,193432.8125,192156.96875,690541.875,202642.0,0.049560546875,1.0107421875,-0.05517578125,-1.8310545682907104,-0.7019042372703552,0.4577636420726776,93.33334350585938,82566.0,1.0
15:33:41.817037,165578.59375,191263.96875,181207.296875,207942.140625,193437.28125,192160.015625,691235.0625,202634.75,0.048583984375,1.01025390625,-0.055419921875,-1.7395018339157104,-0.7019042372703552,0.4882812201976776,93.33334350585938,82567.0,1.0
15:33:41.821458,165450.65625,191243.234375,181190.484375,207938.640625,193422.703125,192156.96875,691088.8125,202636.546875,0.04931640625,1.0107421875,-0.055419921875,-1.7089842557907104,-0.6103515028953552,0.4577636420726776,93.33334350585938,82568.0,1.0
15:33:41.821520,165423.125,191234.921875,181192.28125,207939.265625,193418.953125,192156.890625,690395.875,202639.671875,0.050537109375,1.009765625,-0.0556640625,-1.5869139432907104,-0.5798339247703552,0.5493163466453552,93.33334350585938,82569.0,1.0
15:33:41.827693,165550.34375,191247.609375,181210.421875,207966.8125,193433.25,192155.09375,690453.375,202644.5,0.051513671875,1.009521484375,-0.057373046875,-1.6784666776657104,-0.3662109076976776,0.6713866591453552,93.33334350585938,82570.0,1.0
15:33:41.827752,165586.375,191257.265625,181207.921875,207948.484375,193438.171875,192154.203125,691127.25,202637.96875,0.052490234375,1.0107421875,-0.053466796875,-1.6479490995407104,-0.4272460639476776,0.6103515028953552,93.33334350585938,82571.0,1.0
15:33:41.842749,165467.015625,191240.28125,181188.53125,207932.03125,193419.75,192151.15625,691207.25,202634.9375,0.052490234375,1.009765625,-0.0537109375,-1.6479490995407104,-0.2746581733226776,0.6713866591453552,93.33334350585938,82572.0,1.0
15:33:41.842882,165409.078125,191227.9375,181183.421875,207934.984375,193408.578125,192149.546875,690472.125,202635.296875,0.052734375,1.0107421875,-0.052978515625,-1.6174315214157104,-0.2136230319738388,0.6713866591453552,93.33334350585938,82573.0,1.0
15:33:41.848313,165524.328125,191243.859375,181200.953125,207953.578125,193420.65625,192150.265625,690382.375,202637.078125,0.052734375,1.010498046875,-0.0537109375,-1.5563963651657104,-0.0915527269244194,0.7629393935203552,93.33334350585938,82574.0,1.0
15:33:41.855155,165597.640625,191260.75,181208.109375,207951.78125,193433.4375,192153.9375,690996.0,202635.734375,0.0498046875,1.0087890625,-0.053466796875,-1.4953612089157104,-0.03051757626235485,0.8239745497703552,93.33334350585938,82575.0,1.0
15:33:41.855192,165492.0625,191246.984375,181190.765625,207923.796875,193422.796875,192153.125,691289.6875,202632.703125,0.05029296875,1.0087890625,-0.054931640625,-1.4038084745407104,0.0915527269244194,0.8544921278953552,93.33334350585938,82576.0,1.0
15:33:41.859481,165405.6875,191227.046875,181179.765625,207932.5625,193406.875,192148.921875,690562.875,202634.484375,0.049072265625,1.00927734375,-0.057373046875,-1.4038084745407104,0.0610351525247097,0.7629393935203552,93.33334350585938,82577.0,1.0
15:33:41.859520,165497.6875,191239.203125,181195.140625,207943.921875,193414.84375,192150.71875,690343.5625,202634.9375,0.049560546875,1.00927734375,-0.0556640625,-1.3427733182907104,0.2136230319738388,0.6103515028953552,93.33334350585938,82578.0,1.0
15:33:41.859537,165598.1875,191255.84375,181205.421875,207959.921875,193429.328125,192151.96875,690871.0625,202635.5625,0.050537109375,1.010009765625,-0.05810546875,-1.3122557401657104,0.2746581733226776,0.7629393935203552,93.33334350585938,82579.0,1.0
15:33:41.862051,165512.4375,191247.703125,181191.828125,207923.71875,193423.59375,192153.390625,691341.1875,202630.46875,0.0498046875,1.01025390625,-0.058349609375,-1.2817381620407104,0.3662109076976776,0.6408690810203552,93.33334350585938,82580.0,1.0
15:33:41.868414,165409.0,191226.6875,181179.578125,207934.984375,193408.40625,192149.375,690695.3125,202634.75,0.049072265625,1.010009765625,-0.056396484375,-1.2817381620407104,0.3662109076976776,0.6103515028953552,93.33334350585938,82581.0,1.0
15:33:41.883833,165472.828125,191236.078125,181192.09375,207935.703125,193413.40625,192150.71875,690324.1875,202633.953125,0.048095703125,1.011962890625,-0.056640625,-1.3427733182907104,0.3662109076976776,0.5798339247703552,93.33334350585938,82582.0,1.0
15:33:41.883864,165591.921875,191253.0625,181204.625,207960.90625,193427.625,192150.0,690740.375,202634.75,0.04736328125,1.011474609375,-0.056396484375,-1.2817381620407104,0.4882812201976776,0.5187987685203552,93.33334350585938,82583.0,1.0
15:33:41.886320,165527.109375,191246.71875,181188.078125,207913.609375,193418.328125,192147.765625,691339.75,202622.0625,0.04833984375,1.01123046875,-0.05712890625,-1.2207030057907104,0.4577636420726776,0.5798339247703552,93.33334350585938,82584.0,1.0
15:33:41.886357,165403.546875,191220.875,181167.328125,207917.8125,193394.8125,192140.171875,690822.625,202618.484375,0.046142578125,1.009521484375,-0.057373046875,-1.0681151151657104,0.3662109076976776,0.5493163466453552,93.33334350585938,82585.0,1.0
15:33:41.893361,165436.359375,191225.625,181174.125,207912.09375,193394.359375,192141.234375,690322.75,202614.90625,0.04736328125,1.010009765625,-0.05859375,-1.0681151151657104,0.3967284858226776,0.4882812201976776,93.33334350585938,82586.0,1.0
15:33:41.900173,165567.0625,191242.078125,181189.0625,207943.296875,193408.21875,192138.109375,690624.5,202617.59375,0.04833984375,1.01123046875,-0.056640625,-1.1596678495407104,0.4272460639476776,0.5187987685203552,93.33334350585938,82587.0,1.0
15:33:41.900234,165539.796875,191245.375,181181.109375,207902.4375,193410.1875,192139.359375,691296.6875,202610.4375,0.048583984375,1.010498046875,-0.056396484375,-1.2207030057907104,0.4882812201976776,0.4577636420726776,93.33334350585938,82588.0,1.0
15:33:41.910164,165413.28125,191222.140625,181165.375,207907.078125,193395.265625,192137.125,690961.625,202613.65625,0.050048828125,1.0087890625,-0.0556640625,-1.2207030057907104,0.5493163466453552,0.3967284858226776,93.33334350585938,82589.0,1.0
15:33:41.910229,165419.8125,191227.5,181177.34375,207907.796875,193400.796875,192145.0,690347.9375,202619.734375,0.04931640625,1.0078125,-0.058349609375,-1.1596678495407104,0.5493163466453552,0.3662109076976776,93.33334350585938,82590.0,1.0
15:33:41.914450,165561.4375,191251.015625,181201.671875,207946.875,193423.953125,192152.0625,690523.625,202630.28125,0.0478515625,1.008544921875,-0.058349609375,-1.1901854276657104,0.5493163466453552,0.4272460639476776,93.33334350585938,82591.0,1.0
15:33:41.914472,165572.171875,191261.734375,181201.84375,207921.65625,193434.328125,192158.671875,691223.375,202629.65625,0.046142578125,1.0087890625,-0.058349609375,-1.1901854276657104,0.5798339247703552,0.4882812201976776,93.33334350585938,82592.0,1.0
15:33:41.914480,165446.1875,191239.390625,181184.046875,207917.90625,193418.5,192155.546875,691103.375,202630.640625,0.048095703125,1.01025390625,-0.05615234375,-1.4038084745407104,0.6103515028953552,0.5187987685203552,93.33334350585938,82593.0,1.0
15:33:41.918260,165413.734375,191230.8125,181182.4375,207917.375,193410.734375,192154.203125,690399.4375,202630.546875,0.046630859375,1.00927734375,-0.060791015625,-1.3427733182907104,0.6103515028953552,0.5493163466453552,93.33334350585938,82594.0,1.0
15:33:41.924517,165539.171875,191247.078125,181199.515625,207946.609375,193422.625,192153.75,690450.25,202634.3125,0.047607421875,1.011474609375,-0.061279296875,-1.2817381620407104,0.5187987685203552,0.5493163466453552,93.33334350585938,82595.0,1.0
15:33:41.943279,165579.765625,191256.28125,181198.890625,207930.328125,193428.078125,192152.40625,691117.6875,202627.875,0.050537109375,1.01123046875,-0.060546875,-1.3427733182907104,0.4882812201976776,0.7019042372703552,93.33334350585938,82596.0,1.0
15:33:41.943368,165463.09375,191238.859375,181181.375,207913.609375,193414.484375,192149.8125,691223.1875,202625.8125,0.049560546875,1.01123046875,-0.05908203125,-1.3122557401657104,0.5187987685203552,0.7934569716453552,93.33334350585938,82597.0,1.0
15:33:41.946445,165400.765625,191225.4375,181176.0,207916.203125,193403.03125,192146.6875,690482.4375,202624.296875,0.04833984375,1.010498046875,-0.059814453125,-1.3427733182907104,0.4272460639476776,0.7629393935203552,93.33334350585938,82598.0,1.0
15:33:41.946544,165517.171875,191242.96875,181197.546875,207937.484375,193416.984375,192149.1875,690388.9375,202627.421875,0.049560546875,1.01171875,-0.058837890625,-1.4953612089157104,0.5493163466453552,0.8239745497703552,93.33334350585938,82599.0,1.0
15:33:41.946576,165595.40625,191259.78125,181206.578125,207940.34375,193430.9375,192149.640625,690994.125,202628.3125,0.047607421875,1.009765625,-0.060791015625,-1.4038084745407104,0.6103515028953552,0.9765624403953552,93.33334350585938,82600.0,1.0
15:33:41.948479,165495.09375,191248.59375,181193.171875,207915.765625,193423.0625,192149.734375,691306.25,202628.9375,0.046142578125,1.010986328125,-0.05859375,-1.4343260526657104,0.3967284858226776,1.0070799589157104,93.33334350585938,82601.0,1.0
15:33:41.951205,165412.84375,191232.5,181186.375,207928.984375,193411.53125,192148.921875,690583.5625,202634.84375,0.04638671875,1.010986328125,-0.058349609375,-1.4343260526657104,0.4272460639476776,0.9765624403953552,93.33334350585938,82602.0,1.0
15:33:41.955335,165505.109375,191247.875,181205.6875,207940.25,193422.625,192152.953125,690337.625,202637.96875,0.04541015625,1.011962890625,-0.06005859375,-1.5258787870407104,0.4882812201976776,0.8850097060203552,93.33334350585938,82603.0,1.0
15:33:41.970366,165609.796875,191265.140625,181220.4375,207959.390625,193439.6875,192155.90625,690842.5,202643.703125,0.044921875,1.013427734375,-0.0595703125,-1.5258787870407104,0.5187987685203552,0.7934569716453552,93.33334350585938,82604.0,1.0
15:33:41.970445,165528.984375,191259.0625,181206.765625,207923.265625,193435.5,192158.140625,691338.125,202639.5,0.043701171875,1.0146484375,-0.0595703125,-1.5563963651657104,0.3967284858226776,0.6408690810203552,93.33334350585938,82605.0,1.0
15:33:41.972310,165422.3125,191236.96875,181193.4375,207936.140625,193418.421875,192154.734375,690702.625,202642.53125,0.0439453125,1.01513671875,-0.058837890625,-1.7089842557907104,0.3051757514476776,0.5493163466453552,93.33334350585938,82606.0,1.0
15:33:41.974685,165484.546875,191247.609375,181207.203125,207938.28125,193426.8125,192159.5625,690324.25,202642.984375,0.04296875,1.016845703125,-0.060791015625,-1.8310545682907104,0.3356933295726776,0.4882812201976776,93.33334350585938,82607.0,1.0
15:33:41.978766,165606.859375,191265.671875,181221.0625,207965.375,193441.75,192157.953125,690731.9375,202645.21875,0.04443359375,1.01708984375,-0.0595703125,-1.9226073026657104,0.2136230319738388,0.3967284858226776,93.33334350585938,82608.0,1.0
15:33:41.989032,165552.578125,191263.265625,181210.78125,207925.5,193441.296875,192158.578125,691341.375,202639.765625,0.045654296875,1.016845703125,-0.058349609375,-1.8920897245407104,0.1525878757238388,0.3356933295726776,93.33334350585938,82609.0,1.0
15:33:41.989109,165433.140625,191239.65625,181195.5,207937.75,193424.9375,192152.765625,690838.625,202644.59375,0.04638671875,1.01904296875,-0.06103515625,-2.075195074081421,0.1525878757238388,0.3356933295726776,93.33334350585938,82610.0,1.0
15:33:41.991489,165464.15625,191243.40625,181205.0625,207933.1875,193426.90625,192152.859375,690320.9375,202642.796875,0.047119140625,1.0166015625,-0.0576171875,-2.105712652206421,-0.03051757626235485,0.4577636420726776,93.33334350585938,82611.0,1.0
15:33:41.991553,165596.03125,191260.40625,181222.046875,207962.96875,193442.640625,192151.78125,690612.875,202646.5625,0.04736328125,1.017578125,-0.05810546875,-2.105712652206421,-0.0610351525247097,0.3662109076976776,93.33334350585938,82612.0,1.0
15:33:41.993379,165571.09375,191264.421875,181213.46875,207921.65625,193443.71875,192153.484375,691287.5625,202639.859375,0.049072265625,1.015625,-0.06005859375,-2.197265386581421,0.0,0.3662109076976776,93.33334350585938,82613.0,1.0
15:33:42.003822,165445.03125,191241.171875,181195.9375,207925.140625,193427.796875,192150.796875,690982.0625,202643.96875,0.0498046875,1.01611328125,-0.058349609375,-2.227782964706421,0.0610351525247097,0.4577636420726776,93.33334350585938,82614.0,1.0
15:33:42.010303,165441.8125,191239.203125,181200.234375,207922.375,193425.84375,192153.21875,690356.75,202644.765625,0.050537109375,1.016357421875,-0.05712890625,-2.410888433456421,0.1220703050494194,0.4882812201976776,93.33334350585938,82615.0,1.0
15:33:42.010390,165577.890625,191260.046875,181221.34375,207957.875,193442.828125,192156.53125,690521.0625,202651.125,0.05029296875,1.0146484375,-0.0537109375,-2.502441167831421,0.0915527269244194,0.5187987685203552,93.33334350585938,82616.0,1.0
15:33:42.012095,165588.796875,191267.640625,181217.9375,207929.609375,193447.5625,192159.203125,691212.0625,202644.40625,0.049560546875,1.015869140625,-0.055419921875,-2.410888433456421,0.1220703050494194,0.6408690810203552,93.33334350585938,82617.0,1.0
15:33:42.037127,165462.8125,191244.390625,181197.828125,207920.3125,193431.828125,192156.25,691119.875,202644.046875,0.049072265625,1.013427734375,-0.05712890625,-2.471923589706421,0.0915527269244194,0.5187987685203552,93.33334350585938,82618.0,1.0
15:33:42.057045,165429.65625,191237.875,181197.90625,207920.234375,193427.796875,192157.78125,690406.0625,202644.328125,0.046142578125,1.012451171875,-0.0537109375,-2.532958745956421,0.1220703050494194,0.5493163466453552,93.33334350585938,82619.0,1.0
15:33:42.059513,165558.390625,191258.609375,181219.8125,207949.46875,193444.609375,192161.890625,690425.6875,202649.0625,0.047607421875,1.009765625,-0.052734375,-2.563476324081421,0.1220703050494194,0.6103515028953552,93.33334350585938,82620.0,1.0
15:33:42.062189,165603.8125,191271.578125,181221.875,207934.625,193452.390625,192163.5,691093.6875,202644.59375,0.047119140625,1.01171875,-0.053955078125,-2.502441167831421,0.1831054538488388,0.7629393935203552,93.33334350585938,82621.0,1.0
15:33:42.064744,165481.328125,191251.375,181200.5,207911.828125,193436.203125,192158.671875,691230.75,202639.859375,0.044189453125,1.01123046875,-0.0517578125,-2.441406011581421,0.1525878757238388,0.7019042372703552,93.33334350585938,82622.0,1.0
15:33:42.067435,165414.453125,191236.53125,181193.625,207915.9375,193424.5,192155.984375,690491.75,202639.671875,0.046142578125,1.009765625,-0.051513671875,-2.471923589706421,0.03051757626235485,0.6408690810203552,93.33334350585938,82623.0,1.0
15:33:42.069600,165527.640625,191253.875,181213.5625,207934.71875,193437.28125,192159.5625,690367.125,202641.1875,0.046142578125,1.0087890625,-0.052490234375,-2.532958745956421,0.03051757626235485,0.7019042372703552,93.33334350585938,82624.0,1.0
15:33:42.072125,165609.09375,191269.78125,181221.0625,207938.734375,193449.34375,192161.4375,690959.4375,202639.859375,0.04541015625,1.00830078125,-0.053466796875,-2.380370855331421,0.03051757626235485,0.6713866591453552,93.33334350585938,82625.0,1.0
15:33:42.075292,165507.96875,191259.0625,181206.40625,207909.765625,193438.796875,192164.21875,691303.4375,202636.8125,0.045654296875,1.010009765625,-0.054443359375,-2.380370855331421,0.0610351525247097,0.6103515028953552,93.33334350585938,82626.0,1.0
15:33:42.075321,165416.859375,191238.859375,181194.328125,207917.28125,193421.71875,192161.0,690594.1875,202636.8125,0.044921875,1.010009765625,-0.052001953125,-2.319335699081421,0.03051757626235485,0.6408690810203552,93.33334350585938,82627.0,1.0
15:33:42.077056,165506.265625,191254.5,181210.515625,207927.109375,193429.59375,192166.09375,690338.875,202636.546875,0.04345703125,1.00830078125,-0.0546875,-2.319335699081421,-0.03051757626235485,0.4882812201976776,93.33334350585938,82628.0,1.0
15:33:42.079695,165611.328125,191274.4375,181222.859375,207946.515625,193444.4375,192168.5,690837.5625,202638.515625,0.04541015625,1.0068359375,-0.0517578125,-2.288818120956421,-0.0915527269244194,0.4882812201976776,93.33334350585938,82629.0,1.0
15:33:42.082171,165530.859375,191267.109375,181208.546875,207906.1875,193437.90625,192169.125,691340.1875,202631.890625,0.047119140625,1.008544921875,-0.0498046875,-2.136230230331421,-0.03051757626235485,0.4882812201976776,93.33334350585938,82630.0,1.0
15:33:42.084573,165422.59375,191244.84375,181195.5,207918.0,193422.34375,192165.375,690719.625,202636.1875,0.0478515625,1.009521484375,-0.04931640625,-2.166747808456421,-0.0915527269244194,0.5187987685203552,93.33334350585938,82631.0,1.0
15:33:42.087666,165481.859375,191254.59375,181209.890625,207921.65625,193430.484375,192168.859375,690326.3125,202638.25,0.047607421875,1.010986328125,-0.050048828125,-2.136230230331421,-0.03051757626235485,0.4272460639476776,93.33334350585938,82632.0,1.0
15:33:42.087687,165604.890625,191271.9375,181223.65625,207951.609375,193445.421875,192167.171875,690719.25,202642.4375,0.04736328125,1.00927734375,-0.050048828125,-2.105712652206421,-0.0610351525247097,0.4577636420726776,93.33334350585938,82633.0,1.0
15:33:42.089600,165549.90625,191267.28125,181209.09375,207908.15625,193439.25,192164.75,691335.125,202633.5,0.04736328125,1.00830078125,-0.0478515625,-2.136230230331421,-0.0915527269244194,0.4882812201976776,93.33334350585938,82634.0,1.0
15:33:42.092755,165426.96875,191240.90625,181190.046875,207915.671875,193418.234375,192157.15625,690864.375,202636.1875,0.046142578125,1.009033203125,-0.048828125,-2.105712652206421,-0.03051757626235485,0.5493163466453552,93.33334350585938,82635.0,1.0
15:33:42.092797,165452.1875,191242.78125,181197.640625,207912.0,193418.0625,192156.703125,690334.4375,202634.84375,0.045654296875,1.010009765625,-0.048583984375,-2.044677495956421,-0.1220703050494194,0.4882812201976776,93.33334350585938,82636.0,1.0
15:33:42.094662,165588.078125,191260.484375,181214.625,207948.21875,193433.078125,192154.375,690603.5,202639.765625,0.048095703125,1.0078125,-0.04833984375,-1.9531248807907104,-0.1220703050494194,0.5798339247703552,93.33334350585938,82637.0,1.0
15:33:42.097176,165568.140625,191262.90625,181207.125,207912.1875,193433.703125,192153.125,691287.4375,202633.328125,0.0478515625,1.011474609375,-0.0478515625,-1.9531248807907104,-0.1525878757238388,0.5798339247703552,93.33334350585938,82638.0,1.0
15:33:42.113975,165441.1875,191237.875,181189.0625,207917.546875,193416.359375,192147.3125,691005.4375,202636.546875,0.047607421875,1.009765625,-0.05224609375,-1.8310545682907104,-0.1831054538488388,0.5493163466453552,93.33334350585938,82639.0,1.0
15:33:42.114018,165434.03125,191233.84375,181191.203125,207914.6875,193413.765625,192146.6875,690363.5,202636.8125,0.048583984375,1.009033203125,-0.05224609375,-1.8615721464157104,-0.1220703050494194,0.5798339247703552,93.33334350585938,82640.0,1.0
15:33:42.117039,165571.359375,191256.015625,181212.3125,207947.140625,193433.171875,192150.71875,690492.6875,202642.984375,0.048828125,1.00927734375,-0.053466796875,-1.7700194120407104,-0.1220703050494194,0.5798339247703552,93.33334350585938,82641.0,1.0
15:33:42.117064,165593.265625,191272.640625,181216.234375,207923.625,193446.21875,192160.453125,691191.0,202640.484375,0.04833984375,1.00927734375,-0.049560546875,-1.7395018339157104,-0.03051757626235485,0.6713866591453552,93.33334350585938,82642.0,1.0
15:33:42.117076,165471.484375,191255.65625,181200.140625,207917.640625,193433.796875,192161.625,691134.375,202641.640625,0.04931640625,1.00830078125,-0.052490234375,-1.6784666776657104,-0.0915527269244194,0.7324218153953552,93.33334350585938,82643.0,1.0
15:33:42.121672,165435.1875,191247.609375,181200.328125,207918.4375,193427.53125,192161.0,690423.0,202641.546875,0.047119140625,1.00732421875,-0.05078125,-1.6174315214157104,-0.1220703050494194,0.7019042372703552,93.33334350585938,82644.0,1.0
15:33:42.121751,165561.171875,191265.3125,181220.984375,207945.625,193442.46875,192160.640625,690427.375,202645.84375,0.048828125,1.00732421875,-0.052001953125,-1.5869139432907104,-0.1220703050494194,0.6713866591453552,93.33334350585938,82645.0,1.0
15:33:42.130810,165611.765625,191278.1875,181225.625,207936.40625,193454.09375,192163.234375,691078.9375,202646.296875,0.0478515625,1.008544921875,-0.050537109375,-1.4953612089157104,-0.03051757626235485,0.7019042372703552,93.33334350585938,82646.0,1.0
15:33:42.133384,165495.28125,191259.59375,181207.921875,207916.46875,193441.21875,192160.015625,691235.3125,202645.03125,0.04638671875,1.008544921875,-0.0498046875,-1.4038084745407104,0.0,0.8239745497703552,93.33334350585938,82647.0,1.0
15:33:42.141915,165427.328125,191244.03125,181199.515625,207921.125,193428.25,192156.34375,690495.5,202645.9375,0.046630859375,1.009521484375,-0.050537109375,-1.3427733182907104,-0.0610351525247097,0.8239745497703552,93.33334350585938,82648.0,1.0
15:33:42.141982,165533.265625,191259.140625,181216.78125,207937.125,193439.515625,192159.65625,690358.625,202647.90625,0.047607421875,1.009521484375,-0.050048828125,-1.3732908964157104,0.03051757626235485,0.7629393935203552,93.33334350585938,82649.0,1.0
15:33:42.148990,165615.609375,191277.390625,181224.734375,207942.21875,193452.921875,192165.828125,690941.375,202647.546875,0.048095703125,1.010986328125,-0.052001953125,-1.3122557401657104,0.0,0.8239745497703552,93.33334350585938,82650.0,1.0
15:33:42.149029,165516.375,191267.546875,181207.84375,207909.765625,193443.546875,192167.796875,691307.3125,202642.359375,0.04931640625,1.010009765625,-0.048828125,-1.3122557401657104,0.0915527269244194,0.8544921278953552,93.33334350585938,82651.0,1.0
15:33:42.154839,165424.46875,191248.0625,181196.578125,207917.453125,193429.953125,192165.375,690608.4375,202643.875,0.047607421875,1.01123046875,-0.048828125,-1.2817381620407104,0.1525878757238388,0.7324218153953552,93.33334350585938,82652.0,1.0
15:33:42.159017,165504.296875,191258.171875,181211.765625,207921.296875,193437.109375,192166.546875,690338.875,202641.640625,0.049560546875,1.011962890625,-0.04736328125,-1.2512205839157104,0.03051757626235485,0.7934569716453552,93.33334350585938,82653.0,1.0
15:33:42.159064,165612.578125,191275.328125,181225.453125,207941.78125,193453.28125,192166.359375,690827.1875,202644.328125,0.0498046875,1.01123046875,-0.04833984375,-1.2817381620407104,0.03051757626235485,0.8544921278953552,93.33334350585938,82654.0,1.0
15:33:42.168506,165534.875,191266.390625,181211.328125,207902.796875,193450.15625,192166.546875,691344.25,202640.296875,0.04931640625,1.010498046875,-0.053955078125,-1.1901854276657104,0.0915527269244194,0.9460448622703552,93.33334350585938,82655.0,1.0
15:33:42.172680,165423.125,191240.640625,181194.96875,207913.96875,193433.4375,192160.734375,690744.375,202644.140625,0.049072265625,1.010986328125,-0.051513671875,-1.1901854276657104,0.0915527269244194,0.9765624403953552,93.33334350585938,82656.0,1.0
15:33:42.172740,165478.375,191250.5625,181209.09375,207916.390625,193440.953125,192164.296875,690330.8125,202646.109375,0.049560546875,1.01171875,-0.04833984375,-1.1596678495407104,0.0915527269244194,0.9155272841453552,93.33334350585938,82657.0,1.0
15:33:42.178393,165605.953125,191270.859375,181224.734375,207948.484375,193457.84375,192164.484375,690702.8125,202651.5625,0.0478515625,1.010009765625,-0.048583984375,-1.1596678495407104,0.1525878757238388,0.9765624403953552,93.33334350585938,82658.0,1.0
15:33:42.186518,165557.046875,191269.609375,181212.390625,207907.265625,193453.375,192164.84375,691333.5625,202645.03125,0.048095703125,1.010498046875,-0.05419921875,-1.1291502714157104,0.0610351525247097,0.9460448622703552,93.33334350585938,82659.0,1.0
15:33:42.186574,165432.15625,191242.609375,181192.546875,207914.859375,193431.921875,192157.421875,690880.3125,202647.90625,0.048828125,1.0126953125,-0.054931640625,-1.0681151151657104,0.03051757626235485,0.9460448622703552,93.33334350585938,82660.0,1.0
15:33:42.188920,165452.625,191243.328125,181196.75,207909.765625,193428.96875,192156.25,690334.1875,202644.859375,0.049560546875,1.013427734375,-0.0537109375,-1.0070799589157104,0.0915527269244194,0.9155272841453552,93.33334350585938,82661.0,1.0
15:33:42.188966,165591.296875,191267.1875,181218.46875,207947.046875,193447.5625,192160.375,690577.0,202651.03125,0.049072265625,1.012451171875,-0.05615234375,-0.9765624403953552,0.0915527269244194,1.1596678495407104,93.33334350585938,82662.0,1.0
15:33:42.198367,165581.015625,191277.390625,181217.3125,207912.453125,193451.9375,192166.8125,691274.0625,202644.765625,0.051513671875,1.011962890625,-0.05517578125,-1.0375975370407104,0.2136230319738388,1.0986326932907104,93.33334350585938,82663.0,1.0
15:33:42.208915,165452.890625,191253.421875,181198.265625,207910.84375,193433.796875,192163.046875,691023.8125,202644.59375,0.051513671875,1.013427734375,-0.054931640625,-1.0070799589157104,0.1831054538488388,1.1596678495407104,93.33334350585938,82664.0,1.0
15:33:42.208977,165442.875,191250.125,181201.84375,207908.78125,193430.125,192164.578125,690379.1875,202643.96875,0.05126953125,1.010498046875,-0.052978515625,-1.0070799589157104,0.1831054538488388,1.0986326932907104,93.33334350585938,82665.0,1.0
15:33:42.211537,165580.484375,191271.125,181223.21875,207944.8125,193448.09375,192167.34375,690506.8125,202650.140625,0.04931640625,1.01171875,-0.05615234375,-1.0986326932907104,0.2136230319738388,1.1291502714157104,93.33334350585938,82666.0,1.0
15:33:42.211593,165600.234375,191281.59375,181222.671875,207922.375,193454.984375,192170.03125,691197.125,202646.109375,0.05078125,1.010986328125,-0.05615234375,-0.9765624403953552,0.2136230319738388,1.0681151151657104,93.33334350585938,82667.0,1.0
15:33:42.222319,165474.53125,191259.59375,181203.09375,207910.84375,193436.390625,192164.9375,691161.1875,202643.25,0.052490234375,1.01220703125,-0.056884765625,-1.0681151151657104,0.1831054538488388,1.0986326932907104,93.33334350585938,82668.0,1.0
15:33:42.229512,165434.03125,191250.125,181200.328125,207912.890625,193425.390625,192162.25,690441.5,202641.1875,0.049560546875,1.012939453125,-0.05859375,-1.0986326932907104,0.2136230319738388,1.1291502714157104,93.33334350585938,82669.0,1.0
15:33:42.229541,165562.59375,191272.46875,181222.671875,207941.328125,193441.390625,192165.828125,690421.375,202645.75,0.05126953125,1.0126953125,-0.0546875,-0.9460448622703552,0.2136230319738388,1.1291502714157104,93.33334350585938,82670.0,1.0
15:33:42.229548,165620.890625,191287.9375,181228.484375,207933.453125,193451.765625,192168.15625,691073.5625,202642.625,0.05224609375,1.011474609375,-0.0537109375,-0.9460448622703552,0.3662109076976776,1.1596678495407104,93.33334350585938,82671.0,1.0
15:33:42.233901,165509.484375,191273.09375,181212.390625,207912.546875,193441.390625,192167.96875,691264.625,202642.4375,0.05224609375,1.011962890625,-0.054931640625,-1.0375975370407104,0.3967284858226776,1.2512205839157104,93.33334350585938,82672.0,1.0
15:33:42.233913,165440.28125,191260.21875,181207.75,207920.9375,193434.328125,192168.59375,690524.125,202647.1875,0.05078125,1.011474609375,-0.05224609375,-1.0070799589157104,0.3051757514476776,1.1901854276657104,93.33334350585938,82673.0,1.0
15:33:42.235969,165548.921875,191279.890625,181228.125,207938.109375,193450.25,192175.390625,690378.5625,202649.234375,0.050048828125,1.01318359375,-0.054443359375,-0.9765624403953552,0.4272460639476776,1.1901854276657104,93.33334350585938,82674.0,1.0
15:33:42.272732,165637.078125,191297.6875,181238.765625,207945.53125,193465.359375,192179.328125,690952.0625,202648.34375,0.05078125,1.01171875,-0.054443359375,-1.0070799589157104,0.4577636420726776,1.1596678495407104,93.33334350585938,82675.0,1.0
15:33:42.272825,165541.765625,191288.203125,181225.0,207915.046875,193457.75,192181.296875,691340.625,202643.078125,0.051025390625,1.01171875,-0.052734375,-1.0375975370407104,0.3967284858226776,1.0986326932907104,93.33334350585938,82676.0,1.0
15:33:42.275331,165452.1875,191271.21875,181215.34375,207929.703125,193443.71875,192179.59375,690636.75,202647.546875,0.05126953125,1.01220703125,-0.054931640625,-1.0070799589157104,0.3967284858226776,1.1291502714157104,93.33334350585938,82677.0,1.0
15:33:42.275426,165532.640625,191282.125,181229.390625,207937.03125,193450.6875,192179.234375,690351.4375,202649.953125,0.050048828125,1.01513671875,-0.055419921875,-1.0681151151657104,0.4882812201976776,1.0986326932907104,93.33334350585938,82678.0,1.0
15:33:42.278469,165643.0625,191299.296875,181240.921875,207957.421875,193465.359375,192177.984375,690825.5,202654.96875,0.051025390625,1.013427734375,-0.054931640625,-0.9765624403953552,0.3662109076976776,1.1596678495407104,93.33334350585938,82679.0,1.0
15:33:42.278550,165570.203125,191293.296875,181227.859375,207918.984375,193461.78125,192178.4375,691362.625,202653.171875,0.05029296875,1.01171875,-0.05615234375,-0.9765624403953552,0.4882812201976776,1.0681151151657104,93.33334350585938,82680.0,1.0
15:33:42.278578,165457.71875,191270.140625,181212.125,207928.984375,193445.953125,192173.0625,690766.0625,202659.515625,0.05126953125,1.012451171875,-0.055419921875,-1.0681151151657104,0.5187987685203552,1.0681151151657104,93.33334350585938,82681.0,1.0
15:33:42.280912,165507.4375,191278.375,181223.21875,207927.375,193449.796875,192174.40625,690337.75,202658.71875,0.05224609375,1.01171875,-0.0576171875,-0.9765624403953552,0.5187987685203552,1.0681151151657104,93.33334350585938,82682.0,1.0
15:33:42.283391,165638.59375,191298.671875,181241.71875,207961.171875,193467.140625,192175.84375,690700.0625,202664.34375,0.05224609375,1.00927734375,-0.0546875,-0.9765624403953552,0.5798339247703552,1.0070799589157104,93.33334350585938,82683.0,1.0
15:33:42.285937,165597.640625,191299.921875,181233.140625,207921.21875,193467.140625,192178.875,691344.5,202655.9375,0.0537109375,1.01025390625,-0.055908203125,-1.0070799589157104,0.6408690810203552,0.8850097060203552,93.33334350585938,82684.0,1.0
15:33:42.288455,165477.84375,191277.390625,181217.671875,207929.96875,193449.171875,192174.9375,690911.0625,202658.453125,0.05322265625,1.01123046875,-0.056884765625,-1.1291502714157104,0.7629393935203552,0.9765624403953552,93.33334350585938,82685.0,1.0
15:33:42.291566,165497.6875,191279.71875,181225.8125,207929.078125,193448.640625,192177.265625,690352.1875,202657.90625,0.052734375,1.01171875,-0.05810546875,-1.0986326932907104,0.6713866591453552,0.9155272841453552,93.33334350585938,82686.0,1.0
15:33:42.291616,165639.9375,191303.140625,181250.125,207971.453125,193470.890625,192182.71875,690585.25,202668.28125,0.05126953125,1.0126953125,-0.05615234375,-1.0070799589157104,0.6408690810203552,0.8544921278953552,93.33334350585938,82687.0,1.0
15:33:42.300942,165637.78125,191316.09375,181253.078125,207945.4375,193481.09375,192191.75,691283.5,202668.640625,0.051025390625,1.012939453125,-0.057373046875,-0.9765624403953552,0.6713866591453552,0.8544921278953552,93.33334350585938,82688.0,1.0
15:33:42.305237,165510.203125,191293.5625,181235.546875,207946.421875,193464.546875,192188.0,691052.9375,202671.59375,0.052734375,1.01220703125,-0.05712890625,-1.0375975370407104,0.7324218153953552,0.8850097060203552,93.33334350585938,82689.0,1.0
15:33:42.305281,165498.671875,191292.140625,181238.40625,207945.703125,193461.875,192189.609375,690394.5625,202673.5625,0.054443359375,1.008544921875,-0.060791015625,-1.0375975370407104,0.7324218153953552,0.7934569716453552,93.33334350585938,82690.0,1.0
15:33:42.320766,165637.515625,191313.953125,181260.40625,207979.234375,193479.03125,192192.46875,690489.6875,202678.390625,0.052001953125,1.010986328125,-0.056884765625,-1.0070799589157104,0.7324218153953552,0.7019042372703552,93.33334350585938,82691.0,1.0
15:33:42.320797,165665.765625,191327.359375,181263.984375,207959.125,193488.6875,192196.140625,691185.6875,202674.8125,0.05029296875,1.010009765625,-0.05517578125,-0.9765624403953552,0.7019042372703552,0.7019042372703552,93.33334350585938,82692.0,1.0
15:33:42.320807,165544.09375,191308.40625,181246.28125,207948.578125,193473.578125,192193.1875,691179.6875,202674.0,0.05078125,1.011474609375,-0.05517578125,-0.9155272841453552,0.7019042372703552,0.6713866591453552,93.33334350585938,82693.0,1.0
15:33:42.323445,165497.78125,191297.6875,181242.96875,207948.84375,193464.109375,192190.5,690450.625,202672.671875,0.050537109375,1.01025390625,-0.0537109375,-0.9460448622703552,0.6408690810203552,0.6713866591453552,93.33334350585938,82694.0,1.0
15:33:42.325741,165620.71875,191314.9375,181261.84375,207973.96875,193477.6875,192189.875,690419.875,202675.796875,0.05029296875,1.011474609375,-0.054931640625,-0.8239745497703552,0.5493163466453552,0.6713866591453552,93.33334350585938,82695.0,1.0
15:33:42.328315,165678.375,191328.34375,181266.3125,207969.21875,193489.671875,192192.015625,691060.4375,202674.90625,0.04931640625,1.012939453125,-0.05615234375,-0.8544921278953552,0.5493163466453552,0.5187987685203552,93.33334350585938,82696.0,1.0
15:33:42.332192,165564.390625,191313.78125,181249.328125,207944.71875,193480.203125,192193.359375,691273.6875,202672.21875,0.05029296875,1.01171875,-0.056396484375,-1.0070799589157104,0.5493163466453552,0.4577636420726776,93.33334350585938,82697.0,1.0
15:33:42.347838,165488.65625,191297.0625,181240.640625,207948.65625,193468.578125,192191.9375,690537.625,202672.3125,0.05029296875,1.01025390625,-0.054931640625,-1.0070799589157104,0.5187987685203552,0.6103515028953552,93.33334350585938,82698.0,1.0
15:33:42.347919,165588.96875,191309.3125,181254.859375,207962.25,193477.953125,192192.640625,690364.4375,202671.6875,0.048828125,1.008056640625,-0.05615234375,-1.0681151151657104,0.5493163466453552,0.6103515028953552,93.33334350585938,82699.0,1.0
15:33:42.350379,165672.65625,191322.359375,181260.59375,207968.15625,193488.59375,192193.359375,690924.3125,202668.546875,0.04931640625,1.010986328125,-0.05712890625,-1.0986326932907104,0.5187987685203552,0.5187987685203552,93.33334350585938,82700.0,1.0
15:33:42.350441,165575.46875,191309.3125,181242.34375,207930.78125,193477.953125,192191.84375,691334.375,202660.234375,0.050048828125,1.010009765625,-0.055419921875,-1.1291502714157104,0.5493163466453552,0.4577636420726776,93.33334350585938,82701.0,1.0
15:33:42.352164,165476.953125,191286.78125,181227.78125,207937.65625,193459.0,192185.84375,690654.8125,202660.953125,0.050048828125,1.011474609375,-0.05517578125,-1.2207030057907104,0.5187987685203552,0.4882812201976776,93.33334350585938,82702.0,1.0
15:33:42.356155,165554.375,191298.21875,181242.25,207944.640625,193466.421875,192186.828125,690342.125,202662.921875,0.04931640625,1.01025390625,-0.0546875,-1.2512205839157104,0.3356933295726776,0.4577636420726776,93.33334350585938,82703.0,1.0
15:33:42.366564,165662.828125,191311.0,181249.765625,207965.5625,193476.4375,192180.671875,690789.8125,202662.65625,0.05029296875,1.011962890625,-0.054931640625,-1.1596678495407104,0.3051757514476776,0.5493163466453552,93.33334350585938,82704.0,1.0
15:33:42.366632,165586.109375,191300.28125,181230.453125,207920.59375,193466.515625,192176.1875,691349.3125,202651.5625,0.050537109375,1.011474609375,-0.0556640625,-1.2207030057907104,0.3356933295726776,0.5187987685203552,93.33334350585938,82705.0,1.0
15:33:42.369023,165471.140625,191274.890625,181215.796875,207931.046875,193450.328125,192170.65625,690775.25,202656.296875,0.048828125,1.011962890625,-0.0546875,-1.3122557401657104,0.3051757514476776,0.4882812201976776,93.33334350585938,82706.0,1.0
15:33:42.369072,165519.953125,191282.390625,181229.828125,207930.15625,193457.390625,192174.140625,690328.8125,202658.625,0.049072265625,1.010009765625,-0.05419921875,-1.3122557401657104,0.3051757514476776,0.5493163466453552,93.33334350585938,82707.0,1.0
15:33:42.378407,165650.21875,191303.765625,181247.265625,207962.078125,193474.390625,192176.640625,690667.3125,202663.359375,0.05029296875,1.011962890625,-0.05615234375,-1.3427733182907104,0.3051757514476776,0.5187987685203552,93.33334350585938,82708.0,1.0
15:33:42.403943,165608.46875,191304.921875,181237.078125,207919.328125,193471.703125,192180.75,691324.125,202655.046875,0.05029296875,1.011962890625,-0.056640625,-1.3122557401657104,0.1525878757238388,0.5187987685203552,93.33334350585938,82709.0,1.0
15:33:42.403979,165477.65625,191275.328125,181213.015625,207921.125,193448.453125,192173.6875,690915.3125,202653.796875,0.0498046875,1.01171875,-0.058349609375,-1.3732908964157104,0.1525878757238388,0.4882812201976776,93.33334350585938,82710.0,1.0
15:33:42.427134,165487.046875,191272.46875,181212.84375,207913.96875,193441.390625,192171.453125,690345.375,202647.90625,0.048828125,1.009765625,-0.0556640625,-1.4038084745407104,0.1525878757238388,0.6408690810203552,93.33334350585938,82711.0,1.0
15:33:42.429601,165622.046875,191291.6875,181230.453125,207950.265625,193456.859375,192174.046875,690556.125,202653.265625,0.0498046875,1.010009765625,-0.055908203125,-1.4343260526657104,0.1831054538488388,0.6408690810203552,93.33334350585938,82712.0,1.0
15:33:42.432009,165614.984375,191298.21875,181227.140625,207917.90625,193461.953125,192179.6875,691258.9375,202649.515625,0.05078125,1.010009765625,-0.056640625,-1.3732908964157104,0.1220703050494194,0.5798339247703552,93.33334350585938,82713.0,1.0
15:33:42.434820,165488.65625,191276.21875,181209.453125,207919.953125,193447.65625,192177.53125,691056.625,202653.359375,0.05224609375,1.0107421875,-0.057861328125,-1.3732908964157104,0.0610351525247097,0.5493163466453552,93.33334350585938,82714.0,1.0
15:33:42.437261,165470.0625,191269.78125,181211.5,207920.234375,193443.265625,192176.546875,690381.6875,202654.515625,0.051513671875,1.010498046875,-0.057861328125,-1.4343260526657104,0.1220703050494194,0.4577636420726776,93.33334350585938,82715.0,1.0
15:33:42.439604,165604.796875,191289.453125,181233.671875,207956.4375,193460.34375,192178.25,690464.5625,202661.84375,0.052978515625,1.011962890625,-0.057861328125,-1.4648436307907104,0.1525878757238388,0.4882812201976776,93.33334350585938,82716.0,1.0
15:33:42.442027,165635.734375,191301.703125,181237.15625,207937.65625,193470.546875,192181.375,691151.9375,202660.328125,0.051513671875,1.01171875,-0.05810546875,-1.4648436307907104,0.1831054538488388,0.4272460639476776,93.33334350585938,82717.0,1.0
15:33:42.444584,165511.546875,191281.765625,181219.375,207922.546875,193457.671875,192178.609375,691170.75,202660.140625,0.051025390625,1.011962890625,-0.05712890625,-1.4953612089157104,0.1525878757238388,0.4577636420726776,93.33334350585938,82718.0,1.0
15:33:42.447078,165462.1875,191271.390625,181216.515625,207921.03125,193449.53125,192178.34375,690446.6875,202659.609375,0.05126953125,1.012451171875,-0.055908203125,-1.5258787870407104,0.1831054538488388,0.4577636420726776,93.33334350585938,82719.0,1.0
15:33:42.449575,165581.109375,191289.28125,181234.921875,207942.671875,193462.9375,192180.390625,690414.375,202660.953125,0.05224609375,1.01123046875,-0.055419921875,-1.5869139432907104,0.1220703050494194,0.4882812201976776,93.33334350585938,82720.0,1.0
15:33:42.452058,165641.71875,191302.421875,181239.3125,207935.25,193476.0,192182.0,691046.3125,202657.375,0.05224609375,1.009521484375,-0.058349609375,-1.5563963651657104,0.1831054538488388,0.5187987685203552,93.33334350585938,82721.0,1.0
15:33:42.454582,165531.3125,191288.734375,181224.734375,207909.234375,193468.578125,192183.34375,691279.6875,202653.984375,0.05322265625,1.009521484375,-0.0556640625,-1.5258787870407104,0.1831054538488388,0.5493163466453552,93.33334350585938,82722.0,1.0
15:33:42.457046,165456.734375,191275.78125,181218.75,207918.078125,193459.359375,192182.625,690547.3125,202656.21875,0.0537109375,1.009033203125,-0.05615234375,-1.5563963651657104,0.2441406100988388,0.5187987685203552,93.33334350585938,82723.0,1.0
15:33:42.460197,165556.25,191290.703125,181236.984375,207932.75,193471.34375,192184.953125,690363.8125,202659.15625,0.053466796875,1.00830078125,-0.056640625,-1.6174315214157104,0.0610351525247097,0.5798339247703552,93.33334350585938,82724.0,1.0
15:33:42.460228,165645.296875,191304.125,181243.59375,207940.875,193482.34375,192182.71875,690910.1875,202658.359375,0.0537109375,1.009765625,-0.05712890625,-1.6174315214157104,0.1220703050494194,0.4882812201976776,93.33334350585938,82725.0,1.0
15:33:42.462063,165552.140625,191293.5625,181225.359375,207903.953125,193470.359375,192179.6875,691338.9375,202652.640625,0.05322265625,1.010498046875,-0.056396484375,-1.6174315214157104,0.1831054538488388,0.3051757514476776,93.33334350585938,82726.0,1.0
15:33:42.465092,165450.125,191269.078125,181210.609375,207911.640625,193452.125,192172.265625,690663.5,202654.6875,0.05224609375,1.013671875,-0.054931640625,-1.6784666776657104,0.3051757514476776,0.3967284858226776,93.33334350585938,82727.0,1.0
15:33:42.465111,165517.890625,191275.15625,181221.6875,207914.421875,193457.390625,192170.5625,690339.75,202654.15625,0.051513671875,1.01318359375,-0.052978515625,-1.5258787870407104,0.3356933295726776,0.4882812201976776,93.33334350585938,82728.0,1.0
15:33:42.467646,165629.75,191289.09375,181231.265625,207936.59375,193471.171875,192168.15625,690789.375,202655.859375,0.0517578125,1.013427734375,-0.05517578125,-1.5563963651657104,0.3662109076976776,0.4882812201976776,93.33334350585938,82729.0,1.0
15:33:42.467663,165556.96875,191280.78125,181213.296875,207889.5625,193464.8125,192168.5,691350.125,202646.375,0.052001953125,1.012939453125,-0.0556640625,-1.5563963651657104,0.3967284858226776,0.4577636420726776,93.33334350585938,82730.0,1.0
15:33:42.469827,165439.84375,191255.484375,181195.765625,207898.40625,193447.921875,192166.265625,690789.75,202649.234375,0.05126953125,1.0126953125,-0.055908203125,-1.5563963651657104,0.3662109076976776,0.5493163466453552,93.33334350585938,82731.0,1.0
15:33:42.473341,165481.59375,191262.453125,181206.578125,207895.015625,193451.578125,192169.21875,690327.0625,202647.09375,0.051025390625,1.01220703125,-0.0576171875,-1.6784666776657104,0.3967284858226776,0.3967284858226776,93.33334350585938,82732.0,1.0
15:33:42.488928,165611.859375,191281.859375,181224.734375,207926.578125,193469.015625,192171.1875,690656.0625,202651.03125,0.052001953125,1.011962890625,-0.055419921875,-1.6174315214157104,0.3967284858226776,0.3356933295726776,93.33334350585938,82733.0,1.0
15:33:42.488957,165573.140625,191282.125,181213.828125,207882.671875,193467.59375,192172.796875,691320.25,202641.46875,0.052001953125,1.013916015625,-0.053466796875,-1.5563963651657104,0.4577636420726776,0.3662109076976776,93.33334350585938,82734.0,1.0
15:33:42.491379,165448.0625,191258.609375,181195.40625,207886.96875,193449.265625,192170.46875,690936.375,202642.890625,0.052978515625,1.01318359375,-0.0537109375,-1.6479490995407104,0.3662109076976776,0.3662109076976776,93.33334350585938,82735.0,1.0
15:33:42.491392,165455.9375,191257.53125,181198.0,207879.1875,193446.046875,192172.4375,690356.125,202638.25,0.052001953125,1.011474609375,-0.0537109375,-1.6174315214157104,0.4577636420726776,0.3967284858226776,93.33334350585938,82736.0,1.0
15:33:42.493348,165590.21875,191276.21875,181214.359375,207912.0,193460.4375,192173.515625,690572.75,202641.546875,0.051513671875,1.010498046875,-0.05322265625,-1.6784666776657104,0.3967284858226776,0.4577636420726776,93.33334350585938,82737.0,1.0
15:33:42.495813,165587.625,191281.859375,181208.546875,207880.0,193462.765625,192174.40625,691265.8125,202635.296875,0.05078125,1.011474609375,-0.05419921875,-1.6174315214157104,0.5187987685203552,0.3967284858226776,93.33334350585938,82738.0,1.0
15:33:42.507586,165459.59375,191257.890625,181187.546875,207879.640625,193442.640625,192167.796875,691084.125,202637.265625,0.052001953125,1.010986328125,-0.052001953125,-1.6784666776657104,0.4272460639476776,0.3967284858226776,93.33334350585938,82739.0,1.0
15:33:42.507595,165433.859375,191249.484375,181185.578125,207880.796875,193434.328125,192164.125,690401.0,202637.609375,0.05078125,1.01220703125,-0.052490234375,-1.5869139432907104,0.3967284858226776,0.3662109076976776,93.33334350585938,82740.0,1.0
15:33:42.510077,165566.171875,191265.765625,181204.53125,207914.78125,193446.765625,192162.609375,690477.0,202641.640625,0.050048828125,1.010498046875,-0.051513671875,-1.6174315214157104,0.3967284858226776,0.3662109076976776,93.33334350585938,82741.0,1.0
15:33:42.510087,165597.203125,191274.34375,181203.640625,207896.0,193451.578125,192161.171875,691159.0,202635.734375,0.050537109375,1.010986328125,-0.05224609375,-1.5869139432907104,0.3662109076976776,0.3662109076976776,93.33334350585938,82742.0,1.0
15:33:42.512073,165474.171875,191252.265625,181182.265625,207880.4375,193436.125,192155.984375,691204.5625,202631.625,0.0517578125,1.01171875,-0.052490234375,-1.6784666776657104,0.4882812201976776,0.3356933295726776,93.33334350585938,82743.0,1.0
15:33:42.523401,165425.625,191243.859375,181182.890625,207885.453125,193432.09375,192157.859375,690478.875,202634.046875,0.05078125,1.009765625,-0.053955078125,-1.5869139432907104,0.4272460639476776,0.3967284858226776,93.33334350585938,82744.0,1.0
15:33:42.527578,165548.03125,191265.9375,181207.390625,207910.296875,193451.5,192163.671875,690416.625,202638.953125,0.050537109375,1.0107421875,-0.054443359375,-1.5869139432907104,0.3662109076976776,0.3051757514476776,93.33334350585938,82745.0,1.0
15:33:42.527592,165615.96875,191283.46875,181215.53125,207906.453125,193466.0625,192166.546875,691045.5,202637.171875,0.048583984375,1.010009765625,-0.053955078125,-1.6174315214157104,0.3356933295726776,0.2746581733226776,93.33334350585938,82746.0,1.0
15:33:42.533317,165502.96875,191266.921875,181195.765625,207874.71875,193453.734375,192163.40625,691306.6875,202632.078125,0.0478515625,1.010009765625,-0.0537109375,-1.6174315214157104,0.3356933295726776,0.3356933295726776,93.33334350585938,82747.0,1.0
15:33:42.541615,165419.71875,191247.34375,181184.234375,207877.84375,193439.15625,192158.3125,690570.4375,202633.421875,0.048828125,1.012451171875,-0.053955078125,-1.6479490995407104,0.3051757514476776,0.3356933295726776,93.33334350585938,82748.0,1.0
15:33:42.541686,165514.765625,191259.5,181199.875,207886.703125,193447.5625,192157.515625,690373.4375,202633.140625,0.04736328125,1.01123046875,-0.0517578125,-1.6784666776657104,0.3051757514476776,0.2441406100988388,93.33334350585938,82749.0,1.0
15:33:42.548045,165609.890625,191274.4375,181207.75,207897.96875,193458.734375,192158.40625,690915.9375,202631.625,0.049072265625,1.0107421875,-0.055419921875,-1.7089842557907104,0.2746581733226776,0.3356933295726776,93.33334350585938,82750.0,1.0
15:33:42.548100,165513.6875,191259.78125,181185.3125,207855.671875,193444.875,192154.640625,691356.75,202621.53125,0.049560546875,1.013671875,-0.054443359375,-1.6479490995407104,0.1525878757238388,0.2746581733226776,93.33334350585938,82751.0,1.0
15:33:42.557057,165405.421875,191231.703125,181165.71875,207858.984375,193424.046875,192145.078125,690680.375,202620.71875,0.050537109375,1.013427734375,-0.050537109375,-1.4953612089157104,0.1220703050494194,0.2441406100988388,93.33334350585938,82752.0,1.0
15:33:42.561575,165471.671875,191238.234375,181175.03125,207860.328125,193428.078125,192144.640625,690331.3125,202618.75,0.048828125,1.012939453125,-0.05224609375,-1.6174315214157104,0.1220703050494194,0.3051757514476776,93.33334350585938,82753.0,1.0
15:33:42.561657,165587.359375,191254.3125,181187.625,207885.53125,193440.859375,192144.359375,690756.75,202620.265625,0.0498046875,1.01318359375,-0.057861328125,-1.6174315214157104,0.03051757626235485,0.4272460639476776,93.33334350585938,82754.0,1.0
15:33:42.568969,165523.796875,191252.53125,181178.421875,207846.109375,193440.859375,192149.375,691345.8125,202617.046875,0.04931640625,1.011474609375,-0.055419921875,-1.7395018339157104,0.1220703050494194,0.3967284858226776,93.33334350585938,82755.0,1.0
15:33:42.569030,165405.6875,191227.5,181162.6875,207858.359375,193425.5625,192146.15625,690806.25,202621.078125,0.04931640625,1.007568359375,-0.05322265625,-1.7089842557907104,0.0915527269244194,0.4272460639476776,93.33334350585938,82756.0,1.0
15:33:42.576677,165452.0,191238.9375,181179.859375,207863.90625,193434.328125,192154.109375,690335.0,202625.546875,0.04833984375,1.009033203125,-0.052490234375,-1.6479490995407104,0.1220703050494194,0.4577636420726776,93.33334350585938,82757.0,1.0
15:33:42.577046,165587.453125,191260.84375,181199.703125,207899.671875,193452.484375,192156.890625,690659.1875,202630.734375,0.049072265625,1.0087890625,-0.0537109375,-1.6174315214157104,0.03051757626235485,0.4272460639476776,93.33334350585938,82758.0,1.0
15:33:42.586598,165557.59375,191264.15625,181192.28125,207859.609375,193453.1875,192160.015625,691323.125,202622.421875,0.050048828125,1.00830078125,-0.053466796875,-1.5563963651657104,0.03051757626235485,0.4272460639476776,93.33334350585938,82759.0,1.0
15:33:42.586672,165433.578125,191241.359375,181176.8125,207865.59375,193436.65625,192156.4375,690955.75,202624.921875,0.0498046875,1.010009765625,-0.053955078125,-1.5869139432907104,0.0,0.3967284858226776,93.33334350585938,82760.0,1.0
15:33:42.588997,165439.390625,191240.90625,181180.828125,207859.15625,193433.796875,192156.25,690356.375,202622.6875,0.050048828125,1.01025390625,-0.0556640625,-1.6174315214157104,-0.0915527269244194,0.4272460639476776,93.33334350585938,82761.0,1.0
15:33:42.589082,165573.328125,191257.984375,181196.578125,207890.359375,193447.734375,192155.359375,690543.75,202625.546875,0.048583984375,1.009033203125,-0.05517578125,-1.5258787870407104,0.0,0.3051757514476776,93.33334350585938,82762.0,1.0
15:33:42.598679,165576.28125,191268.171875,181195.140625,207860.6875,193454.984375,192161.53125,691246.3125,202621.078125,0.046875,1.0107421875,-0.052734375,-1.5258787870407104,-0.03051757626235485,0.3356933295726776,93.33334350585938,82763.0,1.0
15:33:42.602845,165445.828125,191245.46875,181175.03125,207854.15625,193438.171875,192157.59375,691093.8125,202617.859375,0.0478515625,1.01025390625,-0.05126953125,-1.4648436307907104,-0.0610351525247097,0.3662109076976776,93.33334350585938,82764.0,1.0
15:33:42.602923,165420.0,191238.765625,181175.375,207851.65625,193434.234375,192157.953125,690407.5,202616.25,0.049560546875,1.010986328125,-0.05322265625,-1.5258787870407104,-0.0915527269244194,0.3967284858226776,93.33334350585938,82765.0,1.0
15:33:42.612236,165553.203125,191258.703125,181196.65625,207882.3125,193452.484375,192160.546875,690462.5,202621.875,0.049072265625,1.009521484375,-0.05078125,-1.5563963651657104,-0.1220703050494194,0.4577636420726776,93.33334350585938,82766.0,1.0
15:33:42.616590,165591.03125,191270.40625,181199.4375,207865.78125,193462.5,192161.4375,691145.625,202618.21875,0.05126953125,1.01123046875,-0.050537109375,-1.5869139432907104,-0.03051757626235485,0.4882812201976776,93.33334350585938,82767.0,1.0
15:33:42.616668,165468.265625,191249.21875,181179.40625,207849.15625,193445.59375,192153.3125,691212.4375,202616.15625,0.0517578125,1.012451171875,-0.0537109375,-1.5258787870407104,0.03051757626235485,0.4882812201976776,93.33334350585938,82768.0,1.0
15:33:42.630263,165411.40625,191234.46875,181172.15625,207851.921875,193433.609375,192147.140625,690472.6875,202616.421875,0.052001953125,1.009765625,-0.054443359375,-1.5869139432907104,0.03051757626235485,0.4577636420726776,93.33334350585938,82769.0,1.0
15:33:42.630305,165525.765625,191248.15625,181187.984375,207872.84375,193443.984375,192145.078125,690399.75,202619.5625,0.0537109375,1.008544921875,-0.053466796875,-1.5258787870407104,-0.03051757626235485,0.4577636420726776,93.33334350585938,82770.0,1.0
15:33:42.633405,165594.421875,191263.53125,181195.40625,207871.140625,193457.21875,192149.28125,691020.75,202620.625,0.051513671875,1.00927734375,-0.054443359375,-1.4648436307907104,0.0,0.5187987685203552,93.33334350585938,82771.0,1.0
15:33:42.633436,165485.96875,191248.859375,181178.6875,207843.703125,193447.109375,192150.171875,691300.875,202619.5625,0.05224609375,1.007568359375,-0.0546875,-1.4648436307907104,0.0915527269244194,0.5493163466453552,93.33334350585938,82772.0,1.0
15:33:42.633452,165404.078125,191230.625,181169.296875,207853.0,193433.703125,192148.203125,690571.375,202624.390625,0.049560546875,1.0048828125,-0.053955078125,-1.5258787870407104,0.0610351525247097,0.5493163466453552,93.33334350585938,82773.0,1.0
15:33:42.635834,165498.9375,191244.03125,181187.09375,207864.609375,193445.0625,192151.96875,690353.75,202626.625,0.048828125,1.007080078125,-0.05517578125,-1.4648436307907104,0.0610351525247097,0.5798339247703552,93.33334350585938,82774.0,1.0
15:33:42.645955,165595.140625,191259.421875,181195.671875,207877.578125,193458.828125,192154.015625,690881.25,202625.71875,0.05224609375,1.005615234375,-0.055908203125,-1.4038084745407104,0.0915527269244194,0.6713866591453552,93.33334350585938,82775.0,1.0
15:33:42.653949,165504.296875,191247.96875,181176.90625,207837.078125,193448.015625,192153.390625,691344.3125,202616.96875,0.052001953125,1.00830078125,-0.058837890625,-1.3122557401657104,0.1525878757238388,0.6408690810203552,93.33334350585938,82776.0,1.0
15:33:42.653973,165401.21875,191227.140625,181163.3125,207847.359375,193430.9375,192150.625,690690.5625,202617.765625,0.05029296875,1.0087890625,-0.057861328125,-1.2207030057907104,0.1831054538488388,0.5798339247703552,93.33334350585938,82777.0,1.0
15:33:42.656450,165470.953125,191239.03125,181179.578125,207851.296875,193438.625,192153.84375,690329.5625,202617.859375,0.05126953125,1.009033203125,-0.058837890625,-1.2207030057907104,0.2441406100988388,0.6408690810203552,93.33334350585938,82778.0,1.0
15:33:42.656472,165592.109375,191258.4375,181196.296875,207879.28125,193456.859375,192156.171875,690744.5625,202623.484375,0.0498046875,1.01025390625,-0.06005859375,-1.1901854276657104,0.0915527269244194,0.5493163466453552,93.33334350585938,82779.0,1.0
15:33:42.667115,165527.734375,191254.859375,181183.25,207836.625,193454.796875,192158.140625,691345.125,202616.34375,0.049072265625,1.0107421875,-0.056640625,-1.1596678495407104,0.1220703050494194,0.5798339247703552,93.33334350585938,82780.0,1.0
15:33:42.674016,165407.75,191231.703125,181165.90625,207848.796875,193435.5,192153.484375,690824.25,202618.9375,0.049072265625,1.01123046875,-0.05859375,-1.0070799589157104,0.03051757626235485,0.5798339247703552,93.33334350585938,82781.0,1.0
15:33:42.674040,165448.609375,191241.0,181175.03125,207848.53125,193434.515625,192156.078125,690338.0625,202616.0625,0.0458984375,1.011962890625,-0.05810546875,-1.0070799589157104,-0.0610351525247097,0.4577636420726776,93.33334350585938,82782.0,1.0
15:33:42.676419,165584.5,191262.90625,181195.3125,207884.375,193452.84375,192158.765625,690648.4375,202622.328125,0.044677734375,1.011962890625,-0.055419921875,-1.0070799589157104,-0.0915527269244194,0.2746581733226776,93.33334350585938,82783.0,1.0
15:33:42.676440,165556.609375,191267.28125,181193.890625,207850.578125,193461.234375,192163.953125,691318.125,202620.625,0.04541015625,1.013427734375,-0.0576171875,-1.0681151151657104,-0.1525878757238388,0.1220703050494194,93.33334350585938,82784.0,1.0
15:33:42.684647,165434.65625,191246.625,181180.203125,207861.3125,193448.453125,192161.625,690970.125,202626.34375,0.042724609375,1.012939453125,-0.05712890625,-1.0986326932907104,-0.1220703050494194,0.03051757626235485,93.33334350585938,82785.0,1.0
15:33:42.695193,165438.953125,191246.625,181186.640625,207859.96875,193446.578125,192162.25,690361.8125,202626.53125,0.04345703125,1.013916015625,-0.053955078125,-1.1901854276657104,-0.1831054538488388,-0.0915527269244194,93.33334350585938,82786.0,1.0
15:33:42.695279,165576.1875,191263.96875,181207.296875,207897.078125,193464.453125,192161.796875,690527.875,202633.6875,0.044189453125,1.015869140625,-0.0556640625,-1.3122557401657104,-0.3356933295726776,-0.2136230319738388,93.33334350585938,82787.0,1.0
15:33:42.698283,165580.296875,191271.21875,181202.734375,207866.140625,193467.5,192162.15625,691229.625,202625.1875,0.042724609375,1.015625,-0.053466796875,-1.3427733182907104,-0.3662109076976776,-0.1831054538488388,93.33334350585938,82788.0,1.0
15:33:42.698295,165453.703125,191251.09375,181183.515625,207859.515625,193450.6875,192157.953125,691094.875,202624.5625,0.042236328125,1.01611328125,-0.053955078125,-1.4648436307907104,-0.5187987685203552,-0.3967284858226776,93.33334350585938,82789.0,1.0
15:33:42.707603,165427.140625,191245.734375,181186.015625,207857.28125,193447.03125,192158.3125,690398.3125,202626.4375,0.04150390625,1.018798828125,-0.055419921875,-1.5869139432907104,-0.6103515028953552,-0.3051757514476776,93.33334350585938,82790.0,1.0
15:33:42.714013,165559.375,191266.21875,181207.84375,207888.125,193464.90625,192161.0,690446.6875,202633.59375,0.044677734375,1.01708984375,-0.05224609375,-1.7700194120407104,-0.7019042372703552,-0.2441406100988388,93.33334350585938,82791.0,1.0
15:33:42.714044,165598.546875,191278.90625,181210.78125,207872.9375,193473.9375,192162.515625,691122.3125,202630.46875,0.045654296875,1.01611328125,-0.054931640625,-1.7700194120407104,-0.7629393935203552,-0.1525878757238388,93.33334350585938,82792.0,1.0
15:33:42.722666,165479.71875,191260.3125,181192.71875,207856.390625,193460.171875,192160.015625,691214.6875,202630.46875,0.045654296875,1.014892578125,-0.052978515625,-1.8005369901657104,-0.7629393935203552,-0.0915527269244194,93.33334350585938,82793.0,1.0
15:33:42.722720,165420.625,191245.109375,181186.828125,207859.515625,193449.4375,192157.515625,690478.3125,202632.515625,0.044677734375,1.013427734375,-0.0546875,-1.8005369901657104,-0.6713866591453552,-0.0610351525247097,93.33334350585938,82794.0,1.0
15:33:42.725290,165530.59375,191258.171875,181200.6875,207876.953125,193459.1875,192157.953125,690385.0,202632.515625,0.04443359375,1.013427734375,-0.055908203125,-1.8920897245407104,-0.6408690810203552,0.1220703050494194,93.33334350585938,82795.0,1.0
15:33:42.725340,165596.9375,191268.09375,181200.421875,207869.890625,193464.375,192156.96875,690996.0,202628.234375,0.04443359375,1.01318359375,-0.056640625,-1.9531248807907104,-0.7629393935203552,0.1831054538488388,93.33334350585938,82796.0,1.0
15:33:42.738443,165485.703125,191249.84375,181178.875,207838.0625,193449.265625,192154.015625,691298.875,202621.796875,0.04638671875,1.01220703125,-0.053955078125,-1.9531248807907104,-0.7324218153953552,0.2441406100988388,93.33334350585938,82797.0,1.0
15:33:42.745810,165398.796875,191228.921875,181165.015625,207845.125,193432.28125,192149.1875,690571.125,202622.328125,0.04638671875,1.01025390625,-0.053955078125,-1.9836424589157104,-0.7629393935203552,0.4577636420726776,93.33334350585938,82798.0,1.0
15:33:42.745852,165486.421875,191238.046875,181175.921875,207851.296875,193436.203125,192147.765625,690343.375,202618.03125,0.045654296875,1.010009765625,-0.05419921875,-1.9836424589157104,-0.7629393935203552,0.5798339247703552,93.33334350585938,82799.0,1.0
15:33:42.745867,165585.484375,191253.875,181185.390625,207864.4375,193449.34375,192147.671875,690866.625,202615.796875,0.044189453125,1.010498046875,-0.05322265625,-1.9531248807907104,-0.7629393935203552,0.7019042372703552,93.33334350585938,82800.0,1.0
15:33:42.789015,165499.828125,191245.640625,181171.0,207823.484375,193442.203125,192147.765625,691347.4375,202608.015625,0.042724609375,1.012451171875,-0.053955078125,-1.8615721464157104,-0.8239745497703552,0.8239745497703552,93.33334350585938,82801.0,1.0
15:33:42.789060,165393.0,191223.390625,181158.75,207832.703125,193427.890625,192143.734375,690708.8125,202609.71875,0.04345703125,1.011474609375,-0.056640625,-1.9531248807907104,-0.7629393935203552,0.8850097060203552,93.33334350585938,82802.0,1.0
15:33:42.792205,165457.359375,191232.953125,181174.21875,207833.859375,193437.1875,192147.765625,690340.375,202608.46875,0.04345703125,1.01171875,-0.055419921875,-1.8615721464157104,-0.7324218153953552,1.0070799589157104,93.33334350585938,82803.0,1.0
15:33:42.795243,165579.578125,191251.640625,181190.3125,207862.375,193455.515625,192149.546875,690752.8125,202613.125,0.041748046875,1.01220703125,-0.050048828125,-1.8005369901657104,-0.7934569716453552,1.0681151151657104,93.33334350585938,82804.0,1.0
15:33:42.795279,165522.359375,191249.484375,181179.3125,207821.703125,193453.90625,192150.625,691357.5625,202606.140625,0.0439453125,1.01123046875,-0.052001953125,-1.8920897245407104,-0.8544921278953552,1.1901854276657104,93.33334350585938,82805.0,1.0
15:33:42.797046,165402.5625,191225.171875,181162.0625,207832.96875,193435.9375,192145.171875,690849.6875,202610.34375,0.042236328125,1.01318359375,-0.052490234375,-1.8310545682907104,-0.9155272841453552,1.2817381620407104,93.33334350585938,82806.0,1.0
15:33:42.799619,165439.390625,191232.6875,181173.59375,207834.390625,193440.765625,192150.171875,690346.0,202611.875,0.042724609375,1.011962890625,-0.0537109375,-1.8615721464157104,-1.0070799589157104,1.2512205839157104,93.33334350585938,82807.0,1.0
15:33:42.802051,165575.390625,191254.59375,181191.65625,207869.53125,193457.75,192152.953125,690627.1875,202617.234375,0.04541015625,1.01318359375,-0.053955078125,-1.8615721464157104,-1.0375975370407104,1.3427733182907104,93.33334350585938,82808.0,1.0
15:33:42.804785,165549.90625,191261.734375,181185.84375,207832.078125,193461.875,192159.390625,691316.0,202610.4375,0.044189453125,1.01318359375,-0.05322265625,-1.8310545682907104,-0.9765624403953552,1.4038084745407104,93.33334350585938,82809.0,1.0
15:33:42.806994,165423.390625,191240.015625,181169.5625,207837.4375,193445.234375,192156.609375,690988.9375,202614.109375,0.042724609375,1.01171875,-0.052490234375,-1.8615721464157104,-1.0375975370407104,1.4343260526657104,93.33334350585938,82810.0,1.0
15:33:42.809587,165427.5,191242.25,181179.046875,207836.359375,193447.828125,192158.9375,690369.9375,202617.328125,0.04443359375,1.010986328125,-0.052001953125,-1.9226073026657104,-0.8544921278953552,1.4343260526657104,93.33334350585938,82811.0,1.0
15:33:42.812169,165569.75,191265.140625,181204.265625,207874.90625,193469.375,192161.71875,690534.0,202626.984375,0.04736328125,1.011962890625,-0.05224609375,-1.8310545682907104,-0.8544921278953552,1.3427733182907104,93.33334350585938,82812.0,1.0
15:33:42.814679,165579.3125,191272.921875,181202.828125,207846.921875,193476.53125,192162.34375,691235.3125,202622.0625,0.048583984375,1.010498046875,-0.054931640625,-1.8310545682907104,-0.8544921278953552,1.4953612089157104,93.33334350585938,82813.0,1.0
15:33:42.817360,165451.375,191248.15625,181183.078125,207841.8125,193460.609375,192156.25,691126.0,202624.203125,0.05029296875,1.01123046875,-0.053955078125,-1.8615721464157104,-0.7934569716453552,1.4953612089157104,93.33334350585938,82814.0,1.0
15:33:42.820932,165422.5,191242.34375,181185.9375,207845.125,193456.40625,192157.515625,690424.25,202630.015625,0.05029296875,1.01220703125,-0.052978515625,-1.8920897245407104,-0.7629393935203552,1.4343260526657104,93.33334350585938,82815.0,1.0
15:33:42.820999,165553.203125,191261.109375,181207.921875,207873.828125,193470.890625,192158.3125,690466.25,202634.484375,0.05078125,1.010986328125,-0.05224609375,-1.9226073026657104,-0.5493163466453552,1.3732908964157104,93.33334350585938,82816.0,1.0
15:33:42.821020,165597.828125,191277.5625,181213.296875,207860.859375,193483.234375,192165.109375,691137.875,202633.234375,0.052734375,1.011962890625,-0.052490234375,-1.8310545682907104,-0.4272460639476776,1.3732908964157104,93.33334350585938,82817.0,1.0
15:33:42.827736,165476.3125,191259.6875,181193.171875,207839.140625,193468.3125,192163.40625,691246.125,202629.5625,0.05517578125,1.01123046875,-0.0537109375,-1.8920897245407104,-0.2746581733226776,1.3122557401657104,93.33334350585938,82818.0,1.0
15:33:42.827829,165413.5625,191246.359375,181184.40625,207839.578125,193454.625,192161.359375,690500.5,202626.4375,0.054443359375,1.01123046875,-0.056396484375,-1.8005369901657104,-0.1831054538488388,1.3732908964157104,93.33334350585938,82819.0,1.0
15:33:42.830319,165523.4375,191261.109375,181199.4375,207855.671875,193464.375,192162.78125,690395.875,202625.09375,0.052490234375,1.011962890625,-0.055908203125,-1.8005369901657104,-0.0610351525247097,1.3427733182907104,93.33334350585938,82820.0,1.0
15:33:42.830403,165600.421875,191278.015625,181206.765625,207858.984375,193477.515625,192167.25,691002.25,202624.296875,0.054931640625,1.0107421875,-0.052734375,-1.7700194120407104,-0.0915527269244194,1.4038084745407104,93.33334350585938,82821.0,1.0
15:33:42.832127,165494.5625,191262.640625,181187.8125,207827.515625,193465.71875,192166.71875,691326.8125,202618.21875,0.054931640625,1.009765625,-0.052490234375,-1.8005369901657104,0.0610351525247097,1.4038084745407104,93.33334350585938,82822.0,1.0
15:33:42.834598,165406.21875,191242.515625,181178.25,207838.515625,193452.390625,192162.96875,690605.625,202622.234375,0.05517578125,1.011962890625,-0.052978515625,-1.7395018339157104,0.1831054538488388,1.3732908964157104,93.33334350585938,82823.0,1.0
15:33:42.843346,165501.4375,191258.875,181198.890625,207854.875,193466.25,192168.0625,690357.625,202627.609375,0.05712890625,1.011962890625,-0.05419921875,-1.7395018339157104,0.3051757514476776,1.3732908964157104,93.33334350585938,82824.0,1.0
15:33:42.846463,165609.625,191278.734375,181215.25,207875.34375,193485.46875,192170.828125,690867.25,202631.171875,0.05615234375,1.010986328125,-0.054443359375,-1.7089842557907104,0.3967284858226776,1.4343260526657104,93.33334350585938,82825.0,1.0
15:33:42.846475,165529.0625,191272.015625,181202.828125,207837.796875,193479.75,192170.828125,691370.0,202624.734375,0.0537109375,1.009521484375,-0.0517578125,-1.7395018339157104,0.5493163466453552,1.4038084745407104,93.33334350585938,82826.0,1.0
15:33:42.853432,165418.734375,191246.09375,181187.09375,207846.640625,193461.78125,192162.609375,690728.1875,202626.0,0.05322265625,1.009521484375,-0.051513671875,-1.7700194120407104,0.7934569716453552,1.3732908964157104,93.33334350585938,82827.0,1.0
15:33:42.857643,165474.4375,191250.921875,181196.578125,207845.3125,193464.90625,192161.359375,690342.25,202624.109375,0.054443359375,1.009521484375,-0.05078125,-1.7395018339157104,0.7934569716453552,1.3732908964157104,93.33334350585938,82828.0,1.0
15:33:42.857656,165597.734375,191270.234375,181211.6875,207875.34375,193480.828125,192162.25,690744.75,202627.515625,0.0537109375,1.01123046875,-0.05126953125,-1.6479490995407104,0.9460448622703552,1.4038084745407104,93.33334350585938,82829.0,1.0
15:33:42.864616,165543.203125,191269.515625,181200.0625,207832.609375,193480.90625,192163.859375,691365.125,202619.109375,0.053466796875,1.010498046875,-0.0517578125,-1.7395018339157104,1.0375975370407104,1.3427733182907104,93.33334350585938,82830.0,1.0
15:33:42.868972,165418.828125,191242.703125,181179.3125,207838.421875,193462.3125,192157.78125,690869.375,202618.9375,0.053955078125,1.010498046875,-0.05078125,-1.7395018339157104,1.1901854276657104,1.3732908964157104,93.33334350585938,82831.0,1.0
15:33:42.868983,165444.484375,191243.859375,181185.578125,207831.53125,193462.140625,192157.515625,690348.9375,202614.734375,0.0537109375,1.00830078125,-0.052001953125,-1.6784666776657104,1.1596678495407104,1.3122557401657104,93.33334350585938,82832.0,1.0
15:33:42.878290,165580.03125,191264.6875,181205.515625,207865.953125,193479.296875,192159.5625,690626.8125,202618.9375,0.053466796875,1.010498046875,-0.0517578125,-1.6174315214157104,1.3122557401657104,1.3427733182907104,93.33334350585938,82833.0,1.0
15:33:42.882795,165556.25,191268.71875,181200.140625,207828.671875,193482.78125,192161.359375,691319.3125,202612.40625,0.05029296875,1.010986328125,-0.052490234375,-1.5258787870407104,1.3122557401657104,1.2512205839157104,93.33334350585938,82834.0,1.0
15:33:42.882827,165427.59375,191242.703125,181181.46875,207832.96875,193464.90625,192155.1875,691011.25,202615.796875,0.051025390625,1.010986328125,-0.0546875,-1.4953612089157104,1.3122557401657104,1.1596678495407104,93.33334350585938,82835.0,1.0
15:33:42.884621,165426.78125,191240.734375,181186.28125,207831.359375,193461.875,192154.375,690377.0,202617.59375,0.05029296875,1.009765625,-0.053955078125,-1.4038084745407104,1.3427733182907104,1.2817381620407104,93.33334350585938,82836.0,1.0
15:33:42.912181,165562.953125,191260.578125,181206.046875,207864.265625,193477.421875,192154.015625,690531.0,202624.390625,0.049560546875,1.010498046875,-0.051513671875,-1.4648436307907104,1.3122557401657104,1.2207030057907104,93.33334350585938,82837.0,1.0
15:33:42.914677,165573.59375,191266.65625,181199.796875,207833.59375,193480.546875,192154.109375,691230.3125,202617.5,0.0498046875,1.01220703125,-0.0517578125,-1.3427733182907104,1.3427733182907104,1.2817381620407104,93.33334350585938,82838.0,1.0
15:33:42.917668,165447.078125,191245.921875,181181.109375,207827.421875,193463.65625,192151.515625,691143.875,202619.375,0.048583984375,1.011962890625,-0.052978515625,-1.2512205839157104,1.3122557401657104,1.2817381620407104,93.33334350585938,82839.0,1.0
15:33:42.919658,165414.8125,191241.796875,181182.625,207828.859375,193458.015625,192154.734375,690431.1875,202621.703125,0.04736328125,1.00927734375,-0.052734375,-1.2512205839157104,1.1901854276657104,1.1596678495407104,93.33334350585938,82840.0,1.0
15:33:42.922000,165545.15625,191264.15625,181203.984375,207857.734375,193473.578125,192159.203125,690447.9375,202627.328125,0.046875,1.01171875,-0.053466796875,-1.1596678495407104,1.1901854276657104,1.1596678495407104,93.33334350585938,82841.0,1.0
15:33:42.924586,165594.0625,191279.796875,181208.640625,207846.015625,193483.328125,192164.03125,691119.625,202623.84375,0.047119140625,1.011474609375,-0.0517578125,-1.1901854276657104,1.2817381620407104,1.2207030057907104,93.33334350585938,82842.0,1.0
15:33:42.928016,165473.90625,191260.046875,181187.1875,207824.109375,193468.65625,192161.71875,691258.6875,202618.390625,0.047607421875,1.011474609375,-0.048095703125,-1.0986326932907104,1.1596678495407104,1.1596678495407104,93.33334350585938,82843.0,1.0
15:33:42.943946,165405.6875,191243.859375,181177.53125,207825.453125,193452.296875,192159.203125,690509.0625,202616.25,0.05126953125,1.009765625,-0.050537109375,-1.0681151151657104,1.1596678495407104,1.1901854276657104,93.33334350585938,82844.0,1.0
15:33:42.943978,165513.875,191257.890625,181194.0625,207840.828125,193461.234375,192159.921875,690398.6875,202615.53125,0.049072265625,1.011474609375,-0.049072265625,-1.0681151151657104,1.1291502714157104,1.1901854276657104,93.33334350585938,82845.0,1.0
15:33:42.948326,165597.203125,191277.03125,181203.453125,207847.8125,193477.421875,192164.484375,690998.25,202616.703125,0.048095703125,1.010986328125,-0.05419921875,-1.1291502714157104,1.0070799589157104,1.0681151151657104,93.33334350585938,82846.0,1.0
15:33:42.950841,165501.53125,191269.34375,181192.71875,207821.96875,193472.78125,192168.0625,691341.8125,202616.515625,0.04833984375,1.009765625,-0.05126953125,-1.1291502714157104,0.9765624403953552,1.0681151151657104,93.33334350585938,82847.0,1.0
15:33:42.953891,165417.84375,191254.40625,181189.234375,207839.140625,193462.9375,192167.25,690624.0625,202622.859375,0.04931640625,1.010009765625,-0.05078125,-1.0375975370407104,0.9460448622703552,1.1291502714157104,93.33334350585938,82848.0,1.0
15:33:42.953917,165510.921875,191270.40625,181210.78125,207852.8125,193475.640625,192170.390625,690365.5625,202626.703125,0.05126953125,1.01123046875,-0.052734375,-0.9765624403953552,0.8544921278953552,1.2512205839157104,93.33334350585938,82849.0,1.0
15:33:42.955796,165620.71875,191288.296875,181224.28125,207873.296875,193490.75,192170.65625,690869.125,202628.5,0.05078125,1.011474609375,-0.0537109375,-0.9765624403953552,0.7934569716453552,1.3427733182907104,93.33334350585938,82850.0,1.0
15:33:42.958309,165536.21875,191277.390625,181206.578125,207830.90625,193479.921875,192167.4375,691383.375,202617.953125,0.052734375,1.012451171875,-0.052001953125,-0.9765624403953552,0.7324218153953552,1.3732908964157104,93.33334350585938,82851.0,1.0
15:33:42.960798,165420.625,191249.21875,181186.203125,207837.171875,193459.71875,192157.59375,690746.5625,202617.328125,0.0537109375,1.01318359375,-0.05224609375,-0.9155272841453552,0.7324218153953552,1.4953612089157104,93.33334350585938,82852.0,1.0
15:33:42.963342,165476.3125,191254.859375,181196.125,207837.703125,193463.484375,192158.046875,690347.25,202616.515625,0.05419921875,1.011474609375,-0.0546875,-0.8850097060203552,0.6408690810203552,1.5258787870407104,93.33334350585938,82853.0,1.0
15:33:42.965760,165600.6875,191271.390625,181210.875,207866.140625,193479.125,192158.671875,690738.9375,202619.28125,0.0537109375,1.0107421875,-0.05517578125,-0.7629393935203552,0.6713866591453552,1.5258787870407104,93.33334350585938,82854.0,1.0
15:33:42.968855,165550.078125,191272.015625,181201.9375,207825.71875,193480.28125,192162.6875,691368.25,202613.5625,0.052734375,1.008544921875,-0.05615234375,-0.7019042372703552,0.4577636420726776,1.7089842557907104,93.33334350585938,82855.0,1.0
15:33:42.968869,165428.9375,191249.578125,181185.65625,207833.0625,193464.015625,192159.828125,690885.6875,202617.40625,0.0517578125,1.00927734375,-0.05517578125,-0.7019042372703552,0.5798339247703552,1.7395018339157104,93.33334350585938,82856.0,1.0
15:33:42.970830,165455.75,191253.421875,181193.625,207829.125,193466.515625,192161.890625,690353.0,202615.0,0.050537109375,1.0087890625,-0.055419921875,-0.7324218153953552,0.5798339247703552,1.7089842557907104,93.33334350585938,82857.0,1.0
15:33:42.974483,165588.53125,191270.859375,181209.71875,207860.234375,193482.25,192161.171875,690621.1875,202617.765625,0.05224609375,1.009033203125,-0.056640625,-0.7629393935203552,0.5493163466453552,1.6174315214157104,93.33334350585938,82858.0,1.0
15:33:42.990108,165564.125,191271.84375,181199.25,207818.390625,193481.09375,192160.375,691310.9375,202609.09375,0.051025390625,1.01171875,-0.05859375,-0.7324218153953552,0.4577636420726776,1.3427733182907104,93.33334350585938,82859.0,1.0
15:33:42.990135,165429.5625,191241.625,181173.953125,207814.8125,193459.28125,192152.140625,691024.6875,202608.828125,0.05029296875,1.008544921875,-0.05224609375,-0.7324218153953552,0.4577636420726776,1.4648436307907104,93.33334350585938,82860.0,1.0
15:33:42.992564,165420.4375,191238.046875,181175.109375,207809.625,193454.453125,192152.765625,690383.1875,202608.375,0.04931640625,1.00927734375,-0.055419921875,-0.6713866591453552,0.4272460639476776,1.3122557401657104,93.33334350585938,82861.0,1.0
15:33:42.992594,165552.765625,191254.765625,181192.453125,207842.0,193468.3125,192152.234375,690515.0625,202613.5625,0.04931640625,1.010498046875,-0.054443359375,-0.6103515028953552,0.2746581733226776,1.1291502714157104,93.33334350585938,82862.0,1.0
15:33:42.994497,165565.453125,191262.453125,181188.703125,207816.15625,193473.84375,192155.09375,691218.25,202609.0,0.0498046875,1.00927734375,-0.057373046875,-0.6103515028953552,0.1831054538488388,1.0681151151657104,93.33334350585938,82863.0,1.0
15:33:42.998263,165432.328125,191234.5625,181163.84375,207802.65625,193451.859375,192148.390625,691152.0,202605.078125,0.050537109375,1.00927734375,-0.05712890625,-0.7324218153953552,0.0915527269244194,1.0070799589157104,93.33334350585938,82864.0,1.0
15:33:43.008853,165391.734375,191221.421875,181157.671875,207799.703125,193440.140625,192145.703125,690428.625,202602.75,0.052978515625,1.01025390625,-0.05517578125,-0.6103515028953552,0.0,0.9460448622703552,93.33334350585938,82865.0,1.0
15:33:43.008889,165519.6875,191239.203125,181177.4375,207827.0625,193454.984375,192148.03125,690435.5625,202607.046875,0.055419921875,1.01171875,-0.057861328125,-0.6408690810203552,0.0,0.7934569716453552,93.33334350585938,82866.0,1.0
15:33:43.010769,165572.96875,191254.765625,181183.421875,207818.125,193467.40625,192151.78125,691098.875,202604.625,0.057373046875,1.01416015625,-0.057861328125,-0.6713866591453552,0.03051757626235485,0.7629393935203552,93.33334350585938,82867.0,1.0
15:33:43.020510,165458.4375,191240.640625,181168.765625,207800.25,193456.6875,192150.890625,691258.0625,202604.171875,0.058349609375,1.0146484375,-0.05517578125,-0.7629393935203552,-0.03051757626235485,0.8850097060203552,93.33334350585938,82868.0,1.0
15:33:43.020541,165397.828125,191229.734375,181167.25,207810.609375,193450.609375,192150.984375,690512.125,202610.34375,0.05859375,1.013916015625,-0.054931640625,-0.7934569716453552,0.03051757626235485,0.8239745497703552,93.33334350585938,82869.0,1.0
15:33:43.022056,165512.984375,191250.828125,181191.828125,207834.484375,193468.484375,192156.171875,690377.125,202617.234375,0.058349609375,1.014892578125,-0.0537109375,-0.7934569716453552,0.0915527269244194,0.7629393935203552,93.33334350585938,82870.0,1.0
15:33:43.028377,165595.671875,191267.375,181199.875,207840.203125,193481.890625,192156.171875,690961.5625,202615.796875,0.058837890625,1.0146484375,-0.055419921875,-0.9460448622703552,0.2136230319738388,0.8239745497703552,93.33334350585938,82871.0,1.0
15:33:43.035116,165497.234375,191257.453125,181185.578125,207809.359375,193472.59375,192157.234375,691328.125,202612.3125,0.059814453125,1.015380859375,-0.054931640625,-0.9460448622703552,0.2441406100988388,0.7934569716453552,93.33334350585938,82872.0,1.0
15:33:43.035147,165404.96875,191238.234375,181175.296875,207818.75,193456.6875,192153.75,690621.3125,202614.453125,0.0595703125,1.0146484375,-0.055419921875,-1.0375975370407104,0.2441406100988388,0.9155272841453552,93.33334350585938,82873.0,1.0
15:33:43.043889,165490.796875,191252.625,181193.359375,207829.296875,193467.140625,192157.0625,690340.75,202614.375,0.057861328125,1.01220703125,-0.0546875,-1.0986326932907104,0.3662109076976776,0.9460448622703552,93.33334350585938,82874.0,1.0
15:33:43.043916,165600.421875,191269.78125,181205.15625,207850.140625,193481.8125,192157.515625,690827.0,202614.90625,0.057373046875,1.01220703125,-0.0556640625,-1.1596678495407104,0.3967284858226776,0.9765624403953552,93.33334350585938,82875.0,1.0
15:33:43.045867,165518.25,191258.34375,181187.265625,207806.234375,193472.328125,192154.296875,691357.4375,202604.625,0.057861328125,1.011962890625,-0.055419921875,-1.2512205839157104,0.4272460639476776,0.8544921278953552,93.33334350585938,82876.0,1.0
15:33:43.052038,165403.28125,191233.3125,181169.484375,207816.421875,193455.15625,192147.578125,690749.0625,202607.046875,0.057861328125,1.01123046875,-0.05615234375,-1.2817381620407104,0.4272460639476776,0.9155272841453552,93.33334350585938,82877.0,1.0
15:33:43.055879,165458.890625,191242.609375,181182.171875,207818.484375,193461.59375,192151.515625,690331.5,202607.671875,0.0546875,1.010009765625,-0.0556640625,-1.3427733182907104,0.3356933295726776,0.8850097060203552,93.33334350585938,82878.0,1.0
15:33:43.059606,165586.015625,191263.53125,181199.34375,207848.53125,193479.65625,192154.46875,690698.0,202611.6875,0.05419921875,1.010986328125,-0.057373046875,-1.3427733182907104,0.3356933295726776,0.8850097060203552,93.33334350585938,82879.0,1.0
15:33:43.085210,165537.296875,191263.171875,181189.421875,207805.875,193478.046875,192158.21875,691343.5,202603.734375,0.053466796875,1.009521484375,-0.053466796875,-1.4038084745407104,0.3967284858226776,0.8239745497703552,93.33334350585938,82880.0,1.0
15:33:43.085225,165409.71875,191235.90625,181169.65625,207810.078125,193459.546875,192152.140625,690883.875,202605.4375,0.05419921875,1.0126953125,-0.05419921875,-1.4038084745407104,0.3967284858226776,0.7629393935203552,93.33334350585938,82881.0,1.0
15:33:43.088842,165432.953125,191239.296875,181177.796875,207805.875,193462.3125,192155.359375,690337.9375,202605.609375,0.053955078125,1.010986328125,-0.054931640625,-1.3427733182907104,0.2136230319738388,0.7019042372703552,93.33334350585938,82882.0,1.0
15:33:43.088855,165570.828125,191260.125,181196.578125,207841.640625,193481.71875,192158.765625,690586.5625,202610.890625,0.052001953125,1.010986328125,-0.05419921875,-1.4648436307907104,0.2441406100988388,0.6408690810203552,93.33334350585938,82883.0,1.0
15:33:43.088857,165553.65625,191262.453125,181187.265625,207804.71875,193481.265625,192160.453125,691283.875,202604.265625,0.0537109375,1.011962890625,-0.056884765625,-1.4648436307907104,0.2136230319738388,0.6408690810203552,93.33334350585938,82884.0,1.0
15:33:43.088860,165420.984375,191234.296875,181164.296875,207801.5,193458.5625,192152.765625,691021.0,202603.828125,0.052734375,1.0107421875,-0.056884765625,-1.4648436307907104,0.1220703050494194,0.5798339247703552,93.33334350585938,82885.0,1.0
15:33:43.090865,165408.109375,191227.234375,181161.96875,207793.53125,193451.140625,192151.078125,690373.625,202600.609375,0.052978515625,1.010986328125,-0.056640625,-1.4038084745407104,0.1220703050494194,0.6408690810203552,93.33334350585938,82886.0,1.0
15:33:43.093388,165542.21875,191246.359375,181181.109375,207827.328125,193467.328125,192151.703125,690506.5,202606.234375,0.05419921875,1.0107421875,-0.05224609375,-1.4648436307907104,0.1220703050494194,0.6408690810203552,93.33334350585938,82887.0,1.0
15:33:43.095828,165560.984375,191255.21875,181180.390625,207804.453125,193475.1875,192152.5,691195.5625,202603.734375,0.05419921875,1.01123046875,-0.0546875,-1.4038084745407104,0.0915527269244194,0.6103515028953552,93.33334350585938,82888.0,1.0
15:33:43.098358,165436.265625,191235.640625,181164.296875,207796.9375,193462.5,192149.734375,691151.1875,202607.484375,0.0537109375,1.011474609375,-0.052978515625,-1.3732908964157104,0.1220703050494194,0.6408690810203552,93.33334350585938,82889.0,1.0
15:33:43.114018,165400.765625,191230.1875,181167.421875,207802.5625,193458.65625,192151.25,690428.3125,202613.203125,0.0546875,1.009521484375,-0.057373046875,-1.4038084745407104,0.03051757626235485,0.6408690810203552,93.33334350585938,82890.0,1.0
15:33:43.114088,165527.734375,191247.25,181187.0,207828.859375,193473.140625,192149.375,690411.5625,202617.140625,0.054931640625,1.00927734375,-0.054931640625,-1.4038084745407104,0.0,0.5798339247703552,93.33334350585938,82891.0,1.0
15:33:43.139072,165582.890625,191261.03125,181190.671875,207820.359375,193482.609375,192150.453125,691069.5625,202613.484375,0.0546875,1.0087890625,-0.05419921875,-1.3122557401657104,0.0,0.7324218153953552,93.33334350585938,82892.0,1.0
15:33:43.163332,165470.78125,191247.875,181175.03125,207800.953125,193470.359375,192151.25,691253.3125,202611.953125,0.056640625,1.010986328125,-0.0576171875,-1.2512205839157104,-0.0610351525247097,0.7019042372703552,93.33334350585938,82893.0,1.0
15:33:43.165975,165403.8125,191235.984375,181171.453125,207807.046875,193460.171875,192151.15625,690514.1875,202613.5625,0.0556640625,1.009521484375,-0.05859375,-1.2512205839157104,0.0610351525247097,0.6408690810203552,93.33334350585938,82894.0,1.0
15:33:43.168462,165512.34375,191252.359375,181189.953125,207823.578125,193472.328125,192152.953125,690358.5,202615.4375,0.05517578125,1.010498046875,-0.056884765625,-1.3122557401657104,0.03051757626235485,0.6713866591453552,93.33334350585938,82895.0,1.0
15:33:43.170920,165595.234375,191266.125,181196.65625,207831.09375,193483.140625,192152.6875,690935.625,202614.1875,0.053466796875,1.010498046875,-0.057861328125,-1.2207030057907104,0.0610351525247097,0.7324218153953552,93.33334350585938,82896.0,1.0
15:33:43.173322,165496.4375,191255.84375,181180.5625,207798.640625,193471.34375,192153.03125,691317.6875,202609.90625,0.0556640625,1.009033203125,-0.053955078125,-1.2512205839157104,0.0,0.5798339247703552,93.33334350585938,82897.0,1.0
15:33:43.175870,165403.8125,191238.046875,181171.0,207807.578125,193459.359375,192151.609375,690609.75,202613.5625,0.056884765625,1.009765625,-0.053466796875,-1.1291502714157104,-0.0915527269244194,0.6408690810203552,93.33334350585938,82898.0,1.0
15:33:43.178360,165488.296875,191253.875,181189.78125,207815.890625,193473.046875,192157.421875,690323.4375,202614.8125,0.0546875,1.009765625,-0.053955078125,-1.1596678495407104,-0.03051757626235485,0.5493163466453552,93.33334350585938,82899.0,1.0
15:33:43.180867,165603.09375,191275.328125,181206.046875,207839.140625,193492.0,192162.0625,690805.8125,202616.96875,0.05419921875,1.010986328125,-0.054931640625,-1.2207030057907104,-0.0915527269244194,0.5187987685203552,93.33334350585938,82900.0,1.0
15:33:43.183400,165530.859375,191271.125,181194.875,207800.328125,193488.875,192164.125,691343.4375,202609.984375,0.0537109375,1.01171875,-0.056396484375,-1.1291502714157104,-0.1831054538488388,0.5493163466453552,93.33334350585938,82901.0,1.0
15:33:43.186389,165420.890625,191250.296875,181183.421875,207813.03125,193475.71875,192162.25,690741.4375,202613.921875,0.054931640625,1.013427734375,-0.054443359375,-1.1291502714157104,-0.1831054538488388,0.5493163466453552,93.33334350585938,82902.0,1.0
15:33:43.186428,165477.21875,191262.09375,181200.0625,207816.25,193486.453125,192169.125,690317.8125,202616.15625,0.055419921875,1.010009765625,-0.053466796875,-1.1901854276657104,-0.1220703050494194,0.5187987685203552,93.33334350585938,82903.0,1.0
15:33:43.188305,165608.640625,191283.734375,181219.546875,207849.859375,193506.21875,192173.328125,690691.75,202623.484375,0.054443359375,1.011962890625,-0.056884765625,-1.1596678495407104,-0.1831054538488388,0.5798339247703552,93.33334350585938,82904.0,1.0
15:33:43.190824,165560.453125,191282.484375,181208.109375,207805.15625,193504.25,192175.921875,691326.8125,202616.15625,0.05712890625,1.0126953125,-0.054443359375,-1.2207030057907104,-0.0610351525247097,0.4882812201976776,93.33334350585938,82905.0,1.0
15:33:43.193322,165434.75,191258.34375,181190.3125,207810.703125,193484.578125,192173.328125,690890.375,202619.015625,0.056396484375,1.011474609375,-0.05126953125,-1.2817381620407104,-0.0915527269244194,0.3356933295726776,93.33334350585938,82906.0,1.0
15:33:43.196322,165452.625,191258.171875,181195.59375,207802.921875,193481.890625,192174.140625,690338.375,202617.046875,0.05517578125,1.01025390625,-0.0546875,-1.2512205839157104,-0.0610351525247097,0.3662109076976776,93.33334350585938,82907.0,1.0
15:33:43.196350,165585.578125,191273.625,181210.15625,207835.5625,193495.3125,192172.0,690585.4375,202621.34375,0.055908203125,1.010009765625,-0.054931640625,-1.2207030057907104,-0.0915527269244194,0.4272460639476776,93.33334350585938,82908.0,1.0
15:33:43.198984,165568.765625,191274.609375,181200.0625,207799.0,193494.953125,192170.46875,691273.75,202614.015625,0.05615234375,1.011474609375,-0.0546875,-1.1596678495407104,-0.0610351525247097,0.4272460639476776,93.33334350585938,82909.0,1.0
15:33:43.199012,165434.296875,191246.0,181174.9375,207796.9375,193471.703125,192160.546875,691025.3125,202612.671875,0.054931640625,1.011962890625,-0.056884765625,-1.2207030057907104,-0.0610351525247097,0.3967284858226776,93.33334350585938,82910.0,1.0
15:33:43.200942,165424.015625,191245.828125,181180.203125,207798.90625,193468.84375,192163.234375,690366.1875,202614.90625,0.056640625,1.0107421875,-0.05517578125,-1.3122557401657104,-0.0915527269244194,0.3051757514476776,93.33334350585938,82911.0,1.0
15:33:43.203338,165565.8125,191269.25,181205.25,207838.0625,193488.421875,192166.71875,690475.125,202624.203125,0.05517578125,1.01025390625,-0.052978515625,-1.2817381620407104,-0.1831054538488388,0.2746581733226776,93.33334350585938,82912.0,1.0
15:33:43.206409,165588.4375,191277.203125,181204.078125,207813.390625,193495.390625,192166.890625,691168.625,202619.640625,0.054931640625,1.010009765625,-0.05224609375,-1.2207030057907104,-0.1525878757238388,0.3662109076976776,93.33334350585938,82913.0,1.0
15:33:43.206432,165458.96875,191252.703125,181180.921875,207796.3125,193477.0625,192158.9375,691147.625,202616.15625,0.053955078125,1.010986328125,-0.052978515625,-1.1901854276657104,-0.1525878757238388,0.3051757514476776,93.33334350585938,82914.0,1.0
15:33:43.208290,165416.5,191244.21875,181179.3125,207798.015625,193469.921875,192158.21875,690422.8125,202617.953125,0.0546875,1.008544921875,-0.05615234375,-1.1901854276657104,-0.0915527269244194,0.2441406100988388,93.33334350585938,82915.0,1.0
15:33:43.210908,165543.828125,191265.578125,181201.484375,207828.765625,193486.8125,192162.34375,690409.625,202624.65625,0.054931640625,1.010009765625,-0.055419921875,-1.1596678495407104,-0.0915527269244194,0.2136230319738388,93.33334350585938,82916.0,1.0
15:33:43.215201,165602.203125,191280.0625,181206.578125,207824.109375,193498.875,192164.9375,691057.75,202622.953125,0.053466796875,1.0087890625,-0.053955078125,-1.1596678495407104,-0.0915527269244194,0.1831054538488388,93.33334350585938,82917.0,1.0
15:33:43.215225,165485.53125,191261.296875,181186.015625,207796.9375,193485.828125,192161.625,691255.875,202617.328125,0.053955078125,1.0078125,-0.055419921875,-1.0986326932907104,-0.1220703050494194,0.0915527269244194,93.33334350585938,82918.0,1.0
15:33:43.230944,165411.328125,191245.109375,181177.34375,207802.84375,193472.5,192159.921875,690522.125,202618.3125,0.05322265625,1.0107421875,-0.05517578125,-1.0681151151657104,-0.1220703050494194,0.03051757626235485,93.33334350585938,82919.0,1.0
15:33:43.230979,165516.546875,191260.84375,181194.421875,207819.203125,193482.78125,192163.859375,690363.0625,202618.84375,0.05322265625,1.010498046875,-0.055908203125,-1.0986326932907104,-0.1220703050494194,0.03051757626235485,93.33334350585938,82920.0,1.0
15:33:43.230988,165604.078125,191277.03125,181202.46875,207826.625,193495.84375,192165.640625,690932.75,202617.5,0.05419921875,1.010498046875,-0.054931640625,-1.0986326932907104,-0.1220703050494194,0.0610351525247097,93.33334350585938,82921.0,1.0
15:33:43.233382,165507.609375,191265.765625,181186.828125,207793.984375,193487.34375,192165.109375,691328.5,202612.40625,0.053955078125,1.01025390625,-0.0537109375,-1.0070799589157104,-0.03051757626235485,0.1525878757238388,93.33334350585938,82922.0,1.0
15:33:43.236012,165411.953125,191244.484375,181175.03125,207804.53125,193471.4375,192160.28125,690635.25,202615.53125,0.05419921875,1.007568359375,-0.0546875,-0.9460448622703552,-0.0915527269244194,0.1831054538488388,93.33334350585938,82923.0,1.0
15:33:43.238350,165496.890625,191262.546875,181196.75,207815.984375,193485.734375,192167.703125,690328.125,202619.203125,0.05517578125,1.008056640625,-0.055908203125,-0.9155272841453552,-0.1831054538488388,0.1525878757238388,93.33334350585938,82924.0,1.0
15:33:43.249562,165611.859375,191283.46875,181212.75,207841.109375,193504.96875,192170.390625,690789.125,202622.59375,0.055908203125,1.010498046875,-0.056884765625,-0.8544921278953552,-0.1525878757238388,0.2136230319738388,93.33334350585938,82925.0,1.0
15:33:43.258311,165536.40625,191276.046875,181197.28125,207799.96875,193500.046875,192169.84375,691342.1875,202614.8125,0.054931640625,1.00927734375,-0.05517578125,-0.9460448622703552,-0.0915527269244194,0.1525878757238388,93.33334350585938,82926.0,1.0
15:33:43.258345,165418.921875,191248.0625,181177.609375,207808.828125,193479.03125,192162.25,690749.5,202615.53125,0.053955078125,1.00927734375,-0.055908203125,-0.9765624403953552,-0.0915527269244194,0.0610351525247097,93.33334350585938,82927.0,1.0
15:33:43.258408,165470.953125,191257.1875,181191.828125,207812.578125,193484.671875,192167.703125,690308.875,202618.484375,0.05419921875,1.009765625,-0.057861328125,-1.0070799589157104,-0.0915527269244194,0.0915527269244194,93.33334350585938,82928.0,1.0
15:33:43.260876,165594.96875,191272.640625,181204.078125,207840.484375,193496.921875,192165.640625,690655.0625,202620.0,0.053466796875,1.010986328125,-0.055908203125,-0.8239745497703552,-0.1831054538488388,0.1220703050494194,93.33334350585938,82929.0,1.0
15:33:43.263359,165542.921875,191266.5625,181185.578125,207791.296875,193487.34375,192161.171875,691300.4375,202606.59375,0.054931640625,1.0107421875,-0.0546875,-0.9460448622703552,-0.1220703050494194,0.0610351525247097,93.33334350585938,82930.0,1.0
15:33:43.277704,165419.28125,191242.515625,181167.6875,207799.171875,193469.734375,192157.15625,690880.1875,202610.96875,0.05517578125,1.01123046875,-0.056396484375,-0.9155272841453552,-0.1220703050494194,0.1220703050494194,93.33334350585938,82931.0,1.0
15:33:43.277740,165434.296875,191242.78125,181174.125,207794.609375,193470.453125,192157.953125,690316.75,202610.171875,0.053466796875,1.011474609375,-0.0576171875,-0.9460448622703552,-0.0915527269244194,0.1525878757238388,93.33334350585938,82932.0,1.0
15:33:43.279776,165571.359375,191261.5625,181194.0625,207829.921875,193487.34375,192157.859375,690558.1875,202615.171875,0.053466796875,1.010498046875,-0.05712890625,-0.9765624403953552,-0.2136230319738388,0.1220703050494194,93.33334350585938,82933.0,1.0
15:33:43.284029,165563.21875,191267.734375,181190.140625,207795.0625,193492.890625,192160.28125,691248.625,202609.0,0.054443359375,1.01025390625,-0.057861328125,-1.0681151151657104,-0.1525878757238388,0.1525878757238388,93.33334350585938,82934.0,1.0
15:33:43.284070,165437.515625,191247.609375,181175.734375,207797.65625,193481.625,192159.921875,691029.875,202613.5625,0.05322265625,1.01171875,-0.055908203125,-1.1291502714157104,-0.1220703050494194,0.1831054538488388,93.33334350585938,82935.0,1.0
15:33:43.289631,165422.40625,191246.359375,181181.546875,207797.5625,193482.34375,192165.5625,690365.125,202616.34375,0.05322265625,1.012451171875,-0.05517578125,-1.0070799589157104,-0.2746581733226776,0.0610351525247097,93.33334350585938,82936.0,1.0
15:33:43.297638,165558.125,191267.1875,181203.1875,207832.34375,193501.296875,192170.03125,690466.875,202624.203125,0.05322265625,1.01171875,-0.0546875,-1.0375975370407104,-0.2441406100988388,0.03051757626235485,93.33334350585938,82937.0,1.0
15:33:43.297661,165587.359375,191277.5625,181202.828125,207811.515625,193508.984375,192172.703125,691153.625,202619.828125,0.05224609375,1.013671875,-0.055908203125,-0.9765624403953552,-0.2746581733226776,0.03051757626235485,93.33334350585938,82938.0,1.0
15:33:43.300148,165461.5625,191255.03125,181181.734375,207797.390625,193490.921875,192166.265625,691152.0,202619.28125,0.052978515625,1.011962890625,-0.059326171875,-1.0986326932907104,-0.2746581733226776,-0.03051757626235485,93.33334350585938,82939.0,1.0
15:33:43.300170,165417.125,191245.46875,181179.671875,207801.40625,193482.875,192164.296875,690420.0,202621.609375,0.0537109375,1.01220703125,-0.058837890625,-1.1901854276657104,-0.2136230319738388,-0.03051757626235485,93.33334350585938,82940.0,1.0
15:33:43.309570,165541.40625,191264.0625,181199.96875,207826.984375,193496.203125,192164.9375,690398.5625,202623.765625,0.053955078125,1.013671875,-0.05712890625,-1.0986326932907104,-0.2441406100988388,-0.03051757626235485,93.33334350585938,82941.0,1.0
15:33:43.316336,165601.9375,191279.0,181205.15625,207819.90625,193507.28125,192166.546875,691038.75,202619.734375,0.052734375,1.012939453125,-0.057861328125,-1.1596678495407104,-0.2441406100988388,-0.0915527269244194,93.33334350585938,82942.0,1.0
15:33:43.316349,165488.296875,191263.4375,181187.09375,207792.375,193494.5,192165.90625,691254.4375,202615.53125,0.05224609375,1.010986328125,-0.055908203125,-1.1901854276657104,-0.2441406100988388,-0.1831054538488388,93.33334350585938,82943.0,1.0
15:33:43.322646,165413.46875,191247.078125,181178.59375,207797.46875,193481.09375,192164.9375,690524.625,202615.265625,0.054443359375,1.0107421875,-0.05908203125,-1.2207030057907104,-0.2746581733226776,-0.2136230319738388,93.33334350585938,82944.0,1.0
