Timestamp,Fz,FC3,FCz,FC4,Cz,C3,C4
15:36:34.691406,164352.390625,186918.34375,179646.171875,195921.359375,188080.90625,186213.734375,690506.375,198000.171875,0.04833984375,1.0185546875,-0.033447265625,-0.4882812201976776,0.0,-0.0915527269244194,93.33334350585938,125824.0,1.0
15:36:34.719779,164421.9375,186932.921875,179651.890625,195922.078125,188092.703125,186215.796875,691148.8125,197999.453125,0.04931640625,1.017822265625,-0.030029296875,-0.6713866591453552,0.0915527269244194,-0.03051757626235485,93.33334350585938,125825.0,1.0
15:36:34.719815,164311.796875,186918.625,179635.171875,195896.0625,188081.625,186215.703125,691431.6875,197996.765625,0.049560546875,1.01513671875,-0.02978515625,-0.7629393935203552,0.2746581733226776,0.1525878757238388,93.33334350585938,125826.0,1.0
15:36:34.719825,164225.6875,186895.109375,179620.140625,195898.296875,188063.296875,186207.296875,690679.9375,197994.171875,0.046630859375,1.0185546875,-0.031982421875,-0.8544921278953552,0.3356933295726776,0.1220703050494194,93.33334350585938,125827.0,1.0
15:36:34.719833,164321.0,186908.328125,179635.25,195911.984375,188070.8125,186208.375,690463.125,197995.25,0.0458984375,1.0166015625,-0.031982421875,-0.9155272841453552,0.3967284858226776,0.1525878757238388,93.33334350585938,125828.0,1.0
15:36:34.719841,164415.78125,186922.734375,179643.125,195926.546875,188080.1875,186206.84375,691018.5,197994.09375,0.0458984375,1.014892578125,-0.02978515625,-1.1596678495407104,0.4272460639476776,0.2136230319738388,93.33334350585938,125829.0,1.0
15:36:34.723016,164323.859375,186911.015625,179625.0625,195886.9375,188067.234375,186204.078125,691480.125,197983.984375,0.0458984375,1.01708984375,-0.0263671875,-1.2817381620407104,0.5493163466453552,0.1831054538488388,93.33334350585938,125830.0,1.0
15:36:34.723033,164218.546875,186887.328125,179609.5,195892.125,188048.359375,186198.4375,690807.9375,197984.078125,0.046875,1.017333984375,-0.02783203125,-1.4343260526657104,0.7019042372703552,0.2136230319738388,93.33334350585938,125831.0,1.0
15:36:34.723037,164287.828125,186896.890625,179620.859375,195896.15625,188054.53125,186201.3125,690444.0625,197984.875,0.043701171875,1.01611328125,-0.029052734375,-1.6784666776657104,0.7324218153953552,0.2746581733226776,93.33334350585938,125832.0,1.0
15:36:34.723041,164408.265625,186916.296875,179634.265625,195924.84375,188070.625,186204.25,690893.25,197989.796875,0.04443359375,1.01513671875,-0.02734375,-1.7395018339157104,0.7629393935203552,0.3051757514476776,93.33334350585938,125833.0,1.0
15:36:34.724960,164345.765625,186914.765625,179624.078125,195886.9375,188068.03125,186208.375,691499.625,197984.25,0.04345703125,1.015869140625,-0.02685546875,-1.8005369901657104,0.7934569716453552,0.2136230319738388,93.33334350585938,125834.0,1.0
15:36:34.727559,164225.6875,186890.640625,179607.453125,195894.359375,188049.96875,186204.25,690947.4375,197986.046875,0.042236328125,1.015625,-0.026611328125,-1.8310545682907104,0.7324218153953552,0.1831054538488388,93.33334350585938,125835.0,1.0
15:36:34.731261,164268.078125,186899.03125,179619.96875,195897.21875,188056.234375,186208.1875,690446.5,197988.546875,0.04345703125,1.014404296875,-0.028564453125,-2.044677495956421,0.7324218153953552,0.2746581733226776,93.33334350585938,125836.0,1.0
15:36:34.773804,164399.953125,186916.296875,179635.4375,195930.75,188071.4375,186206.21875,690776.9375,197992.03125,0.042724609375,1.0166015625,-0.029541015625,-2.166747808456421,0.6408690810203552,0.3051757514476776,93.33334350585938,125837.0,1.0
15:36:34.783146,164371.96875,186921.921875,179631.5,195894.8125,188075.28125,186209.984375,691459.375,197987.65625,0.042724609375,1.01708984375,-0.029541015625,-2.227782964706421,0.6713866591453552,0.2441406100988388,93.33334350585938,125838.0,1.0
15:36:34.783229,164246.34375,186903.15625,179618.984375,195899.546875,188063.65625,186210.6875,691087.1875,197992.484375,0.04150390625,1.0146484375,-0.025634765625,-2.288818120956421,0.7324218153953552,0.2136230319738388,93.33334350585938,125839.0,1.0
15:36:34.787384,164253.234375,186904.484375,179624.890625,195895.53125,188065.265625,186214.265625,690465.0,197992.75,0.041259765625,1.014892578125,-0.0283203125,-2.441406011581421,0.7019042372703552,0.2746581733226776,93.33334350585938,125840.0,1.0
15:36:34.787463,164391.359375,186922.640625,179642.671875,195930.75,188079.75,186214.09375,690677.8125,197998.46875,0.04150390625,1.013916015625,-0.0244140625,-2.502441167831421,0.5798339247703552,0.3356933295726776,93.33334350585938,125841.0,1.0
15:36:34.787491,164394.40625,186928.0,179638.65625,195901.515625,188082.875,186214.53125,691390.5625,197993.375,0.03955078125,1.013427734375,-0.02587890625,-2.532958745956421,0.6103515028953552,0.3967284858226776,93.33334350585938,125842.0,1.0
15:36:34.789056,164266.90625,186907.0,179622.5625,195899.453125,188066.875,186211.046875,691231.8125,197994.71875,0.04052734375,1.013427734375,-0.024658203125,-2.502441167831421,0.6408690810203552,0.3967284858226776,93.33334350585938,125843.0,1.0
15:36:34.791382,164240.453125,186899.75,179622.203125,195896.328125,188059.890625,186209.625,690518.8125,197991.84375,0.041259765625,1.01220703125,-0.027587890625,-2.502441167831421,0.5493163466453552,0.3967284858226776,93.33334350585938,125844.0,1.0
15:36:34.794093,164370.796875,186916.921875,179640.265625,195925.65625,188073.75,186210.515625,690577.125,197995.25,0.040283203125,1.011474609375,-0.026611328125,-2.502441167831421,0.5187987685203552,0.4882812201976776,93.33334350585938,125845.0,1.0
15:36:34.796707,164402.71875,186923.53125,179636.15625,195904.90625,188076.4375,186208.71875,691278.3125,197988.0,0.0400390625,1.01220703125,-0.02685546875,-2.410888433456421,0.3967284858226776,0.4882812201976776,93.33334350585938,125846.0,1.0
15:36:34.798720,164274.15625,186899.390625,179612.28125,195881.3125,188055.421875,186202.375,691350.9375,197980.40625,0.039794921875,1.011962890625,-0.026123046875,-2.471923589706421,0.3356933295726776,0.4882812201976776,93.33334350585938,125847.0,1.0
15:36:34.801341,164216.84375,186885.453125,179606.921875,195882.203125,188043.890625,186199.0625,690592.3125,197979.953125,0.041015625,1.011474609375,-0.0263671875,-2.441406011581421,0.2441406100988388,0.4577636420726776,93.33334350585938,125848.0,1.0
15:36:34.804132,164334.953125,186900.015625,179624.96875,195904.46875,188057.21875,186198.796875,690519.4375,197981.125,0.04052734375,1.01123046875,-0.025390625,-2.380370855331421,0.2746581733226776,0.5493163466453552,93.33334350585938,125849.0,1.0
15:36:34.808802,164407.109375,186917.015625,179633.109375,195907.59375,188071.25,186202.203125,691161.375,197981.296875,0.0400390625,1.009521484375,-0.025634765625,-2.288818120956421,0.1220703050494194,0.6103515028953552,93.33334350585938,125850.0,1.0
15:36:34.811280,164298.828125,186904.21875,179617.546875,195879.34375,188061.234375,186201.84375,691441.25,197977.546875,0.0400390625,1.010986328125,-0.023193359375,-2.349853277206421,0.1525878757238388,0.7324218153953552,93.33334350585938,125851.0,1.0
15:36:34.814036,164217.734375,186889.65625,179611.921875,195884.796875,188050.78125,186201.65625,690696.75,197980.140625,0.0400390625,1.011962890625,-0.021728515625,-2.258300542831421,-0.03051757626235485,0.6408690810203552,93.33334350585938,125852.0,1.0
15:36:34.816887,164316.625,186907.53125,179632.21875,195900.171875,188064.1875,186205.953125,690472.25,197983.625,0.039794921875,1.01220703125,-0.02392578125,-2.197265386581421,-0.0610351525247097,0.7019042372703552,93.33334350585938,125853.0,1.0
15:36:34.816941,164418.09375,186926.125,179644.640625,195917.34375,188079.75,186208.71875,691027.8125,197986.9375,0.039794921875,1.01220703125,-0.026123046875,-2.197265386581421,-0.03051757626235485,0.7324218153953552,93.33334350585938,125854.0,1.0
15:36:34.818818,164333.703125,186920.578125,179634.8125,195886.671875,188076.171875,186212.75,691498.0,197986.671875,0.039306640625,1.012939453125,-0.028076171875,-2.136230230331421,-0.03051757626235485,0.8544921278953552,93.33334350585938,125855.0,1.0
15:36:34.821332,164230.703125,186899.75,179623.1875,195895.796875,188061.421875,186208.28125,690818.5,197990.6875,0.03759765625,1.013427734375,-0.025634765625,-2.136230230331421,-0.1220703050494194,0.7934569716453552,93.33334350585938,125856.0,1.0
15:36:34.824419,164298.5625,186908.25,179635.53125,195899.90625,188068.125,186209.625,690454.6875,197989.609375,0.040283203125,1.014404296875,-0.0244140625,-2.105712652206421,-0.2746581733226776,0.7324218153953552,93.33334350585938,125857.0,1.0
15:36:34.824430,164414.515625,186921.921875,179644.828125,195923.78125,188078.859375,186206.3125,690906.3125,197988.0,0.040283203125,1.013916015625,-0.0224609375,-2.075195074081421,-0.3051757514476776,0.7934569716453552,93.33334350585938,125858.0,1.0
15:36:34.826787,164347.203125,186914.859375,179628.734375,195878.09375,188068.84375,186204.796875,691503.625,197975.21875,0.039794921875,1.0146484375,-0.026611328125,-2.075195074081421,-0.3662109076976776,0.6713866591453552,93.33334350585938,125859.0,1.0
15:36:34.826807,164223.375,186888.84375,179608.703125,195882.828125,188046.671875,186198.4375,690958.8125,197974.234375,0.04052734375,1.013916015625,-0.024169921875,-2.075195074081421,-0.4272460639476776,0.7934569716453552,93.33334350585938,125860.0,1.0
15:36:34.828761,164263.25,186896.359375,179619.34375,195883.1875,188050.421875,186203.1875,690455.1875,197975.9375,0.03955078125,1.012939453125,-0.02587890625,-1.9836424589157104,-0.4882812201976776,0.7019042372703552,93.33334350585938,125861.0,1.0
15:36:34.840013,164396.734375,186913.34375,179635.609375,195917.875,188065.53125,186202.828125,690784.375,197981.84375,0.040283203125,1.01220703125,-0.02197265625,-1.8920897245407104,-0.5493163466453552,0.6713866591453552,93.33334350585938,125862.0,1.0
15:36:34.843124,164362.671875,186914.421875,179626.765625,195878.53125,188064.640625,186204.25,691468.3125,197975.484375,0.04150390625,1.0126953125,-0.024658203125,-1.9836424589157104,-0.5798339247703552,0.6408690810203552,93.33334350585938,125863.0,1.0
15:36:34.843168,164235.078125,186893.5,179611.65625,195883.28125,188050.0625,186202.015625,691098.8125,197980.5,0.04296875,1.01220703125,-0.025390625,-1.8920897245407104,-0.7019042372703552,0.6713866591453552,93.33334350585938,125864.0,1.0
15:36:34.850048,164243.84375,186895.546875,179618.625,195882.203125,188051.3125,186203.890625,690475.0,197981.21875,0.04248046875,1.011962890625,-0.02392578125,-1.8920897245407104,-0.6713866591453552,0.6713866591453552,93.33334350585938,125865.0,1.0
15:36:34.856914,164383.671875,186916.5625,179639.8125,195920.46875,188069.46875,186206.40625,690667.3125,197988.546875,0.0439453125,1.011962890625,-0.021728515625,-1.8920897245407104,-0.6713866591453552,0.6408690810203552,93.33334350585938,125866.0,1.0
15:36:34.856970,164387.515625,186923.09375,179638.03125,195892.75,188075.28125,186208.375,691387.875,197983.984375,0.04296875,1.01171875,-0.024658203125,-1.8920897245407104,-0.6408690810203552,0.6713866591453552,93.33334350585938,125867.0,1.0
15:36:34.866855,164257.875,186897.78125,179618.890625,195887.484375,188058.28125,186202.921875,691232.4375,197984.078125,0.04443359375,1.010009765625,-0.02392578125,-1.8615721464157104,-0.6713866591453552,0.6408690810203552,93.33334350585938,125868.0,1.0
15:36:34.866923,164230.609375,186889.296875,179619.15625,195886.765625,188051.3125,186200.5,690518.0,197983.09375,0.045166015625,1.008544921875,-0.026611328125,-1.7089842557907104,-0.7629393935203552,0.5798339247703552,93.33334350585938,125869.0,1.0
15:36:34.868847,164362.75,186906.015625,179637.671875,195916.71875,188064.453125,186198.890625,690588.1875,197987.015625,0.0458984375,1.008544921875,-0.022705078125,-1.7089842557907104,-0.6408690810203552,0.6713866591453552,93.33334350585938,125870.0,1.0
15:36:34.872525,164396.015625,186913.15625,179634.1875,195895.34375,188068.5625,186197.1875,691283.25,197978.984375,0.0458984375,1.007080078125,-0.023681640625,-1.6784666776657104,-0.5493163466453552,0.6408690810203552,93.33334350585938,125871.0,1.0
15:36:34.879472,164274.15625,186895.90625,179616.65625,195877.828125,188054.890625,186196.828125,691357.25,197975.578125,0.04736328125,1.010009765625,-0.0224609375,-1.5563963651657104,-0.5493163466453552,0.7629393935203552,93.33334350585938,125872.0,1.0
15:36:34.879549,164221.9375,186889.203125,179616.21875,195883.546875,188048.90625,186199.703125,690606.0,197978.625,0.04736328125,1.010498046875,-0.02197265625,-1.5258787870407104,-0.4272460639476776,0.5798339247703552,93.33334350585938,125873.0,1.0
15:36:34.885383,164342.734375,186908.6875,179637.84375,195906.609375,188065.890625,186202.734375,690531.5,197983.359375,0.04638671875,1.009521484375,-0.0244140625,-1.3427733182907104,-0.3967284858226776,0.7324218153953552,93.33334350585938,125874.0,1.0
15:36:34.892314,164411.484375,186921.65625,179642.59375,195905.984375,188077.0625,186203.09375,691170.75,197981.75,0.046630859375,1.010009765625,-0.02490234375,-1.3122557401657104,-0.4577636420726776,0.6408690810203552,93.33334350585938,125875.0,1.0
15:36:34.892408,164300.4375,186905.125,179624.078125,195877.203125,188064.09375,186201.484375,691457.625,197979.15625,0.0458984375,1.013427734375,-0.0263671875,-1.3427733182907104,-0.4272460639476776,0.7934569716453552,93.33334350585938,125876.0,1.0
15:36:34.897674,164219.703125,186888.75,179618.8125,195886.40625,188052.203125,186199.421875,690715.3125,197984.515625,0.045654296875,1.01416015625,-0.026123046875,-1.4038084745407104,-0.3356933295726776,0.6408690810203552,93.33334350585938,125877.0,1.0
15:36:34.910607,164313.046875,186899.578125,179633.734375,195899.015625,188060.34375,186197.546875,690484.0625,197985.234375,0.04296875,1.014404296875,-0.0224609375,-1.3732908964157104,-0.3051757514476776,0.6408690810203552,93.33334350585938,125878.0,1.0
15:36:34.910682,164411.65625,186915.578125,179644.90625,195916.0,188075.09375,186197.546875,691035.75,197987.203125,0.04345703125,1.013427734375,-0.023681640625,-1.2512205839157104,-0.2746581733226776,0.5798339247703552,93.33334350585938,125879.0,1.0
15:36:34.913087,164323.6875,186908.15625,179630.609375,195879.34375,188067.859375,186197.453125,691505.0,197980.859375,0.046142578125,1.01171875,-0.0234375,-1.2817381620407104,-0.2136230319738388,0.5493163466453552,93.33334350585938,125880.0,1.0
15:36:34.913110,164219.078125,186887.0625,179616.21875,195885.515625,188050.234375,186193.703125,690826.125,197980.5,0.047119140625,1.0107421875,-0.02490234375,-1.3122557401657104,-0.2441406100988388,0.6103515028953552,93.33334350585938,125881.0,1.0
15:36:34.915206,164287.921875,186897.875,179628.546875,195886.40625,188055.34375,186195.9375,690447.125,197977.8125,0.048583984375,1.01220703125,-0.02294921875,-1.2817381620407104,-0.1525878757238388,0.4882812201976776,93.33334350585938,125882.0,1.0
15:36:34.922550,164406.296875,186915.75,179640.359375,195910.90625,188070.171875,186197.28125,690887.0,197978.625,0.046875,1.013427734375,-0.024169921875,-1.3732908964157104,-0.1525878757238388,0.4272460639476776,93.33334350585938,125883.0,1.0
15:36:34.929590,164340.671875,186911.015625,179626.765625,195868.078125,188065.171875,186199.875,691501.125,197969.859375,0.04736328125,1.014404296875,-0.024169921875,-1.3732908964157104,-0.1525878757238388,0.5798339247703552,93.33334350585938,125884.0,1.0
15:36:34.929670,164220.421875,186887.0625,179609.78125,195875.3125,188046.578125,186195.859375,690952.875,197972.546875,0.048095703125,1.015625,-0.024169921875,-1.3122557401657104,-0.0610351525247097,0.5493163466453552,93.33334350585938,125885.0,1.0
15:36:34.935582,164261.546875,186895.109375,179621.578125,195876.75,188053.546875,186200.859375,690448.25,197977.71875,0.046142578125,1.014404296875,-0.025146484375,-1.3732908964157104,0.0,0.5798339247703552,93.33334350585938,125886.0,1.0
15:36:34.935621,164397.890625,186915.046875,179640.359375,195916.71875,188073.75,186202.828125,690782.5625,197988.0,0.04833984375,1.012939453125,-0.0263671875,-1.4648436307907104,0.1220703050494194,0.6408690810203552,93.33334350585938,125887.0,1.0
15:36:34.941379,164367.5,186916.109375,179632.84375,195880.859375,188074.109375,186203.359375,691468.75,197982.015625,0.047607421875,1.0146484375,-0.025146484375,-1.5258787870407104,0.1525878757238388,0.5798339247703552,93.33334350585938,125888.0,1.0
15:36:34.951816,164242.234375,186894.828125,179618.625,195886.5,188058.46875,186201.125,691102.625,197985.859375,0.046630859375,1.012451171875,-0.02392578125,-1.5869139432907104,0.2441406100988388,0.5798339247703552,93.33334350585938,125889.0,1.0
15:36:34.951844,164248.578125,186895.109375,179624.796875,195883.1875,188058.828125,186202.46875,690474.3125,197985.328125,0.04736328125,1.012939453125,-0.022705078125,-1.5258787870407104,0.2136230319738388,0.6408690810203552,93.33334350585938,125890.0,1.0
15:36:34.954309,164386.1875,186914.0625,179644.015625,195920.015625,188075.71875,186203.453125,690660.8125,197990.234375,0.047607421875,1.01416015625,-0.021484375,-1.5563963651657104,0.3356933295726776,0.6713866591453552,93.33334350585938,125891.0,1.0
15:36:34.954334,164384.75,186916.03125,179635.25,195887.03125,188074.828125,186199.78125,691383.5,197979.515625,0.048095703125,1.0107421875,-0.02392578125,-1.6784666776657104,0.4272460639476776,0.7019042372703552,93.33334350585938,125892.0,1.0
15:36:34.965097,164252.421875,186890.453125,179615.765625,195879.796875,188055.78125,186192.90625,691232.75,197977.375,0.046875,1.0107421875,-0.024169921875,-1.7700194120407104,0.4272460639476776,0.6103515028953552,93.33334350585938,125893.0,1.0
15:36:34.969332,164227.125,186885.265625,179618.0,195879.609375,188052.03125,186193.703125,690517.5,197977.640625,0.046142578125,1.01171875,-0.023193359375,-1.6784666776657104,0.5187987685203552,0.6408690810203552,93.33334350585938,125894.0,1.0
15:36:34.969348,164360.78125,186906.28125,179638.5625,195911.890625,188068.390625,186196.203125,690586.3125,197983.09375,0.045654296875,1.0126953125,-0.02490234375,-1.6784666776657104,0.6103515028953552,0.7019042372703552,93.33334350585938,125895.0,1.0
15:36:34.971382,164400.578125,186920.140625,179641.421875,195898.828125,188078.140625,186201.03125,691287.25,197981.296875,0.047119140625,1.011962890625,-0.025390625,-1.7395018339157104,0.6408690810203552,0.6408690810203552,93.33334350585938,125896.0,1.0
15:36:34.980123,164279.34375,186903.515625,179626.3125,195885.25,188066.875,186201.3125,691362.8125,197983.625,0.04638671875,1.011962890625,-0.0224609375,-1.6784666776657104,0.6713866591453552,0.6408690810203552,93.33334350585938,125897.0,1.0
15:36:34.986979,164225.609375,186896.359375,179625.875,195889.453125,188061.421875,186203.265625,690604.1875,197988.453125,0.04736328125,1.012939453125,-0.02392578125,-1.7700194120407104,0.7019042372703552,0.6408690810203552,93.33334350585938,125898.0,1.0
15:36:34.987006,164344.78125,186914.234375,179645.53125,195912.515625,188073.484375,186205.328125,690522.9375,197993.28125,0.04638671875,1.0126953125,-0.02392578125,-1.7395018339157104,0.7019042372703552,0.6408690810203552,93.33334350585938,125899.0,1.0
15:36:34.993199,164410.859375,186922.8125,179645.625,195908.671875,188078.5,186202.5625,691160.5625,197988.71875,0.045654296875,1.013671875,-0.023193359375,-1.8310545682907104,0.6408690810203552,0.6408690810203552,93.33334350585938,125900.0,1.0
15:36:34.993229,164295.796875,186903.15625,179622.296875,195875.859375,188061.0625,186196.5625,691447.3125,197979.953125,0.046875,1.0126953125,-0.0263671875,-1.7700194120407104,0.7629393935203552,0.4882812201976776,93.33334350585938,125901.0,1.0
15:36:34.999424,164213.453125,186886.34375,179614.421875,195882.296875,188048.0,186194.59375,690700.0625,197981.921875,0.04638671875,1.012451171875,-0.0263671875,-1.8005369901657104,0.7324218153953552,0.5187987685203552,93.33334350585938,125902.0,1.0
15:36:34.999450,164309.296875,186900.375,179630.96875,195894.90625,188058.734375,186196.921875,690470.625,197983.171875,0.045166015625,1.0126953125,-0.0263671875,-1.9226073026657104,0.7324218153953552,0.6103515028953552,93.33334350585938,125903.0,1.0
15:36:35.001405,164403.53125,186910.75,179634.359375,195904.828125,188066.421875,186192.71875,691014.9375,197979.609375,0.04541015625,1.013427734375,-0.023193359375,-1.7395018339157104,0.6713866591453552,0.6408690810203552,93.33334350585938,125904.0,1.0
15:36:35.019188,164310.625,186897.34375,179613.625,195863.515625,188053.8125,186189.234375,691495.4375,197967.796875,0.044189453125,1.01220703125,-0.022216796875,-1.8005369901657104,0.7324218153953552,0.6103515028953552,93.33334350585938,125905.0,1.0
15:36:35.022056,164206.296875,186875.875,179600.65625,195872.28125,188035.765625,186185.484375,690824.9375,197968.15625,0.04541015625,1.011474609375,-0.023681640625,-1.8005369901657104,0.7019042372703552,0.6408690810203552,93.33334350585938,125906.0,1.0
15:36:35.022128,164273.890625,186883.125,179611.5625,195873.625,188039.25,186185.03125,690452.375,197964.671875,0.0439453125,1.011962890625,-0.02587890625,-1.7395018339157104,0.6408690810203552,0.4882812201976776,93.33334350585938,125907.0,1.0
15:36:35.024425,164392.96875,186901.09375,179623.28125,195897.140625,188052.921875,186184.9375,690900.75,197966.1875,0.04345703125,1.010986328125,-0.02783203125,-1.7395018339157104,0.6408690810203552,0.5798339247703552,93.33334350585938,125908.0,1.0
15:36:35.024475,164329.859375,186898.765625,179611.65625,195856.1875,188049.796875,186187.71875,691508.8125,197960.296875,0.0439453125,1.0126953125,-0.0244140625,-1.7089842557907104,0.6103515028953552,0.5798339247703552,93.33334350585938,125909.0,1.0
15:36:35.026565,164213.359375,186879.015625,179600.5625,195868.25,188035.578125,186186.28125,690961.9375,197966.375,0.0439453125,1.010986328125,-0.025390625,-1.7089842557907104,0.6713866591453552,0.6103515028953552,93.33334350585938,125910.0,1.0
15:36:35.030415,164254.65625,186888.9375,179615.140625,195870.671875,188044.609375,186192.359375,690448.5625,197970.75,0.044677734375,1.01171875,-0.026611328125,-1.6784666776657104,0.6713866591453552,0.6713866591453552,93.33334350585938,125911.0,1.0
15:36:35.040676,164392.4375,186909.859375,179634.625,195909.734375,188064.375,186194.59375,690767.9375,197980.9375,0.0439453125,1.012451171875,-0.0283203125,-1.7089842557907104,0.6408690810203552,0.6713866591453552,93.33334350585938,125912.0,1.0
15:36:35.040717,164363.296875,186911.90625,179627.203125,195874.25,188065.984375,186195.859375,691463.6875,197977.453125,0.044189453125,1.0126953125,-0.028076171875,-1.7700194120407104,0.5493163466453552,0.7629393935203552,93.33334350585938,125913.0,1.0
15:36:35.042530,164243.390625,186895.1875,179617.828125,195886.5,188055.515625,186199.25,691109.625,197988.625,0.04150390625,1.01416015625,-0.02880859375,-1.7395018339157104,0.4882812201976776,0.7629393935203552,93.33334350585938,125914.0,1.0
15:36:35.074933,164276.5625,186922.546875,179649.828125,195915.1875,188080.46875,186227.140625,690507.375,198016.796875,0.041259765625,1.015380859375,-0.02734375,-1.8005369901657104,0.3662109076976776,0.6408690810203552,93.33334350585938,125915.0,1.0
15:36:35.074959,164394.9375,186922.015625,179650.09375,195932.984375,188077.25,186207.46875,690672.875,198002.671875,0.0390625,1.01416015625,-0.02734375,-1.7395018339157104,0.3356933295726776,0.6103515028953552,93.33334350585938,125916.0,1.0
15:36:35.074966,164382.78125,186914.6875,179630.421875,195888.546875,188065.0,186195.140625,691384.0,197981.125,0.03955078125,1.012939453125,-0.024658203125,-1.7089842557907104,0.3051757514476776,0.5187987685203552,93.33334350585938,125917.0,1.0
15:36:35.077504,164237.234375,186877.21875,179595.296875,195863.703125,188030.578125,186175.46875,691228.0,197960.734375,0.041748046875,1.0146484375,-0.025146484375,-1.8005369901657104,0.2441406100988388,0.6103515028953552,93.33334350585938,125918.0,1.0
15:36:35.079965,164205.40625,186866.40625,179591.171875,195854.125,188019.390625,186170.375,690511.125,197952.6875,0.04052734375,1.012451171875,-0.02783203125,-1.7700194120407104,0.0610351525247097,0.5493163466453552,93.33334350585938,125919.0,1.0
15:36:35.082487,164333.875,186881.515625,179606.640625,195878.0,188031.203125,186168.671875,690573.375,197952.25,0.039794921875,1.0126953125,-0.026611328125,-1.7700194120407104,-0.0610351525247097,0.4577636420726776,93.33334350585938,125920.0,1.0
15:36:35.085007,164377.421875,186897.703125,179613.703125,195867.359375,188045.328125,186176.453125,691276.5625,197955.8125,0.040283203125,1.013671875,-0.022216796875,-1.8310545682907104,-0.1525878757238388,0.4577636420726776,93.33334350585938,125921.0,1.0
15:36:35.087448,164256.71875,186879.640625,179597.796875,195851.625,188034.421875,186176.546875,691358.1875,197957.15625,0.04052734375,1.01220703125,-0.021484375,-1.8005369901657104,-0.1525878757238388,0.3967284858226776,93.33334350585938,125922.0,1.0
15:36:35.089998,164202.453125,186869.53125,179595.03125,195856.1875,188027.984375,186176.265625,690601.6875,197961.71875,0.0419921875,1.01220703125,-0.02392578125,-1.7395018339157104,-0.3356933295726776,0.3662109076976776,93.33334350585938,125923.0,1.0
15:36:35.092470,164326.1875,186892.875,179620.6875,195886.9375,188049.171875,186185.03125,690520.4375,197972.546875,0.041748046875,1.012939453125,-0.0283203125,-1.7700194120407104,-0.3967284858226776,0.4272460639476776,93.33334350585938,125924.0,1.0
15:36:35.094988,164398.609375,186908.328125,179629.265625,195891.765625,188061.859375,186186.828125,691158.375,197974.5,0.04248046875,1.014892578125,-0.02685546875,-1.8310545682907104,-0.4272460639476776,0.3967284858226776,93.33334350585938,125925.0,1.0
15:36:35.097473,164290.875,186894.390625,179613.703125,195866.640625,188050.234375,186185.921875,691450.0,197972.8125,0.04296875,1.01416015625,-0.025146484375,-1.7700194120407104,-0.4577636420726776,0.2746581733226776,93.33334350585938,125926.0,1.0
15:36:35.100084,164210.3125,186879.1875,179606.921875,195878.09375,188040.140625,186185.03125,690699.125,197979.0625,0.042236328125,1.013916015625,-0.0224609375,-1.8615721464157104,-0.4272460639476776,0.4272460639476776,93.33334350585938,125927.0,1.0
15:36:35.104493,164304.46875,186891.96875,179621.671875,195890.609375,188050.0625,186186.28125,690472.9375,197980.5,0.043212890625,1.01318359375,-0.02490234375,-1.7700194120407104,-0.4272460639476776,0.4882812201976776,93.33334350585938,125928.0,1.0
15:36:35.104513,164401.203125,186907.0,179629.71875,195904.109375,188062.765625,186186.28125,691023.375,197981.125,0.043701171875,1.011474609375,-0.027099609375,-1.8615721464157104,-0.5187987685203552,0.4577636420726776,93.33334350585938,125929.0,1.0
15:36:35.150578,164313.140625,186898.046875,179614.515625,195865.484375,188055.609375,186187.359375,691493.6875,197975.125,0.044921875,1.01220703125,-0.024658203125,-1.8310545682907104,-0.5187987685203552,0.4272460639476776,93.33334350585938,125930.0,1.0
15:36:35.150605,164210.046875,186879.015625,179603.34375,195873.984375,188040.859375,186186.90625,690823.0,197978.171875,0.04541015625,1.01220703125,-0.02587890625,-1.8310545682907104,-0.4882812201976776,0.3662109076976776,93.33334350585938,125931.0,1.0
15:36:35.152465,164276.296875,186887.6875,179615.3125,195876.125,188047.015625,186189.859375,690450.875,197975.578125,0.0458984375,1.01171875,-0.026123046875,-1.8920897245407104,-0.4577636420726776,0.4882812201976776,93.33334350585938,125932.0,1.0
15:36:35.155288,164391.640625,186899.390625,179623.8125,195899.375,188058.375,186185.484375,690894.75,197974.328125,0.045654296875,1.01318359375,-0.026123046875,-1.9226073026657104,-0.4577636420726776,0.4272460639476776,93.33334350585938,125933.0,1.0
15:36:35.157492,164332.359375,186895.734375,179615.3125,195860.65625,188055.34375,186187.171875,691503.75,197969.140625,0.043701171875,1.013671875,-0.02587890625,-1.9836424589157104,-0.5798339247703552,0.4577636420726776,93.33334350585938,125934.0,1.0
15:36:35.160151,164211.484375,186870.78125,179599.3125,195870.40625,188038.171875,186182.625,690959.3125,197972.359375,0.04541015625,1.01171875,-0.027099609375,-2.044677495956421,-0.6103515028953552,0.4272460639476776,93.33334350585938,125935.0,1.0
15:36:35.162479,164246.53125,186875.25,179607.265625,195868.171875,188040.3125,186184.3125,690445.875,197971.5625,0.045654296875,1.009765625,-0.024169921875,-1.9531248807907104,-0.5187987685203552,0.2746581733226776,93.33334350585938,125936.0,1.0
15:36:35.165166,164380.734375,186895.28125,179623.71875,195901.0625,188057.578125,186185.390625,690764.0,197977.015625,0.047119140625,1.011962890625,-0.023681640625,-1.9836424589157104,-0.5187987685203552,0.3967284858226776,93.33334350585938,125937.0,1.0
15:36:35.167603,164346.484375,186893.578125,179610.84375,195856.453125,188052.03125,186182.796875,691461.4375,197963.234375,0.044921875,1.012451171875,-0.02392578125,-1.9836424589157104,-0.5798339247703552,0.3356933295726776,93.33334350585938,125938.0,1.0
15:36:35.170094,164216.84375,186870.15625,179590.828125,195855.921875,188032.359375,186178.5,691105.0,197961.453125,0.043701171875,1.011474609375,-0.024169921875,-1.9531248807907104,-0.5798339247703552,0.3662109076976776,93.33334350585938,125939.0,1.0
15:36:35.172472,164223.734375,186873.375,179598.78125,195853.5,188033.609375,186183.875,690477.6875,197961.625,0.04345703125,1.011474609375,-0.02490234375,-1.9226073026657104,-0.5493163466453552,0.3967284858226776,93.33334350585938,125940.0,1.0
15:36:35.175042,164360.078125,186892.328125,179617.734375,195885.953125,188050.0625,186184.765625,690676.0,197966.640625,0.04345703125,1.0126953125,-0.024658203125,-1.8615721464157104,-0.4577636420726776,0.4272460639476776,93.33334350585938,125941.0,1.0
15:36:35.177477,164364.546875,186900.109375,179613.796875,195855.734375,188056.140625,186187.0,691386.3125,197961.453125,0.043212890625,1.013427734375,-0.02392578125,-1.8615721464157104,-0.4272460639476776,0.3662109076976776,93.33334350585938,125942.0,1.0
15:36:35.180140,164234.640625,186876.78125,179594.3125,195848.3125,188038.34375,186182.34375,691239.375,197960.828125,0.04443359375,1.012451171875,-0.021728515625,-1.8920897245407104,-0.3967284858226776,0.3662109076976776,93.33334350585938,125943.0,1.0
15:36:35.183268,164205.125,186866.046875,179592.515625,195844.5625,188029.953125,186179.578125,690516.5,197957.78125,0.04736328125,1.010986328125,-0.02392578125,-1.8920897245407104,-0.3967284858226776,0.3051757514476776,93.33334350585938,125944.0,1.0
15:36:35.183308,164339.953125,186886.78125,179614.25,195877.203125,188047.828125,186183.328125,690574.4375,197964.40625,0.045166015625,1.011474609375,-0.02587890625,-1.8615721464157104,-0.3967284858226776,0.1831054538488388,93.33334350585938,125945.0,1.0
15:36:35.185149,164381.53125,186899.3125,179618.453125,195863.078125,188057.84375,186185.296875,691269.5,197962.4375,0.04443359375,1.01220703125,-0.0263671875,-1.8615721464157104,-0.3662109076976776,0.3662109076976776,93.33334350585938,125946.0,1.0
15:36:35.188889,164260.5625,186883.296875,179603.875,195848.59375,188046.484375,186184.140625,691350.75,197964.3125,0.048095703125,1.011962890625,-0.02392578125,-1.8310545682907104,-0.3356933295726776,0.3662109076976776,93.33334350585938,125947.0,1.0
15:36:35.188908,164207.359375,186874.453125,179604.953125,195857.171875,188041.390625,186185.296875,690593.5625,197969.765625,0.04541015625,1.010498046875,-0.025634765625,-1.9226073026657104,-0.3356933295726776,0.3662109076976776,93.33334350585938,125948.0,1.0
15:36:35.188912,164324.671875,186890.28125,179623.71875,195879.4375,188055.609375,186186.015625,690505.125,197974.328125,0.044921875,1.0087890625,-0.02490234375,-1.8005369901657104,-0.3356933295726776,0.3662109076976776,93.33334350585938,125949.0,1.0
15:36:35.193841,164399.234375,186906.640625,179631.6875,195883.640625,188069.203125,186190.125,691143.625,197976.734375,0.044921875,1.0107421875,-0.02734375,-1.8005369901657104,-0.3051757514476776,0.4882812201976776,93.33334350585938,125950.0,1.0
15:36:35.193869,164289.890625,186893.140625,179613.796875,195854.046875,188056.40625,186188.78125,691440.0,197972.984375,0.044677734375,1.01318359375,-0.027099609375,-1.8005369901657104,-0.2136230319738388,0.4272460639476776,93.33334350585938,125951.0,1.0
15:36:35.193879,164200.578125,186871.328125,179600.5625,195857.171875,188038.625,186181.375,690687.0625,197970.390625,0.0439453125,1.01318359375,-0.0244140625,-1.8310545682907104,-0.1220703050494194,0.3967284858226776,93.33334350585938,125952.0,1.0
15:36:35.197509,164299.015625,186887.0625,179619.796875,195873.4375,188051.3125,186186.375,690461.25,197974.78125,0.044921875,1.01171875,-0.022216796875,-1.7700194120407104,-0.1525878757238388,0.3967284858226776,93.33334350585938,125953.0,1.0
15:36:35.207558,164404.953125,186908.515625,179634.8125,195893.109375,188068.5625,186191.296875,691014.375,197978.890625,0.043701171875,1.011962890625,-0.02392578125,-1.8310545682907104,-0.1525878757238388,0.3967284858226776,93.33334350585938,125954.0,1.0
15:36:35.210768,164318.40625,186901.625,179623.1875,195860.125,188062.3125,186192.71875,691488.0625,197972.8125,0.044189453125,1.01318359375,-0.022216796875,-1.8005369901657104,-0.2441406100988388,0.4882812201976776,93.33334350585938,125955.0,1.0
15:36:35.210801,164218.09375,186882.59375,179614.15625,195871.75,188047.828125,186190.390625,690818.875,197976.390625,0.04443359375,1.012451171875,-0.02392578125,-1.8310545682907104,-0.2136230319738388,0.5187987685203552,93.33334350585938,125956.0,1.0
15:36:35.216876,164287.921875,186894.203125,179629.265625,195875.859375,188055.34375,186191.828125,690443.5625,197976.828125,0.044921875,1.012939453125,-0.026123046875,-1.8005369901657104,-0.1831054538488388,0.5798339247703552,93.33334350585938,125957.0,1.0
15:36:35.223153,164408.078125,186912.0,179642.671875,195902.234375,188069.90625,186191.203125,690888.0625,197980.234375,0.04541015625,1.013671875,-0.025634765625,-1.9226073026657104,-0.1831054538488388,0.5798339247703552,93.33334350585938,125958.0,1.0
15:36:35.223181,164345.234375,186909.765625,179630.421875,195861.015625,188065.265625,186193.890625,691497.8125,197973.875,0.046630859375,1.013916015625,-0.025390625,-1.9531248807907104,-0.2746581733226776,0.7324218153953552,93.33334350585938,125959.0,1.0
15:36:35.228819,164223.546875,186885.890625,179612.1875,195867.71875,188045.59375,186189.0625,690952.0,197974.0625,0.045654296875,1.0126953125,-0.023681640625,-1.9836424589157104,-0.1525878757238388,0.7324218153953552,93.33334350585938,125960.0,1.0
15:36:35.239429,164264.859375,186897.15625,179623.546875,195869.0625,188050.421875,186194.15625,690443.25,197973.34375,0.04638671875,1.011474609375,-0.02587890625,-2.044677495956421,-0.0610351525247097,0.8544921278953552,93.33334350585938,125961.0,1.0
15:36:35.239436,164402.984375,186920.671875,179645.53125,195910.71875,188070.71875,186196.484375,690776.125,197983.171875,0.049072265625,1.01220703125,-0.0234375,-2.136230230331421,0.0,0.8544921278953552,93.33334350585938,125962.0,1.0
15:36:35.241916,164375.09375,186923.53125,179640.359375,195876.921875,188072.421875,186198.0,691459.75,197978.703125,0.04638671875,1.010009765625,-0.02294921875,-2.075195074081421,0.1220703050494194,0.7629393935203552,93.33334350585938,125963.0,1.0
15:36:35.241933,164246.96875,186898.953125,179623.71875,195880.6875,188053.734375,186191.921875,691102.5625,197980.671875,0.04931640625,1.011962890625,-0.022705078125,-2.166747808456421,0.2441406100988388,0.8544921278953552,93.33334350585938,125964.0,1.0
15:36:35.252548,164252.96875,186900.015625,179631.5,195880.6875,188053.375,186193.265625,690471.25,197980.765625,0.047119140625,1.014404296875,-0.025390625,-2.105712652206421,0.1220703050494194,0.7934569716453552,93.33334350585938,125965.0,1.0
15:36:35.255601,164392.703125,186920.234375,179651.703125,195919.3125,188073.75,186196.203125,690668.875,197988.71875,0.044921875,1.01171875,-0.029541015625,-2.075195074081421,0.2136230319738388,0.8544921278953552,93.33334350585938,125966.0,1.0
15:36:35.255652,164393.421875,186921.296875,179643.390625,195888.1875,188075.09375,186194.15625,691380.0,197981.296875,0.04541015625,1.012451171875,-0.02783203125,-2.075195074081421,0.1831054538488388,0.8239745497703552,93.33334350585938,125967.0,1.0
15:36:35.262451,164261.375,186895.375,179621.671875,195880.0625,188055.703125,186187.625,691236.875,197980.671875,0.045166015625,1.012939453125,-0.027099609375,-1.9836424589157104,0.1525878757238388,0.9460448622703552,93.33334350585938,125968.0,1.0
15:36:35.267282,164228.46875,186884.109375,179617.015625,195872.734375,188045.5,186183.953125,690517.125,197977.28125,0.046142578125,1.01220703125,-0.025146484375,-1.9531248807907104,0.1220703050494194,0.8544921278953552,93.33334350585938,125969.0,1.0
15:36:35.267294,164355.15625,186897.609375,179630.703125,195897.40625,188054.71875,186181.09375,690571.5625,197978.4375,0.0458984375,1.01318359375,-0.024169921875,-2.014159917831421,0.1525878757238388,0.8850097060203552,93.33334350585938,125970.0,1.0
15:36:35.273782,164389.84375,186904.578125,179626.9375,195878.984375,188059.265625,186179.3125,691267.1875,197972.71875,0.04443359375,1.01171875,-0.0263671875,-1.9836424589157104,0.1525878757238388,0.7629393935203552,93.33334350585938,125971.0,1.0
15:36:35.284406,164266.90625,186886.875,179609.328125,195861.90625,188046.84375,186179.3125,691354.75,197971.109375,0.044189453125,1.014404296875,-0.0263671875,-1.9836424589157104,0.2746581733226776,0.6408690810203552,93.33334350585938,125972.0,1.0
15:36:35.284432,164210.765625,186878.109375,179607.09375,195865.125,188040.140625,186182.984375,690597.0625,197972.71875,0.043212890625,1.012939453125,-0.024169921875,-1.8920897245407104,0.3356933295726776,0.6713866591453552,93.33334350585938,125973.0,1.0
15:36:35.286914,164327.34375,186895.1875,179624.625,195885.15625,188055.25,186187.53125,690504.0625,197975.578125,0.0439453125,1.013671875,-0.022705078125,-1.9226073026657104,0.3051757514476776,0.3356933295726776,93.33334350585938,125974.0,1.0
15:36:35.286925,164400.125,186909.9375,179631.046875,195886.578125,188068.21875,186190.046875,691137.8125,197976.46875,0.04248046875,1.014404296875,-0.02197265625,-1.9531248807907104,0.4577636420726776,0.2441406100988388,93.33334350585938,125975.0,1.0
15:36:35.288804,164295.609375,186901.546875,179619.515625,195861.46875,188061.15625,186194.6875,691437.1875,197976.03125,0.042236328125,1.01416015625,-0.023193359375,-1.9836424589157104,0.3356933295726776,0.1831054538488388,93.33334350585938,125976.0,1.0
15:36:35.300199,164212.828125,186884.828125,179612.546875,195868.34375,188049.4375,186193.96875,690689.4375,197977.09375,0.039306640625,1.015625,-0.021728515625,-2.014159917831421,0.1220703050494194,-0.03051757626235485,93.33334350585938,125977.0,1.0
15:36:35.304540,164305.984375,186896.625,179627.65625,195878.71875,188058.640625,186193.265625,690458.3125,197976.03125,0.03955078125,1.016357421875,-0.020751953125,-2.014159917831421,0.03051757626235485,-0.0610351525247097,93.33334350585938,125978.0,1.0
15:36:35.304564,164408.359375,186913.4375,179639.015625,195896.328125,188071.078125,186193.4375,691007.875,197978.4375,0.039794921875,1.015869140625,-0.0234375,-2.075195074081421,0.0610351525247097,-0.1831054538488388,93.33334350585938,125979.0,1.0
15:36:35.310661,164318.671875,186900.828125,179620.140625,195858.515625,188057.21875,186189.6875,691480.75,197969.671875,0.042236328125,1.0146484375,-0.021240234375,-2.166747808456421,-0.0915527269244194,-0.1525878757238388,93.33334350585938,125980.0,1.0
15:36:35.310686,164210.046875,186875.875,179602.890625,195866.203125,188036.5625,186181.453125,690810.3125,197968.609375,0.0419921875,1.01416015625,-0.019287109375,-2.288818120956421,-0.1525878757238388,-0.2441406100988388,93.33334350585938,125981.0,1.0
15:36:35.312627,164275.140625,186884.640625,179614.609375,195869.59375,188041.125,186181.375,690432.125,197967.0,0.044189453125,1.014404296875,-0.02001953125,-2.349853277206421,-0.1831054538488388,-0.1831054538488388,93.33334350585938,125982.0,1.0
15:36:35.324044,164396.734375,186902.796875,179628.546875,195896.15625,188055.609375,186181.640625,690873.75,197969.671875,0.04296875,1.01318359375,-0.024169921875,-2.288818120956421,-0.2136230319738388,-0.3051757514476776,93.33334350585938,125983.0,1.0
15:36:35.326923,164335.484375,186899.578125,179616.84375,195854.046875,188052.296875,186184.859375,691484.5,197962.34375,0.042236328125,1.0146484375,-0.01953125,-2.288818120956421,-0.1831054538488388,-0.2746581733226776,93.33334350585938,125984.0,1.0
15:36:35.326943,164213.890625,186875.875,179600.5625,195858.25,188033.703125,186181.28125,690950.9375,197962.96875,0.043212890625,1.0146484375,-0.020263671875,-2.288818120956421,-0.1831054538488388,-0.1220703050494194,93.33334350585938,125985.0,1.0
15:36:35.332532,164251.625,186881.15625,179610.046875,195855.203125,188036.5625,186182.34375,690433.625,197962.53125,0.0419921875,1.014404296875,-0.025146484375,-2.258300542831421,-0.1831054538488388,-0.03051757626235485,93.33334350585938,125986.0,1.0
15:36:35.339410,164384.21875,186897.34375,179625.328125,195888.1875,188049.890625,186179.125,690749.25,197967.078125,0.0419921875,1.014892578125,-0.021484375,-2.288818120956421,-0.3051757514476776,0.03051757626235485,93.33334350585938,125987.0,1.0
15:36:35.339441,164353.8125,186896.796875,179614.78125,195849.390625,188046.21875,186176.625,691438.5625,197958.40625,0.041259765625,1.011962890625,-0.019775390625,-2.349853277206421,-0.1831054538488388,0.1525878757238388,93.33334350585938,125988.0,1.0
15:36:35.351017,164229.546875,186874.265625,179597.703125,195855.203125,188029.046875,186172.515625,691085.0625,197961.8125,0.0400390625,1.01171875,-0.017333984375,-2.349853277206421,-0.2136230319738388,0.2136230319738388,93.33334350585938,125989.0,1.0
15:36:35.351045,164238.484375,186878.296875,179607.09375,195858.421875,188030.484375,186176.984375,690461.125,197965.828125,0.041259765625,1.0126953125,-0.019287109375,-2.349853277206421,-0.2441406100988388,0.3051757514476776,93.33334350585938,125990.0,1.0
15:36:35.351905,164373.9375,186895.640625,179625.0625,195894.0,188044.609375,186175.734375,690657.5,197970.84375,0.038818359375,1.012939453125,-0.01904296875,-2.380370855331421,-0.2441406100988388,0.4272460639476776,93.33334350585938,125991.0,1.0
15:36:35.351979,164372.59375,186896.171875,179615.9375,195860.125,188043.53125,186172.609375,691368.0,197962.078125,0.037109375,1.01318359375,-0.01953125,-2.288818120956421,-0.3051757514476776,0.5187987685203552,93.33334350585938,125992.0,1.0
15:36:35.356463,164241.78125,186872.125,179596.359375,195852.078125,188026.109375,186168.671875,691228.875,197961.453125,0.037109375,1.009765625,-0.021240234375,-2.319335699081421,-0.4577636420726776,0.5798339247703552,93.33334350585938,125993.0,1.0
15:36:35.365141,164215.234375,186867.484375,179598.875,195850.828125,188025.203125,186171.265625,690510.5,197961.546875,0.036376953125,1.012451171875,-0.021484375,-2.441406011581421,-0.4882812201976776,0.6103515028953552,93.33334350585938,125994.0,1.0
15:36:35.369416,164346.65625,186886.4375,179619.15625,195878.625,188043.890625,186175.015625,690562.5625,197965.65625,0.035888671875,1.013671875,-0.020751953125,-2.349853277206421,-0.5493163466453552,0.4882812201976776,93.33334350585938,125995.0,1.0
15:36:35.369442,164385.28125,186895.734375,179619.609375,195862.0,188050.78125,186176.8125,691257.3125,197959.84375,0.037353515625,1.01171875,-0.017578125,-2.380370855331421,-0.7324218153953552,0.6408690810203552,93.33334350585938,125996.0,1.0
15:36:35.376314,164262.53125,186876.0625,179600.484375,195845.90625,188036.46875,186173.671875,691347.875,197957.78125,0.0390625,1.01025390625,-0.01806640625,-2.410888433456421,-0.6713866591453552,0.6408690810203552,93.33334350585938,125997.0,1.0
15:36:35.383084,164206.5625,186866.21875,179598.875,195854.484375,188029.234375,186173.140625,690595.5625,197961.625,0.038330078125,1.010498046875,-0.0185546875,-2.441406011581421,-0.7934569716453552,0.6713866591453552,93.33334350585938,125998.0,1.0
15:36:35.383112,164324.40625,186882.765625,179619.15625,195878.984375,188043.625,186173.953125,690498.4375,197967.171875,0.038330078125,1.00830078125,-0.019775390625,-2.380370855331421,-0.8850097060203552,0.7019042372703552,93.33334350585938,125999.0,1.0
15:36:35.390004,164397.171875,186896.09375,179625.421875,195881.125,188055.421875,186173.859375,691128.75,197967.4375,0.0380859375,1.007568359375,-0.021484375,-2.380370855331421,-0.8850097060203552,0.8239745497703552,93.33334350585938,126000.0,1.0
15:36:35.400595,164288.90625,186881.78125,179607.625,195849.921875,188043.171875,186171.890625,691431.25,197962.34375,0.040771484375,1.009033203125,-0.022705078125,-2.380370855331421,-0.9155272841453552,0.7629393935203552,93.33334350585938,126001.0,1.0
15:36:35.400665,164205.046875,186865.6875,179597.890625,195855.03125,188029.40625,186169.828125,690696.125,197962.25,0.03857421875,1.00927734375,-0.020263671875,-2.288818120956421,-0.9765624403953552,0.7934569716453552,93.33334350585938,126002.0,1.0
15:36:35.403512,164297.3125,186878.203125,179612.28125,195864.859375,188036.921875,186171.078125,690463.8125,197960.296875,0.040283203125,1.009521484375,-0.02099609375,-2.288818120956421,-1.0070799589157104,0.7629393935203552,93.33334350585938,126003.0,1.0
15:36:35.403589,164396.90625,186894.5625,179622.734375,195881.125,188050.15625,186172.15625,691015.1875,197961.0,0.041748046875,1.0078125,-0.018798828125,-2.288818120956421,-1.0681151151657104,0.9155272841453552,93.33334350585938,126004.0,1.0
15:36:35.418309,164312.515625,186888.3125,179609.0625,195846.171875,188044.515625,186173.59375,691488.0,197958.765625,0.041259765625,1.0107421875,-0.018798828125,-2.319335699081421,-1.0681151151657104,0.8850097060203552,93.33334350585938,126005.0,1.0
15:36:35.418379,164207.8125,186868.015625,179596.546875,195857.890625,188029.234375,186169.75,690823.5,197964.140625,0.042724609375,1.010986328125,-0.017822265625,-2.227782964706421,-1.0375975370407104,0.8239745497703552,93.33334350585938,126006.0,1.0
15:36:35.420606,164269.5,186874.546875,179606.203125,195857.078125,188032.1875,186167.953125,690438.8125,197960.828125,0.042724609375,1.009521484375,-0.015869140625,-2.288818120956421,-1.1901854276657104,0.9460448622703552,93.33334350585938,126007.0,1.0
15:36:35.420655,164388.59375,186890.90625,179618.71875,195882.203125,188044.15625,186167.234375,690874.9375,197963.0625,0.041015625,1.01025390625,-0.01806640625,-2.227782964706421,-1.1596678495407104,0.9460448622703552,93.33334350585938,126008.0,1.0
15:36:35.422593,164331.015625,186890.90625,179608.96875,195842.5,188042.640625,186171.359375,691489.0625,197956.71875,0.041259765625,1.01025390625,-0.0205078125,-2.136230230331421,-1.0375975370407104,0.9155272841453552,93.33334350585938,126009.0,1.0
15:36:35.428782,164215.859375,186871.59375,179597.265625,195853.5,188027.984375,186170.453125,690966.0625,197961.90625,0.043701171875,1.0107421875,-0.0185546875,-2.044677495956421,-1.0070799589157104,0.9765624403953552,93.33334350585938,126010.0,1.0
15:36:35.433429,164254.578125,186880.265625,179610.046875,195854.578125,188033.96875,186175.375,690444.4375,197964.765625,0.042724609375,1.012451171875,-0.01904296875,-1.9836424589157104,-0.9765624403953552,1.0986326932907104,93.33334350585938,126011.0,1.0
15:36:35.433485,164387.078125,186897.78125,179626.046875,195887.390625,188049.796875,186174.21875,690751.125,197969.671875,0.0458984375,1.0126953125,-0.01953125,-1.9226073026657104,-0.9765624403953552,1.0375975370407104,93.33334350585938,126012.0,1.0
15:36:35.440110,164357.21875,186897.78125,179616.21875,195848.59375,188049.609375,186174.03125,691441.6875,197962.171875,0.044677734375,1.01318359375,-0.021484375,-1.8920897245407104,-0.9460448622703552,1.1596678495407104,93.33334350585938,126013.0,1.0
15:36:35.448327,164229.265625,186872.75,179597.890625,195849.84375,188033.515625,186169.75,691091.9375,197962.078125,0.0478515625,1.014404296875,-0.0185546875,-1.8920897245407104,-0.9155272841453552,1.0986326932907104,93.33334350585938,126014.0,1.0
15:36:35.448378,164231.328125,186870.25,179602.171875,195844.390625,188031.734375,186169.125,690454.875,197960.921875,0.04736328125,1.013671875,-0.022705078125,-1.8920897245407104,-0.7934569716453552,1.1291502714157104,93.33334350585938,126015.0,1.0
15:36:35.455559,164372.953125,186893.578125,179625.328125,195881.84375,188053.015625,186173.40625,690645.0,197969.234375,0.044921875,1.014404296875,-0.021240234375,-1.8310545682907104,-0.7629393935203552,1.1901854276657104,93.33334350585938,126016.0,1.0
15:36:35.455583,164380.90625,186904.484375,179625.25,195855.921875,188062.484375,186179.9375,691359.1875,197965.75,0.044189453125,1.013916015625,-0.020263671875,-1.7700194120407104,-0.7019042372703552,1.1901854276657104,93.33334350585938,126017.0,1.0
15:36:35.469406,164251.796875,186881.875,179607.09375,195849.65625,188046.21875,186176.890625,691223.8125,197966.453125,0.044189453125,1.014892578125,-0.01953125,-1.8310545682907104,-0.7324218153953552,1.1291502714157104,93.33334350585938,126018.0,1.0
15:36:35.469431,164222.203125,186874.546875,179607.890625,195850.640625,188039.6875,186177.171875,690503.1875,197965.921875,0.046142578125,1.013916015625,-0.01953125,-1.8005369901657104,-0.6103515028953552,1.1291502714157104,93.33334350585938,126019.0,1.0
15:36:35.501364,164354.0,186893.40625,179627.75,195882.296875,188054.984375,186179.046875,690549.6875,197970.21875,0.044921875,1.012939453125,-0.019287109375,-1.7395018339157104,-0.6103515028953552,1.2207030057907104,93.33334350585938,126020.0,1.0
15:36:35.501428,164395.390625,186905.390625,179629.71875,195869.15625,188062.578125,186180.46875,691238.0,197966.109375,0.045654296875,1.0126953125,-0.02001953125,-1.7700194120407104,-0.5187987685203552,1.1901854276657104,93.33334350585938,126021.0,1.0
15:36:35.501444,164277.8125,186890.640625,179616.578125,195853.859375,188051.765625,186181.640625,691332.0,197965.390625,0.04541015625,1.01171875,-0.02001953125,-1.5869139432907104,-0.5187987685203552,1.1291502714157104,93.33334350585938,126022.0,1.0
15:36:35.538792,164221.5,186878.390625,179613.984375,195856.359375,188043.984375,186182.34375,690577.5,197967.0,0.04345703125,1.01318359375,-0.02001953125,-1.5258787870407104,-0.4272460639476776,1.1291502714157104,93.33334350585938,126023.0,1.0
15:36:35.550714,164335.84375,186893.578125,179630.515625,195875.140625,188055.875,186182.703125,690492.25,197969.140625,0.045166015625,1.011962890625,-0.01904296875,-1.5563963651657104,-0.3967284858226776,1.0986326932907104,93.33334350585938,126024.0,1.0
15:36:35.550798,164407.109375,186908.0625,179635.96875,195875.5,188065.703125,186183.78125,691123.6875,197969.046875,0.044677734375,1.0126953125,-0.0205078125,-1.4953612089157104,-0.3662109076976776,1.0375975370407104,93.33334350585938,126025.0,1.0
15:36:35.550827,164296.59375,186893.21875,179616.21875,195842.953125,188052.828125,186182.265625,691419.0625,197963.59375,0.04443359375,1.012451171875,-0.01953125,-1.4343260526657104,-0.4272460639476776,1.0375975370407104,93.33334350585938,126026.0,1.0
15:36:35.550850,164209.6875,186874.71875,179604.328125,195848.5,188038.625,186179.484375,690676.4375,197964.40625,0.04443359375,1.01123046875,-0.021484375,-1.3732908964157104,-0.2441406100988388,1.0375975370407104,93.33334350585938,126027.0,1.0
15:36:35.553831,164300.34375,186886.34375,179617.46875,195857.890625,188045.59375,186179.3125,690437.375,197964.578125,0.045166015625,1.01123046875,-0.020263671875,-1.2512205839157104,-0.2746581733226776,1.0070799589157104,93.33334350585938,126028.0,1.0
15:36:35.553898,164397.890625,186899.75,179625.59375,195872.8125,188056.765625,186176.71875,690977.6875,197964.3125,0.04345703125,1.010986328125,-0.021484375,-1.2512205839157104,-0.2746581733226776,0.8544921278953552,93.33334350585938,126029.0,1.0
15:36:35.553924,164314.828125,186894.03125,179615.046875,195838.390625,188052.125,186178.5,691460.125,197961.0,0.0439453125,1.01171875,-0.021484375,-1.1901854276657104,-0.2441406100988388,0.9765624403953552,93.33334350585938,126030.0,1.0
15:36:35.556412,164211.921875,186874.625,179604.140625,195849.21875,188037.015625,186175.375,690798.5,197964.21875,0.043701171875,1.011474609375,-0.021240234375,-1.1901854276657104,-0.2136230319738388,0.9155272841453552,93.33334350585938,126031.0,1.0
15:36:35.558786,164280.046875,186886.4375,179620.0625,195854.75,188046.125,186178.5,690410.1875,197966.015625,0.04296875,1.01025390625,-0.01953125,-1.2207030057907104,-0.1525878757238388,0.8850097060203552,93.33334350585938,126032.0,1.0
15:36:35.561365,164404.421875,186905.75,179635.53125,195884.53125,188064.09375,186179.3125,690838.4375,197971.203125,0.043212890625,1.00927734375,-0.021728515625,-1.2207030057907104,-0.1831054538488388,0.9155272841453552,93.33334350585938,126033.0,1.0
15:36:35.563753,164343.625,186902.53125,179624.265625,195843.84375,188060.171875,186179.578125,691450.625,197963.0625,0.04345703125,1.007080078125,-0.0224609375,-1.1901854276657104,-0.1525878757238388,0.9765624403953552,93.33334350585938,126034.0,1.0
15:36:35.566346,164218.71875,186875.25,179605.3125,195850.109375,188039.6875,186173.859375,690927.875,197963.6875,0.04541015625,1.00732421875,-0.024169921875,-1.0681151151657104,-0.1525878757238388,0.9155272841453552,93.33334350585938,126035.0,1.0
15:36:35.571324,164254.3125,186880.53125,179614.25,195850.203125,188042.828125,186176.625,690409.9375,197965.296875,0.0458984375,1.009521484375,-0.022705078125,-1.0681151151657104,-0.1220703050494194,0.9765624403953552,93.33334350585938,126036.0,1.0
15:36:35.577538,164389.40625,186899.65625,179631.40625,195888.546875,188058.203125,186178.953125,690737.625,197972.8125,0.044677734375,1.01025390625,-0.0234375,-1.0375975370407104,-0.0915527269244194,1.0681151151657104,93.33334350585938,126037.0,1.0
15:36:35.579977,164356.671875,186897.34375,179618.8125,195847.78125,188054.09375,186177.4375,691414.5,197963.0625,0.0458984375,1.012451171875,-0.023193359375,-1.0681151151657104,-0.1831054538488388,1.0375975370407104,93.33334350585938,126038.0,1.0
15:36:35.582477,164226.671875,186870.0625,179598.875,195849.21875,188034.328125,186171.171875,691074.5,197963.515625,0.046630859375,1.0126953125,-0.025390625,-1.0986326932907104,-0.1220703050494194,1.1291502714157104,93.33334350585938,126039.0,1.0
15:36:35.585005,164227.296875,186866.84375,179601.015625,195844.46875,188030.125,186170.015625,690441.6875,197960.640625,0.0458984375,1.01318359375,-0.0283203125,-1.0681151151657104,-0.0610351525247097,1.0986326932907104,93.33334350585938,126040.0,1.0
15:36:35.587498,164361.234375,186881.609375,179616.125,195877.109375,188043.09375,186166.96875,690626.375,197963.515625,0.045654296875,1.0126953125,-0.02685546875,-1.0986326932907104,0.0915527269244194,1.1291502714157104,93.33334350585938,126041.0,1.0
15:36:35.590217,164365.703125,186886.875,179612.546875,195848.765625,188045.40625,186165.09375,691329.8125,197956.796875,0.045654296875,1.013427734375,-0.02685546875,-1.0681151151657104,0.0,1.1291502714157104,93.33334350585938,126042.0,1.0
15:36:35.592624,164239.828125,186867.125,179596.453125,195845.28125,188030.578125,186161.96875,691204.3125,197958.0625,0.04541015625,1.01318359375,-0.025146484375,-1.0681151151657104,0.03051757626235485,1.2207030057907104,93.33334350585938,126043.0,1.0
15:36:35.595040,164215.328125,186865.78125,179601.375,195851.1875,188028.515625,186165.984375,690492.8125,197961.90625,0.04296875,1.01171875,-0.02197265625,-1.0986326932907104,-0.1525878757238388,1.2512205839157104,93.33334350585938,126044.0,1.0
15:36:35.597634,164350.6875,186889.109375,179625.59375,195886.140625,188047.203125,186171.4375,690537.875,197968.78125,0.043212890625,1.010986328125,-0.02197265625,-1.0986326932907104,-0.1220703050494194,1.3122557401657104,93.33334350585938,126045.0,1.0
15:36:35.600538,164390.921875,186899.84375,179626.9375,195869.59375,188054.09375,186171.890625,691224.5,197963.234375,0.04052734375,1.011962890625,-0.021728515625,-1.2207030057907104,-0.0915527269244194,1.1901854276657104,93.33334350585938,126046.0,1.0
15:36:35.600562,164267.890625,186879.453125,179606.203125,195848.234375,188036.828125,186167.875,691317.875,197958.765625,0.041015625,1.013427734375,-0.0224609375,-1.3122557401657104,-0.1525878757238388,1.0375975370407104,93.33334350585938,126047.0,1.0
15:36:35.602515,164206.65625,186865.421875,179599.3125,195849.03125,188024.765625,186165.09375,690565.0625,197957.703125,0.0390625,1.013916015625,-0.021484375,-1.4343260526657104,-0.2441406100988388,0.9765624403953552,93.33334350585938,126048.0,1.0
15:36:35.604981,164320.015625,186882.40625,179615.765625,195868.25,188036.390625,186166.53125,690476.8125,197958.765625,0.03955078125,1.0146484375,-0.0234375,-1.4038084745407104,-0.3967284858226776,1.0070799589157104,93.33334350585938,126049.0,1.0
15:36:35.608145,164391.359375,186895.546875,179620.6875,195866.828125,188046.390625,186167.515625,691105.125,197957.34375,0.0400390625,1.015869140625,-0.021728515625,-1.4343260526657104,-0.4577636420726776,0.8850097060203552,93.33334350585938,126050.0,1.0
15:36:35.608166,164283.359375,186882.3125,179604.59375,195835.53125,188035.3125,186167.59375,691406.875,197953.578125,0.040771484375,1.015625,-0.0224609375,-1.4953612089157104,-0.4882812201976776,0.9765624403953552,93.33334350585938,126051.0,1.0
15:36:35.610629,164198.96875,186866.21875,179596.71875,195844.109375,188023.0625,186166.609375,690675.3125,197956.171875,0.041748046875,1.0146484375,-0.021240234375,-1.6174315214157104,-0.4882812201976776,0.8850097060203552,93.33334350585938,126052.0,1.0
15:36:35.610647,164293.90625,186881.515625,179615.40625,195857.703125,188036.921875,186171.359375,690433.6875,197960.203125,0.043701171875,1.01708984375,-0.022216796875,-1.6784666776657104,-0.5493163466453552,0.8544921278953552,93.33334350585938,126053.0,1.0
15:36:35.612525,164397.71875,186898.765625,179627.125,195875.40625,188052.921875,186172.875,690977.375,197964.3125,0.044677734375,1.017333984375,-0.023681640625,-1.7395018339157104,-0.5798339247703552,0.8544921278953552,93.33334350585938,126054.0,1.0
15:36:35.614965,164309.375,186887.953125,179610.40625,195835.71875,188044.4375,186170.1875,691454.9375,197957.421875,0.044921875,1.017822265625,-0.02392578125,-1.7700194120407104,-0.5187987685203552,0.8239745497703552,93.33334350585938,126055.0,1.0
15:36:35.618070,164200.578125,186863.984375,179594.75,195842.0625,188026.734375,186164.015625,690793.5,197957.078125,0.045166015625,1.01708984375,-0.02392578125,-1.9226073026657104,-0.5798339247703552,0.7934569716453552,93.33334350585938,126056.0,1.0
15:36:35.618099,164267.71875,186875.4375,179610.21875,195846.359375,188034.5,186168.578125,690412.625,197957.875,0.049072265625,1.017822265625,-0.023681640625,-1.9836424589157104,-0.5493163466453552,0.8544921278953552,93.33334350585938,126057.0,1.0
15:36:35.621834,164390.921875,186895.375,179625.6875,195873.625,188051.3125,186171.359375,690859.9375,197962.53125,0.04638671875,1.0166015625,-0.02294921875,-2.044677495956421,-0.5187987685203552,0.9765624403953552,93.33334350585938,126058.0,1.0
15:36:35.621853,164330.03125,186891.703125,179611.5625,195829.546875,188046.21875,186173.140625,691463.875,197952.953125,0.047607421875,1.014892578125,-0.025390625,-2.105712652206421,-0.5493163466453552,1.0375975370407104,93.33334350585938,126059.0,1.0
15:36:35.627461,164206.203125,186866.21875,179593.59375,195835.265625,188027.171875,186168.21875,690943.9375,197953.578125,0.049560546875,1.0146484375,-0.02294921875,-1.9836424589157104,-0.5187987685203552,0.9460448622703552,93.33334350585938,126060.0,1.0
15:36:35.638062,164243.125,186873.5625,179606.109375,195836.15625,188034.78125,186173.328125,690421.8125,197956.53125,0.0478515625,1.0146484375,-0.023193359375,-2.075195074081421,-0.4882812201976776,1.0986326932907104,93.33334350585938,126061.0,1.0
15:36:35.638086,164379.75,186894.5625,179626.3125,195876.484375,188053.640625,186175.375,690727.3125,197964.765625,0.048828125,1.012939453125,-0.020751953125,-2.075195074081421,-0.3356933295726776,1.2207030057907104,93.33334350585938,126062.0,1.0
15:36:35.640559,164351.046875,186893.046875,179617.109375,195840.546875,188051.765625,186172.96875,691416.75,197957.703125,0.048583984375,1.013916015625,-0.018310546875,-2.136230230331421,-0.2746581733226776,1.2207030057907104,93.33334350585938,126063.0,1.0
15:36:35.640582,164225.15625,186868.375,179600.75,195846.984375,188035.84375,186167.6875,691082.5625,197961.453125,0.048583984375,1.011474609375,-0.021728515625,-2.136230230331421,-0.3051757514476776,1.0375975370407104,93.33334350585938,126064.0,1.0
15:36:35.648128,164234.90625,186874.984375,179613.4375,195850.90625,188040.40625,186175.375,690454.25,197966.546875,0.04833984375,1.010498046875,-0.02099609375,-2.197265386581421,-0.3051757514476776,1.0375975370407104,93.33334350585938,126065.0,1.0
15:36:35.653757,164377.328125,186900.46875,179638.390625,195888.46875,188061.6875,186182.4375,690641.0625,197973.515625,0.046630859375,1.011962890625,-0.018798828125,-2.319335699081421,-0.3051757514476776,1.0070799589157104,93.33334350585938,126066.0,1.0
15:36:35.669392,164384.296875,186909.859375,179635.96875,195855.734375,188066.328125,186187.09375,691346.0,197963.59375,0.04541015625,1.010009765625,-0.018310546875,-2.319335699081421,-0.2441406100988388,0.9765624403953552,93.33334350585938,126067.0,1.0
15:36:35.669435,164253.328125,186886.515625,179615.234375,195843.140625,188048.453125,186184.3125,691217.6875,197959.578125,0.045654296875,1.009521484375,-0.0205078125,-2.288818120956421,-0.2441406100988388,0.9155272841453552,93.33334350585938,126068.0,1.0
15:36:35.671259,164222.828125,186878.65625,179614.328125,195838.9375,188042.734375,186185.390625,690501.0,197959.3125,0.046142578125,1.01171875,-0.0185546875,-2.410888433456421,-0.2441406100988388,0.8850097060203552,93.33334350585938,126069.0,1.0
15:36:35.681853,164353.28125,186898.140625,179633.015625,195869.859375,188059.265625,186188.703125,690560.75,197967.53125,0.046875,1.01123046875,-0.02099609375,-2.319335699081421,-0.1525878757238388,0.8239745497703552,93.33334350585938,126070.0,1.0
15:36:35.681881,164393.59375,186908.0625,179632.390625,195856.71875,188066.515625,186189.234375,691241.75,197964.5,0.0478515625,1.01123046875,-0.0205078125,-2.349853277206421,-0.0915527269244194,0.7934569716453552,93.33334350585938,126071.0,1.0
15:36:35.683727,164272.90625,186890.359375,179615.59375,195840.0,188053.8125,186187.171875,691336.0,197963.515625,0.047607421875,1.011962890625,-0.01806640625,-2.349853277206421,-0.2136230319738388,0.8850097060203552,93.33334350585938,126072.0,1.0
15:36:35.686836,164216.84375,186882.859375,179615.765625,195847.96875,188048.546875,186189.765625,690586.125,197968.15625,0.046875,1.01318359375,-0.01904296875,-2.288818120956421,-0.2441406100988388,0.8239745497703552,93.33334350585938,126073.0,1.0
15:36:35.686861,164335.9375,186904.3125,179638.75,195875.046875,188065.53125,186195.40625,690494.0625,197976.921875,0.04833984375,1.011962890625,-0.015869140625,-2.349853277206421,-0.2441406100988388,0.7629393935203552,93.33334350585938,126074.0,1.0
15:36:35.713787,164409.6875,186917.28125,179645.890625,195878.453125,188075.71875,186195.40625,691117.9375,197977.71875,0.048095703125,1.0126953125,-0.017822265625,-2.349853277206421,-0.1831054538488388,0.6408690810203552,93.33334350585938,126075.0,1.0
15:36:35.716253,164304.1875,186903.859375,179629.625,195847.328125,188064.1875,186194.15625,691423.875,197972.453125,0.046875,1.0126953125,-0.020751953125,-2.441406011581421,-0.1831054538488388,0.7019042372703552,93.33334350585938,126076.0,1.0
15:36:35.719321,164219.96875,186889.296875,179622.65625,195854.046875,188053.453125,186192.90625,690686.4375,197974.59375,0.046142578125,1.012939453125,-0.01611328125,-2.380370855331421,-0.0610351525247097,0.8239745497703552,93.33334350585938,126077.0,1.0
15:36:35.719345,164311.890625,186901.984375,179637.765625,195864.5,188063.390625,186195.3125,690440.3125,197974.5,0.046875,1.01220703125,-0.015869140625,-2.227782964706421,-0.1220703050494194,0.7934569716453552,93.33334350585938,126078.0,1.0
15:36:35.721273,164407.90625,186913.078125,179640.703125,195875.671875,188069.46875,186190.390625,690974.5,197971.109375,0.046875,1.01171875,-0.019775390625,-2.258300542831421,-0.0915527269244194,0.8544921278953552,93.33334350585938,126079.0,1.0
15:36:35.723755,164320.90625,186902.609375,179624.796875,195838.3125,188059.546875,186188.78125,691462.625,197964.84375,0.04638671875,1.012939453125,-0.018798828125,-2.197265386581421,-0.0915527269244194,0.8239745497703552,93.33334350585938,126080.0,1.0
15:36:35.726321,164214.703125,186879.1875,179612.453125,195848.59375,188043.0,186181.90625,690805.375,197967.71875,0.04638671875,1.0107421875,-0.019775390625,-2.227782964706421,-0.1525878757238388,0.7934569716453552,93.33334350585938,126081.0,1.0
15:36:35.728769,164278.53125,186886.78125,179623.8125,195849.921875,188046.84375,186181.71875,690411.375,197964.40625,0.046142578125,1.01171875,-0.020751953125,-2.227782964706421,-0.1525878757238388,0.7324218153953552,93.33334350585938,126082.0,1.0
15:36:35.731260,164400.21875,186904.21875,179637.578125,195877.46875,188060.25,186181.640625,690839.8125,197966.546875,0.0439453125,1.01220703125,-0.01806640625,-2.105712652206421,-0.03051757626235485,0.6408690810203552,93.33334350585938,126083.0,1.0
15:36:35.733749,164340.046875,186900.203125,179625.421875,195836.78125,188053.734375,186181.90625,691456.625,197957.515625,0.04541015625,1.011962890625,-0.01904296875,-2.044677495956421,0.0,0.7019042372703552,93.33334350585938,126084.0,1.0
15:36:35.736855,164223.375,186879.71875,179612.546875,195847.421875,188037.90625,186180.390625,690942.3125,197959.390625,0.0439453125,1.012451171875,-0.0166015625,-2.136230230331421,-0.0610351525247097,0.7324218153953552,93.33334350585938,126085.0,1.0
15:36:35.736876,164261.015625,186887.6875,179625.515625,195845.28125,188041.921875,186184.234375,690422.25,197958.140625,0.04443359375,1.0107421875,-0.016845703125,-2.136230230331421,-0.0610351525247097,0.8239745497703552,93.33334350585938,126086.0,1.0
15:36:35.739304,164392.96875,186902.703125,179639.28125,195874.875,188054.890625,186180.921875,690736.6875,197959.578125,0.04345703125,1.010986328125,-0.016845703125,-2.075195074081421,-0.0610351525247097,0.7324218153953552,93.33334350585938,126087.0,1.0
15:36:35.739324,164363.921875,186902.25,179630.515625,195836.0625,188054.71875,186180.828125,691419.25,197952.78125,0.043212890625,1.01318359375,-0.01708984375,-2.075195074081421,-0.1831054538488388,0.7324218153953552,93.33334350585938,126088.0,1.0
15:36:35.741395,164237.9375,186879.1875,179613.796875,195841.875,188038.796875,186177.796875,691083.0,197957.609375,0.043212890625,1.011474609375,-0.0146484375,-2.166747808456421,-0.3051757514476776,0.7019042372703552,93.33334350585938,126089.0,1.0
15:36:35.756844,164240.8125,186878.828125,179618.71875,195842.5,188038.171875,186179.125,690445.0,197960.375,0.04296875,1.01318359375,-0.01416015625,-2.105712652206421,-0.2441406100988388,0.7629393935203552,93.33334350585938,126090.0,1.0
15:36:35.756872,164376.609375,186895.46875,179635.703125,195877.734375,188051.84375,186177.609375,690618.0625,197966.734375,0.0439453125,1.01416015625,-0.01513671875,-1.9531248807907104,-0.3051757514476776,0.7629393935203552,93.33334350585938,126091.0,1.0
15:36:35.759358,164385.375,186904.140625,179632.84375,195852.078125,188057.390625,186181.640625,691328.5625,197962.4375,0.044921875,1.013916015625,-0.017822265625,-1.9531248807907104,-0.3356933295726776,0.7324218153953552,93.33334350585938,126092.0,1.0
15:36:35.759390,164259.9375,186886.15625,179617.375,195847.875,188046.046875,186181.90625,691213.5,197965.03125,0.044921875,1.0126953125,-0.017578125,-1.9836424589157104,-0.4272460639476776,0.8239745497703552,93.33334350585938,126093.0,1.0
15:36:35.761297,164228.5625,186879.1875,179618.0,195844.921875,188041.125,186181.640625,690497.1875,197964.3125,0.045166015625,1.013916015625,-0.017333984375,-2.044677495956421,-0.5187987685203552,0.7324218153953552,93.33334350585938,126094.0,1.0
15:36:35.765014,164357.84375,186896.4375,179636.953125,195870.9375,188056.59375,186181.1875,690549.0625,197967.984375,0.043701171875,1.012451171875,-0.017333984375,-1.9836424589157104,-0.5798339247703552,0.7629393935203552,93.33334350585938,126095.0,1.0
15:36:35.781880,164397.453125,186907.171875,179637.21875,195855.921875,188064.375,186182.171875,691232.3125,197962.890625,0.04296875,1.01171875,-0.017578125,-1.8310545682907104,-0.6103515028953552,0.8850097060203552,93.33334350585938,126096.0,1.0
15:36:35.781918,164276.203125,186891.34375,179619.15625,195835.71875,188051.140625,186180.828125,691335.5625,197960.734375,0.043701171875,1.014404296875,-0.017578125,-1.8615721464157104,-0.5798339247703552,0.8239745497703552,93.33334350585938,126097.0,1.0
15:36:35.786846,164218.1875,186881.421875,179616.65625,195842.234375,188042.109375,186181.640625,690586.4375,197963.59375,0.0458984375,1.01318359375,-0.015869140625,-1.8310545682907104,-0.5187987685203552,0.8239745497703552,93.33334350585938,126098.0,1.0
15:36:35.786871,164333.15625,186897.515625,179635.53125,195865.3125,188055.34375,186182.703125,690487.625,197967.171875,0.0458984375,1.012939453125,-0.0166015625,-1.8005369901657104,-0.6408690810203552,0.9155272841453552,93.33334350585938,126099.0,1.0
15:36:35.788747,164410.140625,186911.90625,179642.5,195870.765625,188068.21875,186184.3125,691112.9375,197967.265625,0.0439453125,1.013671875,-0.016845703125,-1.8005369901657104,-0.6713866591453552,1.0375975370407104,93.33334350585938,126100.0,1.0
15:36:35.791306,164304.90625,186899.125,179626.859375,195842.953125,188058.203125,186184.3125,691423.0,197963.6875,0.044921875,1.014404296875,-0.015625,-1.8920897245407104,-0.6713866591453552,1.0070799589157104,93.33334350585938,126101.0,1.0
15:36:35.801328,164217.46875,186879.1875,179616.484375,195848.3125,188042.375,186180.734375,690692.6875,197964.40625,0.043701171875,1.013427734375,-0.016357421875,-1.7395018339157104,-0.7019042372703552,1.0375975370407104,93.33334350585938,126102.0,1.0
15:36:35.806313,164305.265625,186888.125,179627.921875,195854.9375,188047.828125,186179.046875,690444.25,197962.609375,0.043212890625,1.01123046875,-0.0166015625,-1.7700194120407104,-0.7324218153953552,1.0070799589157104,93.33334350585938,126103.0,1.0
15:36:35.806358,164402.8125,186902.4375,179633.734375,195865.9375,188057.21875,186176.8125,690984.1875,197960.734375,0.044921875,1.010986328125,-0.017333984375,-1.7089842557907104,-0.7324218153953552,0.9765624403953552,93.33334350585938,126104.0,1.0
15:36:35.806371,164316.0,186893.5,179615.859375,195824.453125,188048.28125,186177.171875,691470.3125,197951.4375,0.046875,1.010498046875,-0.016357421875,-1.6784666776657104,-0.7324218153953552,1.0070799589157104,93.33334350585938,126105.0,1.0
15:36:35.808881,164208.796875,186873.375,179603.0625,195834.734375,188033.25,186174.484375,690819.75,197955.375,0.043701171875,1.01025390625,-0.01611328125,-1.7089842557907104,-0.7324218153953552,0.9765624403953552,93.33334350585938,126106.0,1.0
15:36:35.816326,164273.53125,186884.109375,179618.359375,195841.171875,188042.640625,186178.5,690427.0625,197957.421875,0.046875,1.00927734375,-0.01904296875,-1.6479490995407104,-0.7324218153953552,0.9460448622703552,93.33334350585938,126107.0,1.0
15:36:35.826874,164397.09375,186900.296875,179632.484375,195874.15625,188058.28125,186178.59375,690852.0625,197962.53125,0.046142578125,1.00830078125,-0.01513671875,-1.5563963651657104,-0.7629393935203552,0.9460448622703552,93.33334350585938,126108.0,1.0
15:36:35.826937,164339.78125,186896.4375,179620.328125,195837.140625,188053.546875,186178.6875,691471.625,197957.15625,0.046630859375,1.010009765625,-0.014404296875,-1.4953612089157104,-0.7324218153953552,0.9155272841453552,93.33334350585938,126109.0,1.0
15:36:35.829318,164219.078125,186871.859375,179604.59375,195846.703125,188036.65625,186174.03125,690960.6875,197960.828125,0.048095703125,1.008056640625,-0.017822265625,-1.4953612089157104,-0.6713866591453552,0.9155272841453552,93.33334350585938,126110.0,1.0
15:36:35.829328,164251.09375,186873.828125,179613.265625,195842.78125,188040.046875,186174.75,690433.375,197959.75,0.047607421875,1.012451171875,-0.017822265625,-1.4343260526657104,-0.6713866591453552,1.0681151151657104,93.33334350585938,126111.0,1.0
15:36:35.841374,164387.171875,186892.875,179631.953125,195877.90625,188058.734375,186175.46875,690749.0625,197966.109375,0.047607421875,1.013671875,-0.01611328125,-1.4343260526657104,-0.5798339247703552,0.9765624403953552,93.33334350585938,126112.0,1.0
15:36:35.891063,164361.0625,186896.71875,179626.578125,195840.453125,188059.625,186177.96875,691433.25,197960.640625,0.0478515625,1.011962890625,-0.018310546875,-1.3732908964157104,-0.6103515028953552,1.0681151151657104,93.33334350585938,126113.0,1.0
15:36:35.891083,164229.09375,186870.515625,179607.09375,195837.234375,188040.140625,186171.53125,691092.1875,197957.609375,0.05029296875,1.012451171875,-0.018310546875,-1.3732908964157104,-0.5798339247703552,1.0986326932907104,93.33334350585938,126114.0,1.0
15:36:35.895660,164232.21875,186871.40625,179613.625,195835.171875,188040.671875,186174.21875,690451.9375,197956.53125,0.049560546875,1.01220703125,-0.015380859375,-1.4343260526657104,-0.5187987685203552,1.0681151151657104,93.33334350585938,126115.0,1.0
15:36:35.895729,164372.234375,186893.765625,179635.53125,195874.96875,188060.609375,186177.609375,690629.0625,197965.921875,0.04931640625,1.0107421875,-0.018310546875,-1.3732908964157104,-0.4577636420726776,1.0681151151657104,93.33334350585938,126116.0,1.0
15:36:35.899351,164382.15625,186902.609375,179634.453125,195851.625,188067.046875,186181.1875,691343.75,197963.0625,0.05029296875,1.01171875,-0.02197265625,-1.4038084745407104,-0.3967284858226776,1.0375975370407104,93.33334350585938,126117.0,1.0
15:36:35.899413,164255.28125,186880.625,179616.578125,195845.28125,188050.421875,186177.96875,691225.3125,197964.3125,0.04931640625,1.011962890625,-0.02099609375,-1.2512205839157104,-0.3356933295726776,1.0986326932907104,93.33334350585938,126118.0,1.0
15:36:35.899444,164225.0625,186874.09375,179615.59375,195844.921875,188044.515625,186177.515625,690504.9375,197965.46875,0.048583984375,1.0126953125,-0.021240234375,-1.2512205839157104,-0.3356933295726776,1.0986326932907104,93.33334350585938,126119.0,1.0
15:36:35.899466,164355.78125,186893.5,179635.25,195875.3125,188059.1875,186180.203125,690542.0625,197970.21875,0.049072265625,1.013671875,-0.017822265625,-1.3122557401657104,-0.2746581733226776,0.9460448622703552,93.33334350585938,126120.0,1.0
15:36:35.902518,164396.640625,186905.390625,179633.734375,195855.203125,188064.8125,186181.1875,691232.625,197963.15625,0.0478515625,1.01123046875,-0.018798828125,-1.3122557401657104,-0.3051757514476776,0.9765624403953552,93.33334350585938,126121.0,1.0
15:36:35.902582,164271.03125,186882.9375,179610.046875,195828.375,188045.234375,186174.21875,691337.1875,197955.28125,0.05029296875,1.013427734375,-0.016357421875,-1.3732908964157104,-0.2441406100988388,0.9460448622703552,93.33334350585938,126122.0,1.0
15:36:35.902615,164213.171875,186872.75,179606.921875,195834.28125,188037.453125,186175.109375,690587.5,197957.875,0.04931640625,1.012451171875,-0.01806640625,-1.4038084745407104,-0.2441406100988388,1.0070799589157104,93.33334350585938,126123.0,1.0
15:36:35.905021,164333.875,186895.109375,179633.203125,195863.78125,188056.765625,186181.8125,690496.0,197966.8125,0.0498046875,1.0126953125,-0.01806640625,-1.4343260526657104,-0.1831054538488388,0.9765624403953552,93.33334350585938,126124.0,1.0
15:36:35.907593,164413.890625,186912.71875,179645.09375,195872.28125,188071.96875,186185.03125,691122.5,197969.40625,0.0498046875,1.01220703125,-0.01611328125,-1.4648436307907104,-0.0915527269244194,0.8850097060203552,93.33334350585938,126125.0,1.0
15:36:35.909990,164313.9375,186904.21875,179634.984375,195850.28125,188067.140625,186188.703125,691433.875,197970.578125,0.049560546875,1.013427734375,-0.01708984375,-1.3122557401657104,-0.1220703050494194,0.8544921278953552,93.33334350585938,126126.0,1.0
15:36:35.912516,164229.890625,186887.859375,179629.171875,195860.484375,188054.890625,186187.453125,690696.375,197973.796875,0.048828125,1.013916015625,-0.013671875,-1.4038084745407104,-0.0610351525247097,0.8544921278953552,93.33334350585938,126127.0,1.0
15:36:35.914987,164321.359375,186901.546875,179644.015625,195870.21875,188063.46875,186188.078125,690444.1875,197973.34375,0.048583984375,1.013671875,-0.017578125,-1.4648436307907104,-0.0915527269244194,0.8239745497703552,93.33334350585938,126128.0,1.0
15:36:35.917510,164419.796875,186914.59375,179648.9375,195879.875,188072.234375,186184.3125,690976.125,197969.671875,0.0478515625,1.01416015625,-0.019287109375,-1.5563963651657104,-0.0915527269244194,0.8544921278953552,93.33334350585938,126129.0,1.0
15:36:35.920016,164332.09375,186904.484375,179632.484375,195835.625,188061.15625,186182.625,691466.4375,197958.6875,0.04833984375,1.013671875,-0.017333984375,-1.4648436307907104,-0.0915527269244194,0.8239745497703552,93.33334350585938,126130.0,1.0
15:36:35.922531,164224.796875,186881.953125,179619.25,195843.671875,188045.0625,186179.125,690818.0625,197958.765625,0.04833984375,1.013671875,-0.017578125,-1.6174315214157104,0.0,0.7934569716453552,93.33334350585938,126131.0,1.0
15:36:35.925002,164289.0,186889.203125,179630.25,195847.328125,188049.609375,186179.671875,690422.375,197957.875,0.05078125,1.011962890625,-0.017333984375,-1.5258787870407104,0.0610351525247097,0.7629393935203552,93.33334350585938,126132.0,1.0
15:36:35.927577,164409.421875,186903.953125,179641.6875,195876.03125,188062.578125,186176.09375,690845.4375,197961.71875,0.049072265625,1.0126953125,-0.019287109375,-1.5258787870407104,0.0610351525247097,0.7019042372703552,93.33334350585938,126133.0,1.0
15:36:35.930616,164350.328125,186897.96875,179630.609375,195837.5,188059.359375,186174.484375,691469.375,197956.984375,0.0478515625,1.013916015625,-0.017578125,-1.5258787870407104,0.1220703050494194,0.6408690810203552,93.33334350585938,126134.0,1.0
15:36:35.930663,164231.5,186875.171875,179617.640625,195848.59375,188046.21875,186171.625,690955.125,197962.96875,0.046875,1.012939453125,-0.0185546875,-1.5563963651657104,0.1220703050494194,0.4882812201976776,93.33334350585938,126135.0,1.0
15:36:35.932593,164263.515625,186879.453125,179627.390625,195848.140625,188051.578125,186172.515625,690430.25,197962.53125,0.048095703125,1.0126953125,-0.02001953125,-1.6479490995407104,0.2441406100988388,0.5187987685203552,93.33334350585938,126136.0,1.0
15:36:35.940244,164399.859375,186900.015625,179647.59375,195886.046875,188069.109375,186174.65625,690741.625,197970.03125,0.048583984375,1.013916015625,-0.01708984375,-1.5563963651657104,0.1525878757238388,0.5798339247703552,93.33334350585938,126137.0,1.0
15:36:35.948775,164374.828125,186901.625,179640.4375,195850.109375,188070.53125,186176.625,691433.25,197964.5,0.047119140625,1.01171875,-0.01806640625,-1.5563963651657104,0.1220703050494194,0.5493163466453552,93.33334350585938,126138.0,1.0
15:36:35.949105,164244.828125,186875.96875,179620.140625,195849.21875,188051.5,186170.28125,691103.625,197964.40625,0.046875,1.013916015625,-0.01953125,-1.5258787870407104,0.2136230319738388,0.4882812201976776,93.33334350585938,126139.0,1.0
15:36:35.949165,164245.28125,186874.09375,179624.703125,195844.75,188047.921875,186171.359375,690464.4375,197963.515625,0.046875,1.01220703125,-0.0205078125,-1.5258787870407104,0.1831054538488388,0.7019042372703552,93.33334350585938,126140.0,1.0
15:36:35.951282,164379.65625,186890.546875,179640.625,195878.71875,188060.796875,186170.546875,690643.0,197967.078125,0.047119140625,1.01171875,-0.01806640625,-1.4648436307907104,0.1220703050494194,0.6408690810203552,93.33334350585938,126141.0,1.0
15:36:35.953867,164383.765625,186894.296875,179633.640625,195846.796875,188061.59375,186171.796875,691359.9375,197957.875,0.04736328125,1.010986328125,-0.019287109375,-1.5258787870407104,0.1525878757238388,0.5493163466453552,93.33334350585938,126142.0,1.0
15:36:35.961310,164253.40625,186872.9375,179613.703125,195837.765625,188045.6875,186170.015625,691244.375,197957.515625,0.0458984375,1.0126953125,-0.019287109375,-1.5258787870407104,0.1831054538488388,0.6103515028953552,93.33334350585938,126143.0,1.0
15:36:35.971851,164221.21875,186868.90625,179614.515625,195838.75,188041.125,186171.171875,690524.125,197958.59375,0.047119140625,1.01220703125,-0.02001953125,-1.4953612089157104,0.1220703050494194,0.6408690810203552,93.33334350585938,126144.0,1.0
15:36:35.971872,164347.203125,186881.6875,179630.078125,195863.34375,188053.109375,186169.65625,690568.6875,197959.3125,0.048828125,1.01220703125,-0.01806640625,-1.5869139432907104,0.1525878757238388,0.6103515028953552,93.33334350585938,126145.0,1.0
15:36:35.976191,164386.71875,186888.671875,179628.546875,195844.46875,188058.5625,186169.65625,691254.125,197953.671875,0.047607421875,1.011474609375,-0.01904296875,-1.5563963651657104,0.1525878757238388,0.5798339247703552,93.33334350585938,126146.0,1.0
15:36:35.976270,164266.90625,186870.96875,179611.75,195824.890625,188045.765625,186168.765625,691364.5,197951.703125,0.046630859375,1.01220703125,-0.018798828125,-1.6174315214157104,0.0610351525247097,0.5493163466453552,93.33334350585938,126147.0,1.0
15:36:35.981293,164208.703125,186860.328125,179610.9375,195832.046875,188039.6875,186168.9375,690609.6875,197955.46875,0.04443359375,1.012939453125,-0.01904296875,-1.5869139432907104,0.0610351525247097,0.5798339247703552,93.33334350585938,126148.0,1.0
15:36:35.988092,164325.921875,186879.28125,179633.203125,195855.5625,188055.421875,186172.0625,690512.0,197961.71875,0.046142578125,1.0126953125,-0.020263671875,-1.6479490995407104,0.0610351525247097,0.6103515028953552,93.33334350585938,126149.0,1.0
15:36:35.988126,164403.609375,186895.375,179640.625,195859.5,188068.484375,186173.765625,691138.125,197962.796875,0.046630859375,1.013427734375,-0.02099609375,-1.6174315214157104,0.1525878757238388,0.6713866591453552,93.33334350585938,126150.0,1.0
15:36:35.994416,164295.875,186881.0625,179621.578125,195826.859375,188054.4375,186171.796875,691459.375,197956.625,0.04541015625,1.010986328125,-0.02197265625,-1.6174315214157104,0.0915527269244194,0.8239745497703552,93.33334350585938,126151.0,1.0
15:36:35.994450,164206.65625,186862.296875,179610.046875,195830.171875,188039.0625,186167.59375,690717.8125,197956.53125,0.044677734375,1.01318359375,-0.01953125,-1.6174315214157104,0.03051757626235485,0.7934569716453552,93.33334350585938,126152.0,1.0
15:36:35.996333,164300.0,186878.390625,179628.8125,195844.5625,188052.921875,186172.421875,690469.0,197959.84375,0.045654296875,1.010986328125,-0.019775390625,-1.5869139432907104,0.0610351525247097,0.6103515028953552,93.33334350585938,126153.0,1.0
15:36:36.006411,164401.921875,186894.390625,179638.46875,195862.0,188065.703125,186173.40625,690999.5625,197961.90625,0.046142578125,1.013427734375,-0.0205078125,-1.6174315214157104,0.0,0.6103515028953552,93.33334350585938,126154.0,1.0
15:36:36.008895,164319.125,186887.5,179624.53125,195824.625,188057.84375,186173.328125,691503.0,197954.75,0.046630859375,1.01220703125,-0.0205078125,-1.5563963651657104,0.0915527269244194,0.6103515028953552,93.33334350585938,126155.0,1.0
15:36:36.015616,164215.0625,186868.109375,179615.140625,195835.625,188043.796875,186170.8125,690847.5625,197958.859375,0.046875,1.011962890625,-0.018310546875,-1.5563963651657104,0.0610351525247097,0.6103515028953552,93.33334350585938,126156.0,1.0
15:36:36.015664,164280.328125,186878.390625,179629.265625,195841.609375,188051.578125,186173.765625,690459.1875,197960.5625,0.045654296875,1.012451171875,-0.017578125,-1.5563963651657104,-0.03051757626235485,0.5493163466453552,93.33334350585938,126157.0,1.0
15:36:36.021844,164401.296875,186893.859375,179640.984375,195870.140625,188062.84375,186171.171875,690892.125,197961.8125,0.046630859375,1.011474609375,-0.0224609375,-1.5563963651657104,-0.03051757626235485,0.5187987685203552,93.33334350585938,126158.0,1.0
15:36:36.021852,164343.796875,186891.796875,179629.4375,195828.921875,188057.390625,186171.890625,691511.25,197954.296875,0.046875,1.011474609375,-0.019775390625,-1.6479490995407104,0.0610351525247097,0.5187987685203552,93.33334350585938,126159.0,1.0
15:36:36.024117,164225.0625,186868.1875,179613.078125,195836.96875,188038.796875,186166.4375,690991.4375,197956.796875,0.04736328125,1.01171875,-0.019775390625,-1.5563963651657104,0.03051757626235485,0.5187987685203552,93.33334350585938,126160.0,1.0
15:36:36.035076,164255.375,186869.359375,179618.453125,195832.84375,188038.53125,186164.921875,690461.625,197954.5625,0.046630859375,1.0126953125,-0.0205078125,-1.6174315214157104,-0.0610351525247097,0.5187987685203552,93.33334350585938,126161.0,1.0
15:36:36.038178,164383.3125,186880.890625,179628.734375,195861.546875,188049.53125,186159.015625,690761.375,197955.90625,0.0458984375,1.013427734375,-0.019775390625,-1.6479490995407104,-0.03051757626235485,0.4272460639476776,93.33334350585938,126162.0,1.0
15:36:36.038244,164354.796875,186880.796875,179617.546875,195821.40625,188046.75,186158.5625,691459.625,197946.4375,0.048828125,1.013916015625,-0.020751953125,-1.5869139432907104,0.0,0.3662109076976776,93.33334350585938,126163.0,1.0
15:36:36.040083,164228.375,186858.453125,179600.125,195823.546875,188028.0625,186154.71875,691137.25,197947.859375,0.04833984375,1.0146484375,-0.01904296875,-1.5869139432907104,-0.03051757626235485,0.3051757514476776,93.33334350585938,126164.0,1.0
15:36:36.052654,164224.796875,186854.609375,179601.90625,195818.1875,188023.6875,186153.5625,690498.8125,197944.28125,0.049072265625,1.014404296875,-0.019287109375,-1.6174315214157104,-0.0610351525247097,0.3662109076976776,93.33334350585938,126165.0,1.0
15:36:36.055704,164362.671875,186875.96875,179622.03125,195855.03125,188041.5625,186156.328125,690671.375,197951.078125,0.047607421875,1.012939453125,-0.020263671875,-1.6479490995407104,-0.03051757626235485,0.4272460639476776,93.33334350585938,126166.0,1.0
15:36:36.055768,164373.3125,186885.09375,179620.859375,195828.109375,188048.28125,186158.65625,691385.875,197946.875,0.047607421875,1.012939453125,-0.01708984375,-1.6479490995407104,-0.0915527269244194,0.2746581733226776,93.33334350585938,126167.0,1.0
15:36:36.057684,164247.234375,186866.765625,179605.3125,195823.28125,188034.5,186157.3125,691273.875,197949.109375,0.048095703125,1.012939453125,-0.015625,-1.7089842557907104,0.0,0.2441406100988388,93.33334350585938,126168.0,1.0
15:36:36.067587,164220.15625,186863.625,179608.703125,195827.578125,188031.46875,186161.078125,690548.625,197953.140625,0.04736328125,1.014892578125,-0.0166015625,-1.8005369901657104,0.0,0.3356933295726776,93.33334350585938,126169.0,1.0
15:36:36.071894,164350.59375,186881.609375,179628.375,195856.28125,188047.296875,186164.65625,690593.1875,197959.125,0.047607421875,1.016357421875,-0.020751953125,-1.7700194120407104,-0.0610351525247097,0.2441406100988388,93.33334350585938,126170.0,1.0
15:36:36.071958,164392.890625,186891.703125,179629.171875,195843.578125,188056.046875,186166.34375,691284.4375,197955.8125,0.046875,1.013427734375,-0.02294921875,-1.7700194120407104,-0.0915527269244194,0.2746581733226776,93.33334350585938,126171.0,1.0
15:36:36.078889,164274.6875,186875.34375,179611.921875,195825.703125,188042.109375,186165.0,691402.9375,197953.765625,0.0458984375,1.0146484375,-0.019775390625,-1.7700194120407104,-0.0610351525247097,0.2441406100988388,93.33334350585938,126172.0,1.0
15:36:36.083112,164213.0,186862.734375,179606.921875,195826.6875,188031.46875,186164.46875,690641.75,197953.765625,0.0478515625,1.01416015625,-0.018310546875,-1.8920897245407104,0.03051757626235485,0.2441406100988388,93.33334350585938,126173.0,1.0
15:36:36.083183,164323.234375,186877.9375,179622.65625,195843.578125,188043.09375,186165.09375,690535.8125,197956.359375,0.046630859375,1.016357421875,-0.016845703125,-1.9226073026657104,-0.1525878757238388,0.2441406100988388,93.33334350585938,126174.0,1.0
15:36:36.089676,164400.03125,186895.109375,179630.515625,195849.21875,188057.578125,186168.765625,691160.5625,197957.25,0.04736328125,1.01708984375,-0.01806640625,-1.8920897245407104,-0.0915527269244194,0.2746581733226776,93.33334350585938,126175.0,1.0
15:36:36.089769,164296.140625,186883.65625,179616.65625,195821.234375,188049.171875,186170.1875,691486.625,197954.296875,0.047607421875,1.015625,-0.018798828125,-1.9226073026657104,-0.1220703050494194,0.3051757514476776,93.33334350585938,126176.0,1.0
15:36:36.091449,164211.484375,186867.390625,179609.59375,195832.3125,188036.828125,186169.125,690745.8125,197958.59375,0.047607421875,1.0166015625,-0.0166015625,-1.9836424589157104,-0.1220703050494194,0.2746581733226776,93.33334350585938,126177.0,1.0
15:36:36.105142,164304.375,186881.875,179626.3125,195845.8125,188048.1875,186172.6875,690489.9375,197960.296875,0.0478515625,1.014892578125,-0.017822265625,-1.9531248807907104,-0.1525878757238388,0.1831054538488388,93.33334350585938,126178.0,1.0
15:36:36.108169,164403.4375,186895.375,179633.828125,195857.96875,188060.078125,186171.078125,691014.125,197958.0625,0.044921875,1.013671875,-0.0185546875,-2.044677495956421,-0.1831054538488388,0.2441406100988388,93.33334350585938,126179.0,1.0
15:36:36.108211,164320.5625,186888.84375,179620.6875,195819.4375,188053.1875,186172.875,691520.1875,197951.171875,0.044921875,1.013427734375,-0.015869140625,-2.014159917831421,-0.1831054538488388,0.3051757514476776,93.33334350585938,126180.0,1.0
15:36:36.110014,164213.171875,186866.578125,179607.09375,195828.828125,188036.734375,186166.890625,690866.0,197953.140625,0.045654296875,1.01318359375,-0.015380859375,-2.105712652206421,-0.1831054538488388,0.3356933295726776,93.33334350585938,126181.0,1.0
15:36:36.118844,164278.890625,186877.671875,179624.34375,195835.625,188044.703125,186168.21875,690466.1875,197955.640625,0.04541015625,1.011962890625,-0.0166015625,-2.075195074081421,-0.2136230319738388,0.3051757514476776,93.33334350585938,126182.0,1.0
15:36:36.123141,164404.59375,186897.515625,179641.78125,195869.234375,188061.6875,186168.5,690878.125,197961.625,0.045166015625,1.010986328125,-0.015869140625,-1.9531248807907104,-0.2441406100988388,0.3051757514476776,93.33334350585938,126183.0,1.0
15:36:36.123202,164350.5,186896.53125,179632.84375,195831.234375,188061.5,186172.421875,691510.6875,197956.265625,0.04541015625,1.011474609375,-0.018798828125,-1.9531248807907104,-0.2136230319738388,0.3967284858226776,93.33334350585938,126184.0,1.0
15:36:36.133136,164229.0,186871.953125,179615.140625,195837.859375,188042.90625,186168.5,690999.75,197958.140625,0.046630859375,1.012451171875,-0.016845703125,-2.014159917831421,-0.3051757514476776,0.4272460639476776,93.33334350585938,126185.0,1.0
15:36:36.133204,164259.3125,186874.359375,179620.765625,195831.15625,188041.03125,186170.28125,690474.3125,197954.125,0.046630859375,1.012451171875,-0.01318359375,-1.9226073026657104,-0.3051757514476776,0.3051757514476776,93.33334350585938,126186.0,1.0
15:36:36.148076,164390.734375,186890.453125,179634.1875,195862.171875,188052.5625,186168.5,690771.1875,197955.734375,0.045654296875,1.011962890625,-0.01708984375,-1.9836424589157104,-0.4272460639476776,0.2746581733226776,93.33334350585938,126187.0,1.0
15:36:36.148116,164363.828125,186892.515625,179625.25,195824.8125,188051.21875,186169.65625,691474.0625,197948.484375,0.0458984375,1.01220703125,-0.014404296875,-1.8920897245407104,-0.3662109076976776,0.3662109076976776,93.33334350585938,126188.0,1.0
15:36:36.149999,164233.828125,186866.671875,179606.015625,195825.515625,188032.1875,186163.046875,691149.875,197948.84375,0.0439453125,1.0107421875,-0.018310546875,-1.8615721464157104,-0.3356933295726776,0.3662109076976776,93.33334350585938,126189.0,1.0
15:36:36.152548,164231.15625,186863.546875,179609.328125,195820.875,188030.578125,186162.40625,690503.25,197946.875,0.0439453125,1.011962890625,-0.017578125,-1.8310545682907104,-0.4882812201976776,0.3662109076976776,93.33334350585938,126190.0,1.0
15:36:36.158726,164369.90625,186884.109375,179630.15625,195857.53125,188049.34375,186165.09375,690669.8125,197954.75,0.044921875,1.010498046875,-0.016845703125,-1.8310545682907104,-0.5493163466453552,0.3051757514476776,93.33334350585938,126191.0,1.0
15:36:36.163059,164379.296875,186891.796875,179625.25,195831.0625,188052.65625,186165.71875,691394.75,197948.84375,0.04736328125,1.012939453125,-0.01513671875,-1.7700194120407104,-0.3967284858226776,0.3356933295726776,93.33334350585938,126192.0,1.0
15:36:36.163080,164253.046875,186871.234375,179607.1875,195824.71875,188035.9375,186162.6875,691287.4375,197949.921875,0.046630859375,1.0107421875,-0.016845703125,-1.7089842557907104,-0.3967284858226776,0.3662109076976776,93.33334350585938,126193.0,1.0
15:36:36.168744,164223.015625,186865.78125,179611.109375,195827.484375,188031.28125,186164.015625,690554.5625,197952.0625,0.049072265625,1.011962890625,-0.017333984375,-1.6784666776657104,-0.3356933295726776,0.5187987685203552,93.33334350585938,126194.0,1.0
15:36:36.176887,164353.1875,186883.484375,179629.796875,195856.984375,188046.84375,186163.84375,690587.875,197956.71875,0.04931640625,1.01416015625,-0.01806640625,-1.7395018339157104,-0.2746581733226776,0.5798339247703552,93.33334350585938,126195.0,1.0
15:36:36.176911,164398.96875,186896.625,179634.09375,195843.9375,188056.671875,186167.0625,691278.25,197953.859375,0.05029296875,1.01318359375,-0.0166015625,-1.7089842557907104,-0.2136230319738388,0.6408690810203552,93.33334350585938,126196.0,1.0
15:36:36.178719,164278.265625,186878.203125,179615.859375,195824.453125,188042.828125,186165.28125,691397.5,197950.1875,0.052001953125,1.0107421875,-0.01708984375,-1.6174315214157104,-0.2746581733226776,0.6408690810203552,93.33334350585938,126197.0,1.0
15:36:36.183056,164216.21875,186865.421875,179610.578125,195827.125,188033.34375,186163.75,690632.0,197951.078125,0.05029296875,1.00830078125,-0.017578125,-1.5869139432907104,-0.2746581733226776,0.7019042372703552,93.33334350585938,126198.0,1.0
15:36:36.183075,164330.03125,186882.40625,179629.890625,195846.703125,188046.484375,186165.8125,690523.125,197956.0,0.049560546875,1.0087890625,-0.01708984375,-1.5869139432907104,-0.3356933295726776,0.7019042372703552,93.33334350585938,126199.0,1.0
15:36:36.190570,164404.421875,186896.4375,179635.53125,195849.578125,188057.390625,186166.609375,691147.625,197955.640625,0.049072265625,1.01025390625,-0.016845703125,-1.5258787870407104,-0.3356933295726776,0.7019042372703552,93.33334350585938,126200.0,1.0
15:36:36.190610,164297.75,186881.609375,179616.484375,195818.546875,188043.359375,186164.828125,691475.625,197949.65625,0.048095703125,1.01123046875,-0.021728515625,-1.4648436307907104,-0.3051757514476776,0.7324218153953552,93.33334350585938,126201.0,1.0
15:36:36.195046,164212.375,186863.453125,179608.4375,195830.4375,188029.671875,186162.140625,690735.4375,197952.78125,0.04736328125,1.012451171875,-0.01806640625,-1.4343260526657104,-0.2441406100988388,0.7934569716453552,93.33334350585938,126202.0,1.0
15:36:36.201871,164303.484375,186876.328125,179624.4375,195841.34375,188040.9375,186164.109375,690474.75,197955.015625,0.048583984375,1.013916015625,-0.017578125,-1.5258787870407104,-0.1831054538488388,0.6408690810203552,93.33334350585938,126203.0,1.0
15:36:36.201902,164406.75,186892.875,179635.078125,195858.421875,188055.34375,186165.546875,691003.25,197957.15625,0.04931640625,1.013671875,-0.017333984375,-1.4648436307907104,-0.0915527269244194,0.5493163466453552,93.33334350585938,126204.0,1.0
15:36:36.240053,164320.5625,186882.140625,179617.546875,195817.828125,188045.765625,186163.75,691507.9375,197948.3125,0.049560546875,1.012939453125,-0.02099609375,-1.3122557401657104,-0.1220703050494194,0.4272460639476776,93.33334350585938,126205.0,1.0
15:36:36.254392,164214.4375,186861.125,179605.9375,195828.65625,188029.859375,186159.546875,690854.25,197951.4375,0.04931640625,1.014892578125,-0.017822265625,-1.3427733182907104,-0.0610351525247097,0.4577636420726776,93.33334350585938,126206.0,1.0
15:36:36.254424,164275.765625,186869.09375,179618.0,195829.8125,188036.203125,186160.359375,690457.9375,197950.71875,0.050537109375,1.012451171875,-0.0205078125,-1.2817381620407104,0.0,0.3967284858226776,93.33334350585938,126207.0,1.0
15:36:36.256267,164394.5,186881.25,179626.765625,195854.75,188047.828125,186157.234375,690883.3125,197951.796875,0.048583984375,1.01416015625,-0.018310546875,-1.3122557401657104,0.0,0.2746581733226776,93.33334350585938,126208.0,1.0
15:36:36.258757,164335.125,186874.71875,179611.203125,195811.9375,188042.015625,186155.53125,691506.0625,197943.296875,0.047119140625,1.014404296875,-0.017578125,-1.3427733182907104,-0.03051757626235485,0.2136230319738388,93.33334350585938,126209.0,1.0
15:36:36.261863,164212.015625,186849.953125,179594.3125,195820.328125,188023.59375,186150.4375,690998.25,197946.4375,0.04638671875,1.01513671875,-0.0166015625,-1.3427733182907104,-0.03051757626235485,0.0915527269244194,93.33334350585938,126210.0,1.0
15:36:36.261904,164246.078125,186858.71875,179606.46875,195821.40625,188028.78125,186156.609375,690467.4375,197947.6875,0.045166015625,1.015625,-0.01513671875,-1.3122557401657104,0.1220703050494194,-0.03051757626235485,93.33334350585938,126211.0,1.0
15:36:36.265477,164382.875,186882.765625,179626.40625,195858.875,188046.84375,186161.34375,690769.25,197953.234375,0.043701171875,1.014892578125,-0.016357421875,-1.4343260526657104,0.03051757626235485,-0.1831054538488388,93.33334350585938,126212.0,1.0
15:36:36.265486,164363.734375,186889.921875,179620.6875,195824.171875,188047.296875,186165.09375,691469.5,197946.34375,0.04345703125,1.016357421875,-0.01416015625,-1.4343260526657104,0.0,-0.2746581733226776,93.33334350585938,126213.0,1.0
15:36:36.265489,164237.9375,186868.109375,179604.40625,195826.953125,188030.84375,186162.859375,691149.3125,197949.03125,0.044189453125,1.01416015625,-0.017333984375,-1.5869139432907104,-0.1220703050494194,-0.3967284858226776,93.33334350585938,126214.0,1.0
15:36:36.265492,164238.296875,186868.109375,179610.484375,195825.875,188029.5,186164.375,690501.75,197951.4375,0.04638671875,1.014404296875,-0.01904296875,-1.6479490995407104,-0.0610351525247097,-0.4577636420726776,93.33334350585938,126215.0,1.0
15:36:36.267520,164376.171875,186887.328125,179631.234375,195862.984375,188046.21875,186165.625,690661.1875,197959.03125,0.046875,1.013916015625,-0.021728515625,-1.8005369901657104,-0.0610351525247097,-0.4577636420726776,93.33334350585938,126216.0,1.0
15:36:36.270687,164386.359375,186894.390625,179630.078125,195835.53125,188054.09375,186168.3125,691387.25,197955.46875,0.045654296875,1.013427734375,-0.018798828125,-1.8005369901657104,-0.0610351525247097,-0.4272460639476776,93.33334350585938,126217.0,1.0
15:36:36.270720,164263.515625,186876.59375,179616.390625,195829.09375,188043.453125,186168.3125,691287.0,197957.15625,0.046875,1.013916015625,-0.019287109375,-1.7700194120407104,-0.0610351525247097,-0.3356933295726776,93.33334350585938,126218.0,1.0
15:36:36.273196,164232.484375,186872.484375,179618.453125,195827.671875,188039.0625,186169.390625,690561.75,197956.890625,0.049072265625,1.01416015625,-0.01904296875,-1.8005369901657104,-0.0915527269244194,-0.3356933295726776,93.33334350585938,126219.0,1.0
15:36:36.273236,164364.71875,186894.03125,179640.796875,195856.8125,188056.140625,186172.34375,690580.3125,197962.171875,0.048828125,1.01318359375,-0.013427734375,-1.8310545682907104,-0.1220703050494194,-0.3356933295726776,93.33334350585938,126220.0,1.0
15:36:36.275218,164410.5,186906.8125,179643.484375,195845.015625,188065.4375,186174.03125,691271.625,197958.953125,0.047607421875,1.013671875,-0.015869140625,-1.8310545682907104,-0.03051757626235485,-0.1831054538488388,93.33334350585938,126221.0,1.0
15:36:36.277611,164292.84375,186891.171875,179626.3125,195827.75,188051.140625,186173.328125,691400.3125,197958.234375,0.045166015625,1.012939453125,-0.014404296875,-1.9531248807907104,0.0,-0.1525878757238388,93.33334350585938,126222.0,1.0
15:36:36.280207,164232.3125,186878.921875,179622.03125,195833.484375,188040.859375,186172.6875,690637.4375,197960.640625,0.045654296875,1.014892578125,-0.015869140625,-1.9836424589157104,0.03051757626235485,-0.03051757626235485,93.33334350585938,126223.0,1.0
15:36:36.286991,164345.234375,186894.390625,179641.34375,195853.953125,188054.171875,186173.59375,690523.375,197963.59375,0.044677734375,1.01318359375,-0.015625,-1.9836424589157104,0.1220703050494194,0.0915527269244194,93.33334350585938,126224.0,1.0
15:36:36.287059,164419.34375,186905.125,179646.796875,195855.03125,188064.28125,186172.0625,691145.5,197960.734375,0.043701171875,1.013427734375,-0.01513671875,-2.044677495956421,0.1220703050494194,0.1220703050494194,93.33334350585938,126225.0,1.0
15:36:36.295138,164312.0625,186886.96875,179629.0,195820.421875,188053.1875,186167.59375,691479.6875,197953.234375,0.042724609375,1.0166015625,-0.013671875,-2.044677495956421,0.0610351525247097,0.1831054538488388,93.33334350585938,126226.0,1.0
15:36:36.302506,164221.578125,186865.953125,179617.203125,195824.171875,188039.25,186163.75,690731.8125,197952.515625,0.04150390625,1.01708984375,-0.015380859375,-2.166747808456421,-0.0610351525247097,0.1831054538488388,93.33334350585938,126227.0,1.0
15:36:36.302592,164307.328125,186876.59375,179628.640625,195833.125,188046.84375,186163.75,690481.6875,197952.953125,0.041748046875,1.0146484375,-0.01416015625,-2.166747808456421,-0.1525878757238388,0.2136230319738388,93.33334350585938,126228.0,1.0
15:36:36.304748,164406.46875,186888.9375,179635.53125,195851.1875,188056.765625,186160.453125,691009.875,197953.578125,0.039794921875,1.016357421875,-0.016357421875,-2.136230230331421,-0.2746581733226776,0.3967284858226776,93.33334350585938,126229.0,1.0
15:36:36.304804,164323.859375,186881.0625,179620.328125,195811.65625,188046.671875,186159.90625,691516.625,197945.625,0.04248046875,1.0146484375,-0.0146484375,-2.197265386581421,-0.2746581733226776,0.3967284858226776,93.33334350585938,126230.0,1.0
15:36:36.316301,164219.25,186862.65625,179609.78125,195822.21875,188031.375,186158.390625,690860.0625,197949.390625,0.0400390625,1.01416015625,-0.013916015625,-2.288818120956421,-0.3051757514476776,0.3662109076976776,93.33334350585938,126231.0,1.0
15:36:36.319350,164285.0625,186876.78125,179627.390625,195828.109375,188042.90625,186164.921875,690464.3125,197951.0,0.041015625,1.011962890625,-0.0126953125,-2.288818120956421,-0.4272460639476776,0.3356933295726776,93.33334350585938,126232.0,1.0
15:36:36.319371,164408.890625,186895.46875,179643.578125,195856.359375,188060.078125,186166.609375,690884.75,197952.953125,0.0400390625,1.012451171875,-0.013427734375,-2.288818120956421,-0.4577636420726776,0.2136230319738388,93.33334350585938,126233.0,1.0
15:36:36.321308,164348.890625,186888.578125,179628.015625,195807.90625,188052.921875,186163.9375,691515.0,197939.8125,0.041259765625,1.011962890625,-0.01416015625,-2.349853277206421,-0.4577636420726776,0.3356933295726776,93.33334350585938,126234.0,1.0
15:36:36.354585,164225.34375,186863.359375,179609.5,195811.65625,188033.875,186158.75,691005.75,197940.796875,0.044189453125,1.01318359375,-0.012939453125,-2.288818120956421,-0.5798339247703552,0.3051757514476776,93.33334350585938,126235.0,1.0
15:36:36.354657,164253.5,186865.234375,179615.140625,195809.421875,188034.328125,186160.0,690472.125,197940.171875,0.045166015625,1.01025390625,-0.0146484375,-2.258300542831421,-0.5798339247703552,0.3051757514476776,93.33334350585938,126236.0,1.0
15:36:36.356309,164386.625,186883.75,179631.5,195846.171875,188048.71875,186159.28125,690767.0,197945.8125,0.043701171875,1.013427734375,-0.013671875,-2.319335699081421,-0.5493163466453552,0.3356933295726776,93.33334350585938,126237.0,1.0
15:36:36.358952,164365.703125,186888.671875,179627.03125,195813.8125,188051.671875,186162.140625,691472.8125,197942.234375,0.04443359375,1.011474609375,-0.0146484375,-2.288818120956421,-0.6408690810203552,0.3967284858226776,93.33334350585938,126238.0,1.0
15:36:36.361309,164240.625,186866.5,179612.015625,195819.625,188036.03125,186160.359375,691151.4375,197947.421875,0.045654296875,1.01171875,-0.014404296875,-2.227782964706421,-0.6408690810203552,0.2746581733226776,93.33334350585938,126239.0,1.0
15:36:36.363868,164240.09375,186865.421875,179617.546875,195819.703125,188034.421875,186162.140625,690502.3125,197948.046875,0.046875,1.01123046875,-0.011962890625,-2.197265386581421,-0.6103515028953552,0.3356933295726776,93.33334350585938,126240.0,1.0
15:36:36.366287,164374.734375,186882.140625,179633.921875,195852.078125,188048.984375,186160.453125,690675.625,197951.34375,0.045654296875,1.011474609375,-0.013671875,-2.105712652206421,-0.4882812201976776,0.4577636420726776,93.33334350585938,126241.0,1.0
15:36:36.368838,164383.59375,186888.21875,179629.625,195823.015625,188053.453125,186160.453125,691394.625,197945.265625,0.047607421875,1.01318359375,-0.0146484375,-2.136230230331421,-0.5187987685203552,0.3967284858226776,93.33334350585938,126242.0,1.0
15:36:36.371312,164258.421875,186869.0,179613.890625,195817.5625,188040.3125,186158.390625,691298.875,197948.3125,0.048583984375,1.012451171875,-0.015380859375,-2.136230230331421,-0.5187987685203552,0.4272460639476776,93.33334350585938,126243.0,1.0
15:36:36.373917,164228.640625,186864.609375,179616.75,195819.703125,188037.1875,186160.171875,690575.0625,197950.8125,0.048583984375,1.01318359375,-0.014892578125,-2.166747808456421,-0.3967284858226776,0.4577636420726776,93.33334350585938,126244.0,1.0
15:36:36.376428,164356.671875,186881.515625,179635.25,195848.3125,188051.671875,186161.96875,690585.8125,197956.265625,0.0478515625,1.013916015625,-0.016357421875,-2.044677495956421,-0.3356933295726776,0.3967284858226776,93.33334350585938,126245.0,1.0
15:36:36.379385,164399.765625,186890.984375,179633.921875,195835.359375,188055.78125,186160.796875,691272.8125,197951.53125,0.04736328125,1.011474609375,-0.015625,-1.9836424589157104,-0.2441406100988388,0.4272460639476776,93.33334350585938,126246.0,1.0
15:36:36.379445,164284.25,186878.390625,179619.96875,195818.28125,188044.515625,186162.765625,691403.3125,197950.015625,0.046142578125,1.010498046875,-0.0146484375,-1.9531248807907104,-0.2136230319738388,0.3967284858226776,93.33334350585938,126247.0,1.0
15:36:36.381317,164226.046875,186869.625,179618.71875,195824.453125,188038.4375,186166.53125,690640.875,197951.890625,0.04638671875,1.01025390625,-0.013671875,-1.8920897245407104,-0.2441406100988388,0.4272460639476776,93.33334350585938,126248.0,1.0
15:36:36.389357,164340.84375,186889.109375,179639.453125,195845.546875,188054.09375,186172.25,690526.3125,197956.625,0.046875,1.008544921875,-0.0126953125,-1.8005369901657104,-0.1220703050494194,0.3051757514476776,93.33334350585938,126249.0,1.0
15:36:36.389401,164418.90625,186905.65625,179647.140625,195848.3125,188067.9375,186175.109375,691147.625,197957.515625,0.047607421875,1.011474609375,-0.01318359375,-1.7089842557907104,-0.1525878757238388,0.1220703050494194,93.33334350585938,126250.0,1.0
15:36:36.393774,164314.46875,186892.421875,179630.515625,195817.296875,188059.1875,186173.859375,691485.125,197952.953125,0.04638671875,1.010498046875,-0.01513671875,-1.7089842557907104,-0.1525878757238388,0.3662109076976776,93.33334350585938,126251.0,1.0
15:36:36.396268,164228.828125,186875.078125,179624.4375,195827.125,188049.265625,186172.15625,690748.875,197957.15625,0.0478515625,1.011962890625,-0.016357421875,-1.6174315214157104,-0.03051757626235485,0.3356933295726776,93.33334350585938,126252.0,1.0
15:36:36.400610,164318.5,186887.140625,179641.25,195835.09375,188059.8125,186174.75,690485.5625,197957.515625,0.04931640625,1.01025390625,-0.014404296875,-1.5869139432907104,0.0915527269244194,0.3662109076976776,93.33334350585938,126253.0,1.0
15:36:36.400645,164420.25,186903.15625,179650.28125,195849.03125,188073.21875,186174.65625,691009.875,197958.140625,0.048583984375,1.011474609375,-0.01806640625,-1.4343260526657104,0.1220703050494194,0.3356933295726776,93.33334350585938,126254.0,1.0
15:36:36.410451,164335.671875,186895.90625,179635.25,195809.6875,188065.890625,186175.640625,691522.75,197950.90625,0.048095703125,1.011474609375,-0.017333984375,-1.4038084745407104,0.1220703050494194,0.3967284858226776,93.33334350585938,126255.0,1.0
15:36:36.414375,164226.59375,186876.15625,179621.75,195818.546875,188051.578125,186174.9375,690869.0,197953.765625,0.04638671875,1.010009765625,-0.018310546875,-1.3427733182907104,0.1831054538488388,0.2441406100988388,93.33334350585938,126256.0,1.0
15:36:36.414434,164285.59375,186886.25,179632.84375,195819.078125,188059.359375,186180.109375,690469.5,197953.671875,0.04541015625,1.011474609375,-0.020263671875,-1.3732908964157104,0.2441406100988388,0.3051757514476776,93.33334350585938,126257.0,1.0
15:36:36.420063,164411.9375,186906.546875,179650.1875,195849.65625,188077.953125,186182.171875,690891.1875,197960.734375,0.043212890625,1.0126953125,-0.01708984375,-1.2817381620407104,0.3051757514476776,0.3051757514476776,93.33334350585938,126258.0,1.0
15:36:36.426864,164356.234375,186901.8125,179638.03125,195809.609375,188073.84375,186181.015625,691522.875,197952.421875,0.0439453125,1.01416015625,-0.01416015625,-1.2512205839157104,0.2746581733226776,0.4272460639476776,93.33334350585938,126259.0,1.0
15:36:36.426901,164235.078125,186875.171875,179621.578125,195817.390625,188056.234375,186174.65625,691011.625,197953.859375,0.04443359375,1.0126953125,-0.015625,-1.1901854276657104,0.3051757514476776,0.3356933295726776,93.33334350585938,126260.0,1.0
15:36:36.437516,164264.140625,186877.046875,179629.625,195814.34375,188057.578125,186174.21875,690475.25,197951.890625,0.0439453125,1.01318359375,-0.015625,-1.1901854276657104,0.2746581733226776,0.3662109076976776,93.33334350585938,126261.0,1.0
15:36:36.444963,164397.265625,186894.5625,179644.90625,195847.0625,188072.0625,186172.515625,690766.0625,197955.375,0.0439453125,1.01171875,-0.02001953125,-1.2512205839157104,0.2746581733226776,0.2136230319738388,93.33334350585938,126262.0,1.0
15:36:36.444995,164370.171875,186893.5,179634.0,195806.46875,188067.3125,186170.1875,691468.75,197944.203125,0.044677734375,1.010986328125,-0.01806640625,-1.2207030057907104,0.2746581733226776,0.2441406100988388,93.33334350585938,126263.0,1.0
15:36:36.445007,164239.828125,186867.203125,179612.90625,195807.28125,188044.515625,186161.609375,691156.75,197944.203125,0.043701171875,1.013671875,-0.014404296875,-1.2207030057907104,0.3051757514476776,0.1525878757238388,93.33334350585938,126264.0,1.0
15:36:36.448123,164240.453125,186867.5625,179618.09375,195808.078125,188042.375,186162.5,690515.0625,197945.71875,0.0419921875,1.013916015625,-0.016357421875,-1.1596678495407104,0.3051757514476776,0.1831054538488388,93.33334350585938,126265.0,1.0
15:36:36.448148,164376.796875,186885.984375,179638.203125,195845.71875,188058.015625,186160.796875,690675.125,197952.0625,0.04345703125,1.012451171875,-0.0185546875,-1.2207030057907104,0.2136230319738388,0.0610351525247097,93.33334350585938,126266.0,1.0
15:36:36.450050,164389.484375,186894.828125,179637.40625,195821.234375,188062.3125,186162.59375,691392.875,197947.140625,0.043212890625,1.011962890625,-0.016845703125,-1.2207030057907104,0.2746581733226776,0.1220703050494194,93.33334350585938,126267.0,1.0
15:36:36.467572,164262.4375,186872.9375,179618.625,195813.71875,188044.703125,186158.84375,691289.4375,197946.875,0.044189453125,1.01171875,-0.016357421875,-1.1901854276657104,0.2136230319738388,0.1525878757238388,93.33334350585938,126268.0,1.0
15:36:36.470057,164229.71875,186867.203125,179620.765625,195816.125,188041.75,186161.15625,690555.3125,197949.65625,0.044189453125,1.012939453125,-0.01611328125,-1.3427733182907104,0.2136230319738388,0.1525878757238388,93.33334350585938,126269.0,1.0
15:36:36.472523,164360.25,186886.875,179643.65625,195848.40625,188060.796875,186166.96875,690587.1875,197958.40625,0.046630859375,1.0126953125,-0.01611328125,-1.3427733182907104,0.2136230319738388,0.1525878757238388,93.33334350585938,126270.0,1.0
15:36:36.475120,164405.84375,186898.59375,179644.90625,195834.90625,188069.640625,186170.1875,691278.8125,197956.359375,0.045654296875,1.011962890625,-0.017822265625,-1.2512205839157104,0.1831054538488388,0.2746581733226776,93.33334350585938,126271.0,1.0
15:36:36.477576,164285.328125,186879.28125,179625.25,195812.828125,188054.625,186169.125,691405.9375,197953.3125,0.047119140625,1.01220703125,-0.0166015625,-1.1901854276657104,0.1220703050494194,0.3662109076976776,93.33334350585938,126272.0,1.0
15:36:36.480148,164220.859375,186863.90625,179617.828125,195814.171875,188041.84375,186167.0625,690641.5625,197953.234375,0.048095703125,1.012939453125,-0.01806640625,-1.2512205839157104,0.1525878757238388,0.4272460639476776,93.33334350585938,126273.0,1.0
15:36:36.486905,164330.921875,186878.65625,179635.4375,195833.296875,188054.984375,186169.296875,690539.375,197956.890625,0.047119140625,1.0126953125,-0.014892578125,-1.3122557401657104,0.0915527269244194,0.5187987685203552,93.33334350585938,126274.0,1.0
15:36:36.486962,164409.875,186893.5,179644.5625,195837.765625,188067.5,186170.640625,691161.375,197958.328125,0.044677734375,1.011962890625,-0.015869140625,-1.2512205839157104,0.1220703050494194,0.6103515028953552,93.33334350585938,126275.0,1.0
15:36:36.496317,164307.140625,186881.515625,179629.71875,195809.421875,188057.125,186168.9375,691488.375,197953.5,0.04638671875,1.01318359375,-0.013916015625,-1.1901854276657104,0.1525878757238388,0.6713866591453552,93.33334350585938,126276.0,1.0
15:36:36.499378,164219.53125,186863.8125,179619.078125,195816.765625,188041.75,186164.375,690749.5625,197952.515625,0.046142578125,1.01220703125,-0.01416015625,-1.1596678495407104,0.1220703050494194,0.6713866591453552,93.33334350585938,126277.0,1.0
15:36:36.499424,164311.25,186878.921875,179635.53125,195826.59375,188052.65625,186167.328125,690484.5625,197954.5625,0.045166015625,1.0126953125,-0.017333984375,-1.2207030057907104,0.1831054538488388,0.6408690810203552,93.33334350585938,126278.0,1.0
15:36:36.502579,164417.734375,186897.609375,179649.203125,195846.359375,188069.015625,186168.21875,691006.1875,197958.6875,0.044677734375,1.012939453125,-0.017822265625,-1.2512205839157104,0.1525878757238388,0.7019042372703552,93.33334350585938,126279.0,1.0
15:36:36.511871,164333.875,186888.84375,179634.1875,195805.046875,188060.171875,186166.34375,691516.5,197949.65625,0.04296875,1.01318359375,-0.015625,-1.3122557401657104,0.1831054538488388,0.7019042372703552,93.33334350585938,126280.0,1.0
15:36:36.511912,164224.890625,186867.125,179620.0625,195811.84375,188042.46875,186162.234375,690859.375,197949.203125,0.0439453125,1.01318359375,-0.01708984375,-1.3732908964157104,0.1220703050494194,0.5493163466453552,93.33334350585938,126281.0,1.0
15:36:36.518418,164285.421875,186876.5,179632.125,195812.828125,188048.71875,186165.625,690457.375,197948.3125,0.041259765625,1.013671875,-0.01611328125,-1.4038084745407104,0.1220703050494194,0.4577636420726776,93.33334350585938,126282.0,1.0
15:36:36.518456,164411.9375,186896.625,179648.21875,195844.03125,188065.265625,186166.609375,690875.1875,197953.234375,0.041748046875,1.01220703125,-0.01806640625,-1.3732908964157104,0.0610351525247097,0.4577636420726776,93.33334350585938,126283.0,1.0
15:36:36.520199,164361.328125,186899.125,179641.25,195809.875,188066.515625,186171.890625,691511.9375,197950.90625,0.041748046875,1.010498046875,-0.018798828125,-1.4038084745407104,-0.0915527269244194,0.3051757514476776,93.33334350585938,126284.0,1.0
15:36:36.526584,164239.109375,186875.078125,179625.59375,195819.890625,188048.359375,186166.265625,691001.1875,197954.5625,0.04150390625,1.01025390625,-0.021240234375,-1.3122557401657104,-0.0915527269244194,0.1831054538488388,93.33334350585938,126285.0,1.0
15:36:36.535106,164269.59375,186879.90625,179634.8125,195819.4375,188051.140625,186168.671875,690460.4375,197956.359375,0.042724609375,1.0107421875,-0.020263671875,-1.3427733182907104,-0.0915527269244194,0.1220703050494194,93.33334350585938,126286.0,1.0
15:36:36.542142,164403.703125,186897.609375,179653.40625,195856.09375,188069.734375,186169.75,690747.5,197963.234375,0.04345703125,1.012451171875,-0.01611328125,-1.3122557401657104,-0.1525878757238388,0.0915527269244194,93.33334350585938,126287.0,1.0
15:36:36.542180,164380.8125,186899.578125,179647.59375,195820.15625,188073.046875,186172.0625,691451.5,197956.359375,0.04345703125,1.01220703125,-0.017333984375,-1.2817381620407104,-0.2136230319738388,0.03051757626235485,93.33334350585938,126288.0,1.0
15:36:36.544351,164256.1875,186878.46875,179630.875,195822.5625,188057.84375,186171.078125,691137.9375,197959.03125,0.0458984375,1.015869140625,-0.019287109375,-1.3427733182907104,-0.2136230319738388,0.1220703050494194,93.33334350585938,126289.0,1.0
15:36:36.544391,164254.484375,186878.203125,179635.53125,195818.1875,188056.953125,186175.28125,690492.0,197958.59375,0.046142578125,1.016845703125,-0.01953125,-1.2817381620407104,-0.1831054538488388,0.1525878757238388,93.33334350585938,126290.0,1.0
15:36:36.553921,164388.953125,186898.328125,179655.1875,195852.078125,188075.71875,186178.0625,690662.875,197964.84375,0.04541015625,1.016357421875,-0.021240234375,-1.3122557401657104,-0.2441406100988388,0.0915527269244194,93.33334350585938,126291.0,1.0
15:36:36.558178,164397.796875,186905.5625,179651.171875,195823.546875,188079.75,186179.84375,691375.1875,197957.078125,0.04638671875,1.017333984375,-0.02099609375,-1.3732908964157104,-0.2136230319738388,0.1525878757238388,93.33334350585938,126292.0,1.0
15:36:36.558205,164269.765625,186884.640625,179631.859375,195814.609375,188061.15625,186176.546875,691273.9375,197954.75,0.0458984375,1.017578125,-0.019287109375,-1.4038084745407104,-0.0610351525247097,0.0915527269244194,93.33334350585938,126293.0,1.0
15:36:36.567560,164238.21875,186879.28125,179630.78125,195814.34375,188052.921875,186176.890625,690540.625,197954.921875,0.04736328125,1.018310546875,-0.0166015625,-1.5869139432907104,0.0,0.0915527269244194,93.33334350585938,126294.0,1.0
15:36:36.574958,164365.171875,186895.90625,179647.78125,195842.234375,188066.515625,186177.703125,690565.875,197959.671875,0.048583984375,1.0185546875,-0.014892578125,-1.5563963651657104,0.03051757626235485,0.3051757514476776,93.33334350585938,126295.0,1.0
15:36:36.574992,164408.171875,186904.3125,179645.625,195830.171875,188071.4375,186176.71875,691253.8125,197955.8125,0.04638671875,1.017578125,-0.0146484375,-1.6784666776657104,0.0,0.3051757514476776,93.33334350585938,126296.0,1.0
15:36:36.575003,164286.484375,186882.9375,179624.96875,195809.875,188053.90625,186171.078125,691380.8125,197951.703125,0.046875,1.01806640625,-0.017822265625,-1.7395018339157104,0.0915527269244194,0.3356933295726776,93.33334350585938,126297.0,1.0
15:36:36.598782,164227.390625,186872.84375,179623.09375,195818.1875,188046.046875,186171.4375,690619.25,197956.265625,0.046142578125,1.017822265625,-0.014404296875,-1.8005369901657104,0.1220703050494194,0.3662109076976776,93.33334350585938,126298.0,1.0
15:36:36.621330,164343.359375,186890.1875,179642.953125,195839.921875,188057.9375,186172.421875,690500.6875,197960.296875,0.045654296875,1.0166015625,-0.015869140625,-1.8615721464157104,0.0610351525247097,0.3662109076976776,93.33334350585938,126299.0,1.0
15:36:36.624758,164424.265625,186906.09375,179650.640625,195844.65625,188067.859375,186171.984375,691117.25,197958.5,0.043701171875,1.01611328125,-0.01806640625,-1.9836424589157104,0.03051757626235485,0.3662109076976776,93.33334350585938,126300.0,1.0
15:36:36.624819,164328.609375,186899.21875,179639.546875,195817.5625,188061.234375,186175.375,691457.625,197955.1875,0.043701171875,1.015380859375,-0.016357421875,-1.9531248807907104,0.03051757626235485,0.3051757514476776,93.33334350585938,126301.0,1.0
15:36:36.627484,164247.78125,186888.046875,179636.859375,195830.609375,188054.265625,186179.21875,690728.6875,197959.84375,0.040771484375,1.017822265625,-0.017578125,-2.044677495956421,-0.0915527269244194,0.3662109076976776,93.33334350585938,126302.0,1.0
