Timestamp,Fz,FC3,FCz,FC4,Cz,C3,C4
15:56:07.145598,151101.015625,156758.875,185071.015625,204063.75,138709.921875,158536.453125,690952.6875,177121.578125,0.047607421875,1.01171875,-0.0263671875,-1.1901854276657104,0.4272460639476776,0.4577636420726776,86.66667175292969,19740.0,1.0
15:56:07.145684,151176.484375,156768.96875,185076.75,204071.703125,138716.28125,158535.125,691144.5,177122.734375,0.049560546875,1.011962890625,-0.02490234375,-1.1291502714157104,0.3967284858226776,0.4882812201976776,86.66667175292969,19741.0,1.0
15:56:07.147470,151148.21875,156769.59375,185070.84375,204034.0625,138714.390625,158535.828125,691603.5,177114.6875,0.04736328125,1.011962890625,-0.029541015625,-1.0986326932907104,0.2746581733226776,0.4272460639476776,86.66667175292969,19742.0,1.0
15:56:07.150450,151086.0,156754.21875,185064.046875,204062.671875,138704.375,158530.5625,691365.25,177123.1875,0.04736328125,1.010009765625,-0.028564453125,-1.0681151151657104,0.2136230319738388,0.4577636420726776,86.66667175292969,19743.0,1.0
15:56:07.152991,151087.609375,156753.0625,185066.109375,204065.53125,138702.6875,158528.328125,690962.9375,177121.046875,0.045166015625,1.01318359375,-0.027099609375,-1.0375975370407104,0.2136230319738388,0.4577636420726776,86.66667175292969,19744.0,1.0
15:56:07.163133,151170.75,156767.1875,185077.90625,204077.78125,138714.578125,158530.109375,691072.625,177125.328125,0.044189453125,1.012451171875,-0.029541015625,-1.1596678495407104,0.1220703050494194,0.4882812201976776,86.66667175292969,19745.0,1.0
15:56:07.163151,151167.0,156774.34375,185076.46875,204042.296875,138719.046875,158535.203125,691548.3125,177118.8125,0.0458984375,1.01025390625,-0.029052734375,-1.1291502714157104,0.0915527269244194,0.3967284858226776,86.66667175292969,19746.0,1.0
15:56:07.165562,151099.40625,156759.046875,185069.59375,204055.796875,138712.609375,158531.28125,691456.0625,177124.265625,0.046630859375,1.010009765625,-0.028076171875,-1.0681151151657104,0.03051757626235485,0.4577636420726776,86.66667175292969,19747.0,1.0
15:56:07.165588,151086.625,156755.734375,185070.578125,204067.953125,138711.796875,158530.734375,690996.0,177126.046875,0.045166015625,1.011474609375,-0.029052734375,-0.9765624403953552,0.0915527269244194,0.4272460639476776,86.66667175292969,19748.0,1.0
15:56:07.181498,151165.21875,156770.578125,185081.75,204076.4375,138721.28125,158534.765625,691039.0625,177128.90625,0.048583984375,1.01220703125,-0.03125,-0.9765624403953552,0.0915527269244194,0.3662109076976776,86.66667175292969,19749.0,1.0
15:56:07.184645,151180.859375,156779.078125,185081.484375,204048.28125,138726.015625,158538.515625,691487.1875,177120.859375,0.04931640625,1.012451171875,-0.03076171875,-0.9765624403953552,0.0,0.4882812201976776,86.66667175292969,19750.0,1.0
15:56:07.184716,151113.09375,156769.421875,185075.84375,204048.09375,138719.671875,158539.046875,691546.75,177120.6875,0.048583984375,1.013916015625,-0.030029296875,-0.9765624403953552,-0.0610351525247097,0.4272460639476776,86.66667175292969,19751.0,1.0
15:56:07.184737,151086.71875,156764.234375,185077.015625,204068.390625,138716.453125,158539.859375,691049.375,177126.046875,0.048583984375,1.0107421875,-0.030517578125,-1.0375975370407104,0.03051757626235485,0.3051757514476776,86.66667175292969,19752.0,1.0
15:56:07.186574,151150.015625,156771.484375,185081.9375,204066.96875,138720.5625,158537.890625,690994.9375,177124.0,0.04833984375,1.010498046875,-0.0322265625,-0.9460448622703552,0.03051757626235485,0.3967284858226776,86.66667175292969,19753.0,1.0
15:56:07.193837,151179.421875,156773.265625,185076.296875,204045.59375,138720.390625,158534.046875,691396.6875,177115.5,0.04833984375,1.010009765625,-0.02978515625,-1.0375975370407104,-0.0610351525247097,0.4882812201976776,86.66667175292969,19754.0,1.0
15:56:07.200592,151109.25,156757.171875,185061.640625,204027.265625,138708.046875,158527.703125,691604.375,177109.6875,0.04931640625,1.01123046875,-0.032470703125,-0.9765624403953552,-0.1220703050494194,0.5493163466453552,86.66667175292969,19755.0,1.0
15:56:07.200618,151064.453125,156739.65625,185052.609375,204052.125,138695.984375,158518.765625,691108.9375,177113.71875,0.0498046875,1.0126953125,-0.033447265625,-1.0070799589157104,0.03051757626235485,0.5798339247703552,86.66667175292969,19756.0,1.0
15:56:07.210644,151117.296875,156748.046875,185059.40625,204050.0625,138699.734375,158518.578125,690958.875,177112.640625,0.05078125,1.013427734375,-0.03369140625,-0.9460448622703552,0.03051757626235485,0.7019042372703552,86.66667175292969,19757.0,1.0
15:56:07.210673,151172.453125,156760.75,185063.78125,204045.15625,138706.96875,158521.078125,691295.3125,177112.546875,0.05126953125,1.014892578125,-0.03125,-0.9155272841453552,0.0610351525247097,0.6713866591453552,86.66667175292969,19758.0,1.0
15:56:07.213359,151120.859375,156760.125,185058.328125,204020.109375,138705.359375,158527.515625,691630.3125,177109.78125,0.05126953125,1.01171875,-0.030517578125,-0.8544921278953552,0.0610351525247097,0.6713866591453552,86.66667175292969,19759.0,1.0
15:56:07.213381,151072.859375,156748.046875,185054.21875,204056.953125,138699.375,158526.0,691193.5,177119.609375,0.0498046875,1.01025390625,-0.03125,-1.0070799589157104,0.0915527269244194,0.6103515028953552,86.66667175292969,19760.0,1.0
15:56:07.230606,151106.921875,156753.78125,185060.734375,204053.828125,138703.21875,158525.828125,690959.0625,177117.828125,0.04931640625,1.010009765625,-0.0322265625,-0.9765624403953552,0.0915527269244194,0.6713866591453552,86.66667175292969,19761.0,1.0
15:56:07.230632,151175.21875,156764.859375,185068.15625,204057.40625,138711.890625,158526.890625,691230.5,177120.0625,0.049072265625,1.011474609375,-0.031494140625,-1.0070799589157104,0.0610351525247097,0.7324218153953552,86.66667175292969,19762.0,1.0
15:56:07.230640,151130.515625,156760.484375,185059.75,204019.84375,138707.421875,158527.515625,691636.875,177109.953125,0.048583984375,1.010498046875,-0.030517578125,-0.9765624403953552,0.0,0.7324218153953552,86.66667175292969,19763.0,1.0
15:56:07.236776,151070.078125,156741.609375,185049.46875,204048.546875,138695.171875,158521.0,691283.25,177114.15625,0.0498046875,1.01416015625,-0.03076171875,-1.0375975370407104,0.0610351525247097,0.7629393935203552,86.66667175292969,19764.0,1.0
15:56:07.237233,151087.34375,156743.84375,185052.34375,204044.875,138695.984375,158520.90625,690960.5,177111.65625,0.048095703125,1.013916015625,-0.03076171875,-1.0681151151657104,0.0915527269244194,0.6713866591453552,86.66667175292969,19765.0,1.0
15:56:07.246902,151166.90625,156757.0,185063.78125,204054.453125,138707.25,158522.15625,691161.1875,177114.875,0.046142578125,1.012451171875,-0.03173828125,-1.1596678495407104,0.0,0.7934569716453552,86.66667175292969,19766.0,1.0
15:56:07.246925,151145.71875,156763.703125,185064.40625,204018.859375,138712.78125,158530.015625,691614.75,177109.515625,0.046630859375,1.0146484375,-0.031005859375,-1.0375975370407104,0.0,0.6713866591453552,86.66667175292969,19767.0,1.0
15:56:07.255464,151082.875,156749.125,185057.515625,204045.421875,138705.453125,158526.984375,691377.5625,177116.84375,0.049072265625,1.01318359375,-0.033203125,-1.1596678495407104,-0.03051757626235485,0.5798339247703552,86.66667175292969,19768.0,1.0
15:56:07.255490,151087.875,156753.953125,185063.328125,204053.375,138707.78125,158531.0,690972.1875,177120.5,0.048095703125,1.01318359375,-0.0341796875,-1.3427733182907104,-0.03051757626235485,0.5493163466453552,86.66667175292969,19769.0,1.0
15:56:07.268082,151169.140625,156767.984375,185074.234375,204065.0,138716.1875,158532.53125,691082.8125,177124.0,0.047119140625,1.014404296875,-0.035400390625,-1.2512205839157104,-0.03051757626235485,0.3967284858226776,86.66667175292969,19770.0,1.0
15:56:07.268107,151167.171875,156775.40625,185074.0625,204033.4375,138719.046875,158535.921875,691552.875,177116.390625,0.04833984375,1.015380859375,-0.033203125,-1.3427733182907104,-0.1220703050494194,0.4882812201976776,86.66667175292969,19771.0,1.0
15:56:07.273700,151100.390625,156762.0,185068.078125,204046.484375,138712.421875,158533.15625,691467.6875,177119.515625,0.048095703125,1.016357421875,-0.031982421875,-1.4648436307907104,-0.03051757626235485,0.4272460639476776,86.66667175292969,19772.0,1.0
15:56:07.276784,151090.46875,156762.890625,185074.328125,204059.1875,138715.375,158536.28125,690999.5,177122.390625,0.050048828125,1.017333984375,-0.03369140625,-1.4953612089157104,-0.0610351525247097,0.4272460639476776,86.66667175292969,19773.0,1.0
15:56:07.276809,151169.140625,156776.9375,185087.5625,204065.890625,138727.1875,158538.703125,691024.25,177124.0,0.05078125,1.0185546875,-0.031494140625,-1.5869139432907104,-0.1220703050494194,0.4882812201976776,86.66667175292969,19774.0,1.0
15:56:07.276817,151185.234375,156782.109375,185085.6875,204037.28125,138731.203125,158539.40625,691473.125,177117.90625,0.0517578125,1.017333984375,-0.02880859375,-1.7395018339157104,-0.1525878757238388,0.5493163466453552,86.66667175292969,19775.0,1.0
15:56:07.284369,151109.78125,156762.890625,185069.0625,204031.5625,138716.546875,158531.359375,691546.125,177117.46875,0.050048828125,1.018310546875,-0.031005859375,-1.8920897245407104,-0.0610351525247097,0.5493163466453552,86.66667175292969,19776.0,1.0
15:56:07.284395,151075.359375,156750.375,185062.078125,204049.796875,138707.59375,158526.265625,691039.875,177121.484375,0.051513671875,1.01611328125,-0.032470703125,-1.9531248807907104,-0.03051757626235485,0.6408690810203552,86.66667175292969,19777.0,1.0
15:56:07.291966,151137.765625,156759.765625,185069.59375,204050.78125,138713.6875,158528.328125,690985.4375,177121.765625,0.050048828125,1.0146484375,-0.0302734375,-1.9226073026657104,0.0,0.6713866591453552,86.66667175292969,19778.0,1.0
15:56:07.292006,151177.1875,156770.765625,185072.8125,204037.109375,138721.546875,158533.515625,691384.0,177120.421875,0.049560546875,1.01220703125,-0.031982421875,-1.9836424589157104,0.0610351525247097,0.6713866591453552,86.66667175292969,19779.0,1.0
15:56:07.297413,151113.09375,156759.59375,185063.328125,204020.5625,138714.21875,158531.90625,691601.8125,177116.484375,0.05029296875,1.013671875,-0.031494140625,-1.9836424589157104,0.1525878757238388,0.7934569716453552,86.66667175292969,19780.0,1.0
15:56:07.304376,151071.328125,156747.0625,185061.015625,204048.546875,138708.046875,158527.96875,691116.125,177123.28125,0.050537109375,1.012451171875,-0.03515625,-2.044677495956421,0.0915527269244194,0.7324218153953552,86.66667175292969,19781.0,1.0
15:56:07.304396,151125.78125,156759.59375,185073.890625,204048.640625,138717.96875,158532.34375,690964.5,177125.421875,0.049560546875,1.012939453125,-0.03173828125,-2.105712652206421,0.1220703050494194,0.7019042372703552,86.66667175292969,19782.0,1.0
15:56:07.309364,151184.4375,156772.90625,185080.859375,204046.21875,138728.515625,158536.546875,691300.4375,177126.671875,0.0478515625,1.01171875,-0.02880859375,-2.075195074081421,0.0610351525247097,0.7629393935203552,86.66667175292969,19783.0,1.0
15:56:07.309379,151131.421875,156769.25,185074.0625,204018.0625,138725.21875,158538.609375,691633.25,177122.203125,0.046875,1.011962890625,-0.030029296875,-2.105712652206421,0.1220703050494194,0.7934569716453552,86.66667175292969,19784.0,1.0
15:56:07.314946,151078.484375,156752.703125,185066.28125,204052.21875,138715.828125,158532.96875,691193.6875,177131.859375,0.04833984375,1.013427734375,-0.030517578125,-2.166747808456421,0.0610351525247097,0.7324218153953552,86.66667175292969,19785.0,1.0
15:56:07.325845,151111.296875,156757.171875,185072.0,204049.53125,138718.59375,158535.203125,690946.4375,177130.96875,0.049560546875,1.01220703125,-0.030029296875,-2.136230230331421,0.1220703050494194,0.7629393935203552,86.66667175292969,19786.0,1.0
15:56:07.325872,151183.90625,156768.96875,185080.59375,204056.140625,138729.953125,158537.0,691202.3125,177134.0,0.048583984375,1.009765625,-0.028564453125,-2.014159917831421,-0.03051757626235485,0.7629393935203552,86.66667175292969,19787.0,1.0
15:56:07.333021,151144.828125,156769.421875,185075.5,204020.75,138728.875,158538.421875,691626.6875,177126.5,0.046875,1.01220703125,-0.02392578125,-2.075195074081421,-0.03051757626235485,0.7629393935203552,86.66667175292969,19788.0,1.0
15:56:07.333038,151086.171875,156754.484375,185069.234375,204053.5625,138719.40625,158532.796875,691275.5,177134.984375,0.0478515625,1.010986328125,-0.027099609375,-1.9836424589157104,-0.03051757626235485,0.9155272841453552,86.66667175292969,19789.0,1.0
15:56:07.345585,151107.015625,156760.484375,185077.640625,204055.609375,138725.578125,158536.8125,690939.1875,177136.0625,0.049072265625,1.01025390625,-0.025634765625,-2.166747808456421,-0.03051757626235485,0.8544921278953552,86.66667175292969,19790.0,1.0
15:56:07.345613,151189.171875,156778.625,185093.109375,204067.328125,138741.125,158543.171875,691124.5625,177140.53125,0.0478515625,1.01123046875,-0.02978515625,-2.075195074081421,0.0610351525247097,0.8850097060203552,86.66667175292969,19791.0,1.0
15:56:07.348086,151164.671875,156782.109375,185087.46875,204025.484375,138741.125,158547.015625,691588.25,177128.640625,0.048828125,1.01025390625,-0.0263671875,-2.014159917831421,-0.1525878757238388,0.8544921278953552,86.66667175292969,19792.0,1.0
15:56:07.348119,151098.15625,156765.390625,185076.75,204048.09375,138730.125,158541.640625,691371.9375,177132.75,0.04931640625,1.011962890625,-0.02685546875,-2.075195074081421,-0.1220703050494194,0.8239745497703552,86.66667175292969,19793.0,1.0
15:56:07.349982,151095.921875,156761.109375,185075.578125,204049.4375,138726.46875,158538.34375,690960.6875,177129.453125,0.0498046875,1.0126953125,-0.026611328125,-2.044677495956421,-0.1220703050494194,0.9155272841453552,86.66667175292969,19794.0,1.0
15:56:07.359956,151175.140625,156771.03125,185082.90625,204057.84375,138732.359375,158537.09375,691062.25,177128.90625,0.051025390625,1.013427734375,-0.02734375,-2.014159917831421,-0.0610351525247097,0.8850097060203552,86.66667175292969,19795.0,1.0
15:56:07.363015,151172.71875,156775.5,185080.234375,204023.515625,138733.890625,158540.125,691535.8125,177120.15625,0.0498046875,1.01220703125,-0.027587890625,-1.8920897245407104,0.0,0.8239745497703552,86.66667175292969,19796.0,1.0
15:56:07.363033,151105.671875,156761.203125,185071.203125,204035.578125,138723.515625,158536.546875,691465.8125,177124.078125,0.049560546875,1.01171875,-0.028564453125,-1.8615721464157104,-0.0915527269244194,0.7934569716453552,86.66667175292969,19797.0,1.0
15:56:07.368671,151086.0,156753.15625,185065.921875,204043.1875,138715.640625,158532.53125,690990.625,177122.734375,0.047607421875,1.01123046875,-0.03125,-1.8920897245407104,-0.1525878757238388,0.7934569716453552,86.66667175292969,19798.0,1.0
15:56:07.379467,151157.796875,156762.984375,185072.984375,204046.484375,138720.828125,158531.28125,691015.5625,177122.65625,0.047607421875,1.011962890625,-0.02685546875,-1.8920897245407104,-0.0915527269244194,0.8239745497703552,86.66667175292969,19799.0,1.0
15:56:07.379499,151172.90625,156769.59375,185072.359375,204018.59375,138725.125,158533.234375,691454.375,177117.109375,0.05078125,1.011474609375,-0.026611328125,-1.8310545682907104,-0.03051757626235485,0.7324218153953552,86.66667175292969,19800.0,1.0
15:56:07.381821,151104.6875,156758.875,185064.3125,204015.375,138718.234375,158532.53125,691538.9375,177118.0,0.05029296875,1.012939453125,-0.026123046875,-1.8005369901657104,-0.1220703050494194,0.7629393935203552,86.66667175292969,19801.0,1.0
15:56:07.381854,151077.234375,156753.328125,185064.234375,204038.625,138714.9375,158532.609375,691038.25,177124.703125,0.04833984375,1.013916015625,-0.027099609375,-1.7089842557907104,-0.0915527269244194,0.7629393935203552,86.66667175292969,19802.0,1.0
15:56:07.391297,151140.984375,156763.609375,185070.9375,204039.078125,138719.578125,158533.15625,690985.5,177124.53125,0.048828125,1.010986328125,-0.026123046875,-1.6784666776657104,-0.03051757626235485,0.9155272841453552,86.66667175292969,19803.0,1.0
15:56:07.395555,151183.0,156776.3125,185074.78125,204025.75,138726.203125,158537.625,691380.0625,177123.1875,0.051025390625,1.01171875,-0.027099609375,-1.7089842557907104,-0.0915527269244194,0.9460448622703552,86.66667175292969,19804.0,1.0
15:56:07.395581,151119.34375,156768.265625,185066.734375,204008.671875,138718.78125,158538.15625,691599.6875,177118.984375,0.050537109375,1.01123046875,-0.02734375,-1.6479490995407104,-0.0915527269244194,0.7934569716453552,86.66667175292969,19805.0,1.0
15:56:07.401395,151076.78125,156753.78125,185060.203125,204035.859375,138709.65625,158532.34375,691110.5,177124.265625,0.05078125,1.01171875,-0.027099609375,-1.6479490995407104,-0.1525878757238388,0.9155272841453552,86.66667175292969,19806.0,1.0
15:56:07.426795,151124.0,156760.125,185066.109375,204030.125,138713.5,158531.90625,690958.1875,177120.859375,0.051513671875,1.01025390625,-0.027587890625,-1.6479490995407104,-0.1525878757238388,0.8544921278953552,86.66667175292969,19807.0,1.0
15:56:07.426821,151179.515625,156767.984375,185067.890625,204023.328125,138718.78125,158531.0,691290.875,177117.109375,0.052734375,1.01025390625,-0.02783203125,-1.5563963651657104,0.0,0.8850097060203552,86.66667175292969,19808.0,1.0
15:56:07.451997,151121.9375,156759.59375,185056.265625,203990.34375,138711.0,158529.21875,691627.9375,177107.0,0.0517578125,1.010986328125,-0.0283203125,-1.5563963651657104,0.0,0.8239745497703552,86.66667175292969,19809.0,1.0
15:56:07.452022,151067.84375,156744.65625,185049.03125,204021.09375,138701.078125,158523.9375,691192.75,177112.375,0.052734375,1.01171875,-0.0263671875,-1.4953612089157104,-0.1831054538488388,0.8239745497703552,86.66667175292969,19810.0,1.0
15:56:07.461410,151100.84375,156750.640625,185054.578125,204016.8125,138703.3125,158524.921875,690942.8125,177108.890625,0.052490234375,1.01123046875,-0.029052734375,-1.4648436307907104,0.0,0.7629393935203552,86.66667175292969,19811.0,1.0
15:56:07.464198,151170.21875,156760.296875,185058.421875,204019.21875,138708.859375,158523.9375,691200.8125,177108.078125,0.05126953125,1.01220703125,-0.026123046875,-1.4343260526657104,0.03051757626235485,0.7324218153953552,86.66667175292969,19812.0,1.0
15:56:07.466343,151130.34375,156759.046875,185051.53125,203981.5,138704.296875,158526.265625,691624.0,177098.953125,0.052734375,1.01171875,-0.02734375,-1.4038084745407104,0.0,0.7629393935203552,86.66667175292969,19813.0,1.0
15:56:07.469595,151075.265625,156749.03125,185048.21875,204016.984375,138698.65625,158526.53125,691289.125,177110.21875,0.052490234375,1.01220703125,-0.02783203125,-1.4038084745407104,0.0610351525247097,0.6408690810203552,86.66667175292969,19814.0,1.0
15:56:07.469615,151094.9375,156756.1875,185056.71875,204017.25,138703.578125,158529.390625,690948.9375,177110.40625,0.052978515625,1.012939453125,-0.02587890625,-1.3122557401657104,0.1220703050494194,0.7629393935203552,86.66667175292969,19815.0,1.0
15:56:07.472484,151175.859375,156769.421875,185068.78125,204026.828125,138715.46875,158529.84375,691119.5625,177114.421875,0.052734375,1.01171875,-0.026611328125,-1.3427733182907104,0.1220703050494194,0.8239745497703552,86.66667175292969,19816.0,1.0
15:56:07.472502,151153.328125,156769.15625,185063.875,203988.375,138717.078125,158530.375,691584.8125,177106.734375,0.0517578125,1.01025390625,-0.02392578125,-1.2207030057907104,0.0915527269244194,0.8544921278953552,86.66667175292969,19817.0,1.0
15:56:07.472509,151088.59375,156750.90625,185056.71875,204015.734375,138709.125,158525.109375,691380.25,177116.03125,0.05078125,1.011474609375,-0.026611328125,-1.2512205839157104,0.1525878757238388,0.8544921278953552,86.66667175292969,19818.0,1.0
15:56:07.476221,151086.71875,156747.515625,185057.96875,204022.890625,138709.390625,158524.296875,690963.875,177117.5625,0.05126953125,1.0107421875,-0.02734375,-1.2207030057907104,0.1525878757238388,0.7934569716453552,86.66667175292969,19819.0,1.0
15:56:07.476245,151161.1875,156753.78125,185062.890625,204031.921875,138714.578125,158520.640625,691067.875,177118.0,0.053466796875,1.009765625,-0.027099609375,-1.2207030057907104,0.2441406100988388,0.7629393935203552,86.66667175292969,19820.0,1.0
15:56:07.476253,151153.5,156753.15625,185053.765625,203994.90625,138711.890625,158519.03125,691531.875,177108.890625,0.05224609375,1.01318359375,-0.0263671875,-1.2817381620407104,0.1220703050494194,0.7324218153953552,86.66667175292969,19821.0,1.0
15:56:07.480027,151083.859375,156737.0625,185041.96875,204004.921875,138701.34375,158514.90625,691472.5,177113.359375,0.05126953125,1.01123046875,-0.027099609375,-1.1901854276657104,0.1831054538488388,0.7629393935203552,86.66667175292969,19822.0,1.0
15:56:07.480048,151064.546875,156729.453125,185037.578125,204013.953125,138693.296875,158510.71875,690992.5,177112.90625,0.05126953125,1.01220703125,-0.02880859375,-1.1596678495407104,0.2441406100988388,0.8850097060203552,86.66667175292969,19823.0,1.0
15:56:07.480056,151132.9375,156736.96875,185041.703125,204012.78125,138695.0,158507.21875,691002.5,177108.34375,0.050048828125,1.01171875,-0.029052734375,-1.1596678495407104,0.2746581733226776,0.8544921278953552,86.66667175292969,19824.0,1.0
15:56:07.482747,151149.203125,156742.859375,185038.75,203983.28125,138697.234375,158508.203125,691442.3125,177098.15625,0.052001953125,1.012451171875,-0.02587890625,-1.1901854276657104,0.2441406100988388,0.8544921278953552,86.66667175292969,19825.0,1.0
15:56:07.485035,151084.203125,156734.015625,185033.734375,203981.5,138692.671875,158509.28125,691540.375,177100.390625,0.050537109375,1.010009765625,-0.025146484375,-1.1596678495407104,0.2746581733226776,0.9765624403953552,86.66667175292969,19826.0,1.0
15:56:07.510064,151060.515625,156732.046875,185039.46875,204009.03125,138695.796875,158512.953125,691044.0,177111.03125,0.049072265625,1.009765625,-0.027587890625,-1.0986326932907104,0.2441406100988388,0.9765624403953552,86.66667175292969,19827.0,1.0
15:56:07.522512,151129.1875,156748.40625,185054.75,204016.359375,138708.671875,158519.828125,690980.4375,177116.65625,0.048583984375,1.009765625,-0.028076171875,-1.0375975370407104,0.2746581733226776,0.9155272841453552,86.66667175292969,19828.0,1.0
15:56:07.524951,151173.703125,156762.265625,185059.484375,204006.265625,138716.984375,158524.921875,691374.0,177115.765625,0.04931640625,1.01025390625,-0.028564453125,-1.0375975370407104,0.2136230319738388,0.9460448622703552,86.66667175292969,19829.0,1.0
15:56:07.527463,151110.9375,156754.046875,185049.46875,203987.296875,138710.109375,158524.921875,691607.625,177112.375,0.04931640625,1.01123046875,-0.030029296875,-1.0070799589157104,0.1831054538488388,0.9460448622703552,86.66667175292969,19830.0,1.0
15:56:07.529938,151069.1875,156743.140625,185045.546875,204018.15625,138704.109375,158522.328125,691128.375,177120.328125,0.048828125,1.011962890625,-0.028564453125,-1.0375975370407104,0.2441406100988388,1.0070799589157104,86.66667175292969,19831.0,1.0
15:56:07.532416,151120.421875,156752.875,185056.0,204018.421875,138710.8125,158524.921875,690966.9375,177121.3125,0.048583984375,1.0107421875,-0.029296875,-0.9460448622703552,0.2746581733226776,1.0070799589157104,86.66667175292969,19832.0,1.0
15:56:07.534989,151175.21875,156761.109375,185058.234375,204011.53125,138715.921875,158523.3125,691291.0,177117.5625,0.04833984375,1.0126953125,-0.0302734375,-0.9460448622703552,0.3051757514476776,1.0375975370407104,86.66667175292969,19833.0,1.0
15:56:07.537523,151118.0,156752.25,185046.078125,203975.6875,138707.421875,158521.078125,691638.625,177106.828125,0.049072265625,1.010009765625,-0.02978515625,-0.9765624403953552,0.1831054538488388,0.9460448622703552,86.66667175292969,19834.0,1.0
15:56:07.539974,151064.09375,156736.78125,185037.140625,204005.984375,138695.625,158514.015625,691213.4375,177113.984375,0.050048828125,1.010498046875,-0.03271484375,-1.0070799589157104,0.1831054538488388,1.0986326932907104,86.66667175292969,19835.0,1.0
15:56:07.542625,151097.890625,156743.765625,185044.109375,204002.140625,138698.21875,158515.359375,690961.1875,177111.921875,0.0498046875,1.009765625,-0.029541015625,-0.9765624403953552,0.03051757626235485,1.0681151151657104,86.66667175292969,19836.0,1.0
15:56:07.544971,151168.703125,156755.5625,185051.171875,204005.90625,138705.546875,158514.90625,691223.0,177110.21875,0.04931640625,1.010498046875,-0.0322265625,-0.9460448622703552,0.0915527269244194,1.0986326932907104,86.66667175292969,19837.0,1.0
15:56:07.547440,151124.71875,156750.46875,185038.75,203962.984375,138697.859375,158512.40625,691638.375,177096.71875,0.04931640625,1.010009765625,-0.029541015625,-0.9460448622703552,0.03051757626235485,1.0986326932907104,86.66667175292969,19838.0,1.0
15:56:07.549932,151061.859375,156730.96875,185028.28125,203991.6875,138684.0,158504.359375,691303.5625,177102.890625,0.050537109375,1.01171875,-0.03271484375,-0.9460448622703552,0.1525878757238388,1.1596678495407104,86.66667175292969,19839.0,1.0
15:56:07.553201,151077.765625,156735.453125,185034.90625,203991.6875,138685.34375,158506.859375,690960.3125,177102.890625,0.05224609375,1.0107421875,-0.03076171875,-0.9460448622703552,0.1220703050494194,1.1901854276657104,86.66667175292969,19840.0,1.0
15:56:07.553226,151159.3125,156750.828125,185048.3125,204003.125,138700.71875,158512.234375,691137.875,177107.71875,0.052734375,1.01220703125,-0.032958984375,-0.9155272841453552,0.0915527269244194,1.1901854276657104,86.66667175292969,19841.0,1.0
15:56:07.554983,151139.734375,156754.046875,185045.265625,203964.0625,138702.953125,158515.8125,691602.625,177100.21875,0.05126953125,1.011962890625,-0.030517578125,-0.9765624403953552,0.1831054538488388,1.1901854276657104,86.66667175292969,19842.0,1.0
15:56:07.557471,151074.828125,156739.296875,185037.578125,203989.359375,138694.453125,158512.140625,691406.75,177109.15625,0.052734375,1.013427734375,-0.03173828125,-0.9765624403953552,0.1220703050494194,1.1596678495407104,86.66667175292969,19843.0,1.0
15:56:07.560577,151071.328125,156737.765625,185037.140625,203993.921875,138691.78125,158511.6875,690984.0,177108.53125,0.0517578125,1.01318359375,-0.031005859375,-0.9765624403953552,0.1220703050494194,1.1291502714157104,86.66667175292969,19844.0,1.0
15:56:07.560601,151150.453125,156750.640625,185047.15625,204001.703125,138701.96875,158513.296875,691071.8125,177110.3125,0.051513671875,1.01416015625,-0.02978515625,-1.0375975370407104,0.2441406100988388,1.1291502714157104,86.66667175292969,19845.0,1.0
15:56:07.563083,151150.375,156756.375,185044.296875,203966.46875,138704.03125,158516.4375,691541.625,177101.734375,0.052978515625,1.014892578125,-0.031005859375,-1.0375975370407104,0.2136230319738388,1.1291502714157104,86.66667175292969,19846.0,1.0
15:56:07.563107,151077.328125,156738.046875,185030.703125,203971.5625,138690.078125,158509.453125,691492.4375,177101.640625,0.0537109375,1.0146484375,-0.03173828125,-1.1291502714157104,0.2136230319738388,1.1596678495407104,86.66667175292969,19847.0,1.0
15:56:07.565033,151059.0,156732.40625,185030.34375,203985.96875,138687.65625,158509.28125,691008.9375,177104.859375,0.052490234375,1.01220703125,-0.0322265625,-1.0986326932907104,0.2136230319738388,1.0986326932907104,86.66667175292969,19848.0,1.0
15:56:07.573747,151133.828125,156741.25,185040.4375,203993.390625,138697.59375,158509.015625,691021.3125,177106.296875,0.052490234375,1.011962890625,-0.029296875,-1.1596678495407104,0.3051757514476776,1.0681151151657104,86.66667175292969,19849.0,1.0
15:56:07.581833,151153.234375,156744.296875,185037.21875,203967.1875,138699.640625,158507.3125,691455.0625,177098.609375,0.052001953125,1.014892578125,-0.02978515625,-1.2512205839157104,0.2746581733226776,1.0375975370407104,86.66667175292969,19850.0,1.0
15:56:07.581864,151086.0,156732.140625,185028.015625,203964.953125,138692.40625,158506.234375,691564.6875,177100.5625,0.05419921875,1.013916015625,-0.031005859375,-1.2817381620407104,0.2746581733226776,1.0070799589157104,86.66667175292969,19851.0,1.0
15:56:07.584356,151056.578125,156725.609375,185027.390625,203992.671875,138690.25,158507.3125,691064.5625,177109.859375,0.050537109375,1.0146484375,-0.030029296875,-1.3427733182907104,0.2746581733226776,1.0070799589157104,86.66667175292969,19852.0,1.0
15:56:07.584383,151119.796875,156736.34375,185035.890625,203994.71875,138697.765625,158510.796875,690985.5,177110.140625,0.052001953125,1.015380859375,-0.030517578125,-1.4038084745407104,0.2441406100988388,1.0070799589157104,86.66667175292969,19853.0,1.0
15:56:07.593717,151161.8125,156745.015625,185036.0625,203981.21875,138701.796875,158511.6875,691367.9375,177103.703125,0.05126953125,1.014404296875,-0.03369140625,-1.4648436307907104,0.2746581733226776,0.9155272841453552,86.66667175292969,19854.0,1.0
15:56:07.596780,151096.546875,156735.890625,185024.984375,203959.765625,138693.5625,158510.890625,691616.125,177097.703125,0.053466796875,1.0146484375,-0.0302734375,-1.5258787870407104,0.3356933295726776,0.8850097060203552,86.66667175292969,19855.0,1.0
15:56:07.596793,151050.5,156723.828125,185020.421875,203986.046875,138686.5,158509.546875,691122.25,177103.703125,0.0537109375,1.01416015625,-0.029296875,-1.5258787870407104,0.3662109076976776,0.8850097060203552,86.66667175292969,19856.0,1.0
15:56:07.599960,151096.734375,156734.109375,185029.984375,203981.671875,138694.09375,158514.28125,690959.625,177101.546875,0.05078125,1.014404296875,-0.029052734375,-1.5869139432907104,0.2136230319738388,0.8239745497703552,86.66667175292969,19857.0,1.0
15:56:07.610071,151151.890625,156741.609375,185029.1875,203973.53125,138697.59375,158511.25,691279.4375,177095.921875,0.049560546875,1.01513671875,-0.029296875,-1.6479490995407104,0.2746581733226776,0.7629393935203552,86.66667175292969,19858.0,1.0
15:56:07.614407,151099.5,156734.828125,185016.9375,203940.640625,138687.03125,158506.421875,691634.1875,177085.90625,0.05029296875,1.012939453125,-0.03076171875,-1.6174315214157104,0.3662109076976776,0.7324218153953552,86.66667175292969,19859.0,1.0
15:56:07.614432,151044.6875,156717.03125,185008.890625,203972.546875,138675.5,158498.28125,691216.625,177092.796875,0.0517578125,1.012939453125,-0.03125,-1.6479490995407104,0.3051757514476776,0.7324218153953552,86.66667175292969,19860.0,1.0
15:56:07.623934,151071.421875,156719.53125,185013.265625,203966.46875,138677.734375,158496.578125,690944.25,177089.390625,0.051513671875,1.013916015625,-0.031982421875,-1.7395018339157104,0.2441406100988388,0.7019042372703552,86.66667175292969,19861.0,1.0
15:56:07.626899,151142.859375,156728.5625,185020.6875,203973.09375,138687.75,158496.5,691179.0,177092.078125,0.052001953125,1.012939453125,-0.03076171875,-1.7395018339157104,0.2441406100988388,0.6408690810203552,86.66667175292969,19862.0,1.0
15:56:07.626922,151105.21875,156725.609375,185013.984375,203936.078125,138685.078125,158497.65625,691618.375,177083.40625,0.0517578125,1.012939453125,-0.03076171875,-1.7395018339157104,0.3051757514476776,0.6408690810203552,86.66667175292969,19863.0,1.0
15:56:07.628729,151041.828125,156706.5625,185003.515625,203963.875,138671.921875,158489.796875,691297.4375,177089.65625,0.048095703125,1.012451171875,-0.029296875,-1.7700194120407104,0.2746581733226776,0.6408690810203552,86.66667175292969,19864.0,1.0
15:56:07.644454,151055.0625,156708.09375,185006.921875,203962.625,138672.28125,158489.4375,690943.6875,177088.671875,0.049560546875,1.0107421875,-0.029052734375,-1.8615721464157104,0.2746581733226776,0.6713866591453552,86.66667175292969,19865.0,1.0
15:56:07.644504,151139.546875,156724.53125,185020.0625,203977.921875,138686.234375,158494.53125,691105.5,177094.75,0.048828125,1.011474609375,-0.028564453125,-1.7700194120407104,0.1220703050494194,0.7934569716453552,86.66667175292969,19866.0,1.0
15:56:07.646212,151122.921875,156728.65625,185017.5625,203940.09375,138688.640625,158499.171875,691573.5625,177087.34375,0.049560546875,1.012451171875,-0.028076171875,-1.7700194120407104,0.1220703050494194,0.7324218153953552,86.66667175292969,19867.0,1.0
15:56:07.648866,151054.796875,156711.3125,185008.4375,203961.015625,138680.328125,158494.265625,691389.1875,177094.21875,0.051025390625,1.01416015625,-0.028076171875,-1.7700194120407104,0.1220703050494194,0.6713866591453552,86.66667175292969,19868.0,1.0
15:56:07.651258,151046.84375,156707.109375,185007.984375,203963.875,138678.640625,158492.296875,690961.8125,177093.234375,0.04931640625,1.012939453125,-0.029296875,-1.6479490995407104,-0.0610351525247097,0.7324218153953552,86.66667175292969,19869.0,1.0
15:56:07.659395,151126.046875,156720.515625,185018.890625,203971.84375,138689.90625,158494.265625,691056.0,177094.3125,0.052001953125,1.011474609375,-0.02783203125,-1.6479490995407104,0.0610351525247097,0.6713866591453552,86.66667175292969,19870.0,1.0
15:56:07.659409,151130.96875,156730.078125,185020.0625,203940.8125,138696.0625,158500.609375,691516.625,177087.34375,0.051513671875,1.012451171875,-0.028564453125,-1.6479490995407104,0.0610351525247097,0.6713866591453552,86.66667175292969,19871.0,1.0
15:56:07.661222,151067.21875,156720.25,185015.046875,203950.5625,138691.0625,158500.609375,691486.125,177093.234375,0.051025390625,1.01220703125,-0.030517578125,-1.5869139432907104,0.0,0.7324218153953552,86.66667175292969,19872.0,1.0
15:56:07.673242,151050.859375,156716.484375,185016.84375,203966.296875,138691.328125,158498.546875,691007.1875,177098.953125,0.05078125,1.013671875,-0.02880859375,-1.6479490995407104,0.0915527269244194,0.7629393935203552,86.66667175292969,19873.0,1.0
15:56:07.673271,151128.015625,156732.671875,185032.21875,203976.9375,138704.5625,158502.84375,691010.625,177103.4375,0.050048828125,1.0107421875,-0.03173828125,-1.6174315214157104,-0.03051757626235485,0.8544921278953552,86.66667175292969,19874.0,1.0
15:56:07.675086,151154.3125,156743.140625,185034.984375,203957.171875,138711.625,158509.546875,691443.5,177099.046875,0.04931640625,1.011474609375,-0.02783203125,-1.5563963651657104,0.03051757626235485,0.8239745497703552,86.66667175292969,19875.0,1.0
15:56:07.681455,151082.953125,156726.953125,185020.421875,203946.359375,138698.84375,158504.0,691559.6875,177095.109375,0.0478515625,1.011474609375,-0.028076171875,-1.5563963651657104,-0.03051757626235485,0.8544921278953552,86.66667175292969,19876.0,1.0
15:56:07.685828,151043.984375,156710.234375,185009.875,203964.421875,138683.90625,158493.546875,691062.6875,177096.09375,0.0498046875,1.010986328125,-0.02978515625,-1.4343260526657104,-0.1220703050494194,0.8544921278953552,86.66667175292969,19877.0,1.0
15:56:07.685856,151103.96875,156719.171875,185017.109375,203964.953125,138689.09375,158492.46875,690971.875,177096.90625,0.05029296875,1.01025390625,-0.027099609375,-1.4648436307907104,-0.1525878757238388,0.8239745497703552,86.66667175292969,19878.0,1.0
15:56:07.702744,151145.71875,156725.609375,185017.734375,203952.4375,138694.28125,158492.03125,691345.9375,177093.140625,0.052490234375,1.012451171875,-0.027587890625,-1.5258787870407104,-0.1220703050494194,0.8239745497703552,86.66667175292969,19879.0,1.0
15:56:07.705857,151080.359375,156715.328125,185006.03125,203928.828125,138684.53125,158488.09375,691599.75,177087.0625,0.052978515625,1.010498046875,-0.030029296875,-1.4953612089157104,-0.0915527269244194,0.8850097060203552,86.66667175292969,19880.0,1.0
15:56:07.705882,151035.296875,156702.546875,185001.203125,203956.640625,138675.953125,158483.625,691122.4375,177094.3125,0.052490234375,1.010009765625,-0.02685546875,-1.4648436307907104,-0.1525878757238388,0.9155272841453552,86.66667175292969,19881.0,1.0
15:56:07.707764,151083.140625,156711.484375,185009.59375,203953.515625,138681.578125,158485.765625,690944.25,177092.796875,0.052734375,1.009765625,-0.032958984375,-1.4648436307907104,-0.03051757626235485,0.8850097060203552,86.66667175292969,19882.0,1.0
15:56:07.710125,151147.78125,156725.34375,185017.28125,203954.578125,138691.15625,158489.25,691264.8125,177093.0625,0.05322265625,1.01025390625,-0.033203125,-1.4648436307907104,0.0610351525247097,0.7324218153953552,86.66667175292969,19883.0,1.0
15:56:07.712535,151094.765625,156720.0625,185007.984375,203921.234375,138684.890625,158490.59375,691625.875,177083.578125,0.052978515625,1.010986328125,-0.029541015625,-1.4343260526657104,0.0610351525247097,0.7934569716453552,86.66667175292969,19884.0,1.0
15:56:07.720725,151038.171875,156702.640625,184999.046875,203952.171875,138672.640625,158484.96875,691208.875,177089.484375,0.05419921875,1.01171875,-0.031494140625,-1.5258787870407104,0.03051757626235485,0.9460448622703552,86.66667175292969,19885.0,1.0
15:56:07.720755,151068.390625,156708.625,185005.046875,203950.46875,138675.765625,158488.0,690937.4375,177089.390625,0.052001953125,1.010986328125,-0.029541015625,-1.6174315214157104,0.03051757626235485,0.9460448622703552,86.66667175292969,19886.0,1.0
15:56:07.726919,151140.796875,156719.265625,185010.21875,203955.921875,138683.8125,158488.71875,691188.375,177090.109375,0.05322265625,1.01123046875,-0.03076171875,-1.4953612089157104,0.0915527269244194,0.9155272841453552,86.66667175292969,19887.0,1.0
15:56:07.726945,151104.328125,156719.625,185003.25,203915.25,138680.953125,158491.84375,691618.6875,177079.46875,0.05322265625,1.011962890625,-0.02783203125,-1.4953612089157104,0.1220703050494194,0.9765624403953552,86.66667175292969,19888.0,1.0
15:56:07.734361,151040.84375,156701.921875,184994.3125,203943.40625,138669.96875,158486.484375,691305.6875,177086.890625,0.053466796875,1.010986328125,-0.029541015625,-1.5869139432907104,0.0915527269244194,0.8850097060203552,86.66667175292969,19889.0,1.0
15:56:07.734389,151054.34375,156707.109375,185000.390625,203947.25,138674.96875,158489.796875,690946.8125,177089.125,0.0546875,1.01220703125,-0.0302734375,-1.4953612089157104,0.0915527269244194,0.8544921278953552,86.66667175292969,19890.0,1.0
15:56:07.749377,151135.625,156722.296875,185010.3125,203956.28125,138684.4375,158492.109375,691095.5,177090.734375,0.0556640625,1.013671875,-0.030517578125,-1.5563963651657104,0.0915527269244194,0.9460448622703552,86.66667175292969,19891.0,1.0
15:56:07.749405,151116.21875,156724.359375,185003.515625,203917.5625,138682.390625,158495.0625,691568.3125,177080.265625,0.0546875,1.012451171875,-0.02490234375,-1.4648436307907104,0.1525878757238388,1.0070799589157104,86.66667175292969,19892.0,1.0
15:56:07.751322,151051.125,156712.109375,184997.890625,203942.15625,138676.578125,158495.0625,691391.0,177090.015625,0.053955078125,1.01171875,-0.028564453125,-1.5258787870407104,0.2746581733226776,0.9155272841453552,86.66667175292969,19893.0,1.0
15:56:07.754965,151051.671875,156715.59375,185005.3125,203954.671875,138681.859375,158500.34375,690957.625,177096.28125,0.053955078125,1.012451171875,-0.028076171875,-1.6174315214157104,0.2441406100988388,0.8544921278953552,86.66667175292969,19894.0,1.0
15:56:07.754989,151135.171875,156730.078125,185019.96875,203968.96875,138693.390625,158501.40625,691035.25,177102.890625,0.05517578125,1.011962890625,-0.02880859375,-1.6174315214157104,0.3051757514476776,0.9155272841453552,86.66667175292969,19895.0,1.0
15:56:07.761349,151144.203125,156739.46875,185023.8125,203943.234375,138699.109375,158507.21875,691500.0,177099.859375,0.0537109375,1.01318359375,-0.028076171875,-1.6479490995407104,0.3662109076976776,0.8544921278953552,86.66667175292969,19896.0,1.0
15:56:07.764302,151078.390625,156728.828125,185017.109375,203953.15625,138692.046875,158507.21875,691480.0625,177103.4375,0.055419921875,1.012451171875,-0.02880859375,-1.6479490995407104,0.3662109076976776,0.8239745497703552,86.66667175292969,19897.0,1.0
15:56:07.764328,151058.015625,156724.0,185015.953125,203966.296875,138688.015625,158505.25,690994.125,177104.59375,0.0556640625,1.012939453125,-0.030517578125,-1.5869139432907104,0.4272460639476776,0.7324218153953552,86.66667175292969,19898.0,1.0
15:56:07.813631,151130.96875,156737.765625,185026.859375,203971.5625,138699.109375,158507.21875,691002.5,177107.1875,0.05517578125,1.01123046875,-0.0322265625,-1.6479490995407104,0.3967284858226776,0.7934569716453552,86.66667175292969,19899.0,1.0
15:56:07.817002,151158.6875,156748.671875,185029.1875,203952.890625,138707.25,158510.796875,691434.625,177106.5625,0.052978515625,1.012451171875,-0.028564453125,-1.7395018339157104,0.3967284858226776,0.7629393935203552,86.66667175292969,19900.0,1.0
15:56:07.817018,151090.109375,156736.609375,185019.53125,203946.09375,138698.03125,158507.21875,691561.125,177106.46875,0.051025390625,1.013427734375,-0.0283203125,-1.7089842557907104,0.3356933295726776,0.7019042372703552,86.66667175292969,19901.0,1.0
15:56:07.818969,151056.84375,156725.34375,185015.953125,203969.953125,138690.796875,158501.5,691059.375,177110.671875,0.052734375,1.012451171875,-0.029052734375,-1.7395018339157104,0.3356933295726776,0.7934569716453552,86.66667175292969,19902.0,1.0
15:56:07.821401,151118.09375,156734.734375,185025.6875,203971.84375,138698.03125,158501.859375,690971.375,177110.40625,0.053955078125,1.011962890625,-0.02685546875,-1.7089842557907104,0.3662109076976776,0.8239745497703552,86.66667175292969,19903.0,1.0
15:56:07.823792,151163.875,156745.1875,185029.1875,203960.21875,138704.109375,158503.015625,691349.125,177106.828125,0.052734375,1.011962890625,-0.02734375,-1.7395018339157104,0.3967284858226776,0.6713866591453552,86.66667175292969,19904.0,1.0
15:56:07.826335,151103.25,156738.484375,185021.3125,203937.421875,138698.921875,158503.921875,691612.6875,177102.09375,0.052001953125,1.0107421875,-0.02978515625,-1.7395018339157104,0.4272460639476776,0.5493163466453552,86.66667175292969,19905.0,1.0
15:56:07.828805,151056.84375,156724.265625,185015.40625,203966.921875,138689.625,158500.25,691131.0625,177108.25,0.0537109375,1.012451171875,-0.03076171875,-1.7700194120407104,0.3356933295726776,0.5493163466453552,86.66667175292969,19906.0,1.0
15:56:07.831304,151098.78125,156728.921875,185019.078125,203962.0,138692.765625,158500.078125,690941.4375,177104.765625,0.053466796875,1.014404296875,-0.031005859375,-1.7395018339157104,0.3662109076976776,0.6713866591453552,86.66667175292969,19907.0,1.0
15:56:07.833850,151156.359375,156735.171875,185019.078125,203956.453125,138696.515625,158499.265625,691245.8125,177101.828125,0.052978515625,1.0126953125,-0.030029296875,-1.7700194120407104,0.3662109076976776,0.6103515028953552,86.66667175292969,19908.0,1.0
15:56:07.836261,151102.71875,156728.203125,185007.453125,203919.359375,138689.265625,158499.71875,691621.9375,177092.078125,0.052001953125,1.011962890625,-0.02587890625,-1.6784666776657104,0.3967284858226776,0.5493163466453552,86.66667175292969,19909.0,1.0
15:56:07.840022,151048.453125,156715.859375,185003.25,203952.34375,138682.5625,158498.640625,691217.8125,177101.46875,0.0537109375,1.010986328125,-0.028076171875,-1.6784666776657104,0.3967284858226776,0.5493163466453552,86.66667175292969,19910.0,1.0
15:56:07.840049,151082.421875,156727.578125,185015.59375,203953.78125,138692.578125,158507.046875,690945.3125,177103.609375,0.054443359375,1.0107421875,-0.030517578125,-1.7089842557907104,0.3356933295726776,0.5798339247703552,86.66667175292969,19911.0,1.0
15:56:07.840055,151157.796875,156739.65625,185023.546875,203961.203125,138702.0625,158507.3125,691183.625,177104.59375,0.05224609375,1.0107421875,-0.026611328125,-1.6479490995407104,0.1831054538488388,0.7019042372703552,86.66667175292969,19912.0,1.0
15:56:07.842456,151122.03125,156738.9375,185015.40625,203922.03125,138698.484375,158508.390625,691613.8125,177093.421875,0.050048828125,1.00927734375,-0.02783203125,-1.6479490995407104,0.2746581733226776,0.7629393935203552,86.66667175292969,19913.0,1.0
15:56:07.845165,151058.015625,156721.765625,185007.09375,203952.171875,138686.765625,158502.3125,691307.75,177099.578125,0.0517578125,1.013671875,-0.025634765625,-1.6174315214157104,0.2136230319738388,0.6103515028953552,86.66667175292969,19914.0,1.0
15:56:07.847492,151067.40625,156720.25,185007.90625,203951.90625,138683.734375,158498.546875,690937.6875,177096.8125,0.05126953125,1.0126953125,-0.02783203125,-1.5869139432907104,0.1831054538488388,0.6103515028953552,86.66667175292969,19915.0,1.0
15:56:07.850649,151147.59375,156731.609375,185015.59375,203961.015625,138689.984375,158497.203125,691087.875,177098.875,0.051025390625,1.013427734375,-0.03076171875,-1.6174315214157104,0.2136230319738388,0.6408690810203552,86.66667175292969,19916.0,1.0
15:56:07.850673,151129.890625,156733.03125,185008.171875,203922.75,138687.03125,158497.84375,691557.4375,177089.125,0.050048828125,1.010986328125,-0.03173828125,-1.5563963651657104,0.1220703050494194,0.5493163466453552,86.66667175292969,19917.0,1.0
15:56:07.852684,151060.15625,156715.0625,184997.265625,203940.359375,138676.125,158491.9375,691397.4375,177094.40625,0.05126953125,1.012451171875,-0.027587890625,-1.5869139432907104,0.0610351525247097,0.6408690810203552,86.66667175292969,19918.0,1.0
15:56:07.855074,151052.109375,156710.5,184996.90625,203945.46875,138674.34375,158489.875,690962.125,177093.953125,0.0498046875,1.014404296875,-0.029296875,-1.5869139432907104,-0.0610351525247097,0.5493163466453552,86.66667175292969,19919.0,1.0
15:56:07.857458,151129.546875,156721.765625,185007.09375,203954.671875,138685.421875,158490.6875,691047.8125,177096.1875,0.05078125,1.013916015625,-0.02880859375,-1.5869139432907104,-0.03051757626235485,0.6103515028953552,86.66667175292969,19920.0,1.0
15:56:07.865566,151133.921875,156725.796875,185004.859375,203923.109375,138688.296875,158491.21875,691505.625,177087.515625,0.051025390625,1.01171875,-0.02587890625,-1.5563963651657104,-0.0610351525247097,0.5493163466453552,86.66667175292969,19921.0,1.0
15:56:07.865596,151061.5,156709.34375,184992.4375,203926.515625,138677.46875,158486.296875,691493.0625,177088.234375,0.05224609375,1.01171875,-0.027587890625,-1.5258787870407104,-0.0610351525247097,0.6713866591453552,86.66667175292969,19922.0,1.0
15:56:07.868108,151039.5,156703.265625,184990.734375,203940.984375,138672.640625,158483.890625,691000.5625,177090.46875,0.05224609375,1.01220703125,-0.029296875,-1.5563963651657104,-0.0610351525247097,0.6408690810203552,86.66667175292969,19923.0,1.0
15:56:07.868138,151114.703125,156718.90625,185004.421875,203949.03125,138683.640625,158486.578125,690986.0625,177093.78125,0.051513671875,1.01123046875,-0.02978515625,-1.5258787870407104,-0.1525878757238388,0.6713866591453552,86.66667175292969,19924.0,1.0
15:56:07.877477,151146.4375,156730.625,185009.6875,203933.484375,138692.40625,158490.953125,691408.0,177092.796875,0.0517578125,1.011474609375,-0.029052734375,-1.5563963651657104,-0.2136230319738388,0.7629393935203552,86.66667175292969,19925.0,1.0
15:56:07.880561,151079.109375,156717.75,184999.859375,203924.90625,138682.203125,158487.640625,691550.5,177091.8125,0.0498046875,1.012451171875,-0.030029296875,-1.5869139432907104,-0.2441406100988388,0.7019042372703552,86.66667175292969,19926.0,1.0
15:56:07.880591,151040.84375,156704.421875,184992.703125,203948.765625,138671.75,158481.46875,691054.9375,177095.921875,0.049560546875,1.011474609375,-0.029052734375,-1.5563963651657104,-0.2746581733226776,0.8239745497703552,86.66667175292969,19927.0,1.0
15:56:07.886371,151102.0,156717.296875,185002.171875,203950.921875,138679.171875,158484.25,690953.625,177095.828125,0.050048828125,1.012451171875,-0.02587890625,-1.5563963651657104,-0.3051757514476776,0.7324218153953552,86.66667175292969,19928.0,1.0
15:56:07.901807,151152.15625,156730.0,185007.453125,203940.28125,138686.6875,158489.609375,691324.375,177092.703125,0.05126953125,1.012939453125,-0.027099609375,-1.5258787870407104,-0.4272460639476776,0.7019042372703552,86.66667175292969,19929.0,1.0
15:56:07.901825,151093.15625,156724.71875,184999.40625,203914.4375,138680.25,158494.53125,691601.0,177084.75,0.052978515625,1.011474609375,-0.0263671875,-1.6174315214157104,-0.3662109076976776,0.7324218153953552,86.66667175292969,19930.0,1.0
15:56:07.904279,151045.234375,156711.3125,184991.71875,203940.09375,138670.9375,158492.03125,691131.5,177088.046875,0.052490234375,1.009765625,-0.029541015625,-1.6479490995407104,-0.3356933295726776,0.9155272841453552,86.66667175292969,19931.0,1.0
15:56:07.904286,151087.34375,156718.015625,184998.0625,203934.546875,138676.125,158495.15625,690937.9375,177085.015625,0.05224609375,1.008544921875,-0.02880859375,-1.4953612089157104,-0.3356933295726776,0.7934569716453552,86.66667175292969,19932.0,1.0
15:56:07.906234,151150.109375,156728.734375,185003.15625,203932.859375,138684.265625,158498.375,691243.1875,177083.671875,0.05078125,1.009521484375,-0.02783203125,-1.4038084745407104,-0.2746581733226776,0.7934569716453552,86.66667175292969,19933.0,1.0
15:56:07.911176,151100.296875,156726.0625,184995.390625,203899.421875,138681.671875,158501.40625,691618.25,177076.25,0.0498046875,1.009521484375,-0.02880859375,-1.3427733182907104,-0.3051757514476776,0.7324218153953552,86.66667175292969,19934.0,1.0
15:56:07.922322,151044.421875,156713.0,184990.375,203931.609375,138674.515625,158499.71875,691218.0,177084.125,0.050048828125,1.011962890625,-0.029052734375,-1.3427733182907104,-0.3662109076976776,0.8850097060203552,86.66667175292969,19935.0,1.0
15:56:07.922362,151073.03125,156720.78125,184998.515625,203931.421875,138680.328125,158504.8125,690928.5625,177085.09375,0.0517578125,1.010986328125,-0.029052734375,-1.2817381620407104,-0.3051757514476776,0.7934569716453552,86.66667175292969,19936.0,1.0
15:56:07.924316,151149.484375,156733.484375,185006.46875,203940.71875,138690.703125,158505.796875,691152.5625,177088.59375,0.05224609375,1.012939453125,-0.03173828125,-1.3732908964157104,-0.3051757514476776,0.7629393935203552,86.66667175292969,19937.0,1.0
15:56:07.924345,151115.5,156733.390625,185000.5625,203903.984375,138689.359375,158506.859375,691601.75,177081.609375,0.05322265625,1.013916015625,-0.02783203125,-1.2817381620407104,-0.2746581733226776,0.7629393935203552,86.66667175292969,19938.0,1.0
15:56:07.934039,151054.171875,156717.75,184994.125,203936.078125,138680.421875,158501.859375,691309.1875,177092.078125,0.05322265625,1.01416015625,-0.028076171875,-1.3122557401657104,-0.2136230319738388,0.7629393935203552,86.66667175292969,19939.0,1.0
15:56:07.936897,151066.328125,156720.0625,184999.671875,203939.65625,138682.5625,158501.6875,690933.9375,177093.328125,0.053955078125,1.0146484375,-0.027587890625,-1.3732908964157104,-0.2136230319738388,0.7629393935203552,86.66667175292969,19940.0,1.0
15:56:07.936918,151149.75,156734.546875,185013.984375,203951.984375,138695.984375,158502.84375,691089.875,177098.609375,0.055419921875,1.012939453125,-0.029052734375,-1.3427733182907104,-0.2441406100988388,0.7324218153953552,86.66667175292969,19941.0,1.0
15:56:07.938730,151138.125,156740.453125,185013.359375,203915.6875,138700.0,158506.515625,691553.0625,177091.984375,0.056640625,1.0126953125,-0.025146484375,-1.3427733182907104,-0.1525878757238388,0.8850097060203552,86.66667175292969,19942.0,1.0
15:56:07.948790,151071.515625,156725.796875,185004.859375,203934.734375,138690.171875,158501.234375,691404.25,177096.359375,0.056396484375,1.0126953125,-0.029296875,-1.3732908964157104,-0.1525878757238388,0.8850097060203552,86.66667175292969,19943.0,1.0
15:56:07.953174,151062.65625,156720.875,185002.359375,203940.015625,138684.4375,158495.15625,690960.0625,177094.578125,0.058349609375,1.012451171875,-0.029052734375,-1.3122557401657104,-0.1220703050494194,0.8239745497703552,86.66667175292969,19944.0,1.0
15:56:07.953195,151136.6875,156728.03125,185008.171875,203943.9375,138688.015625,158489.4375,691024.4375,177093.5,0.056640625,1.00927734375,-0.030029296875,-1.3427733182907104,-0.0915527269244194,0.9155272841453552,86.66667175292969,19945.0,1.0
15:56:07.959092,151139.015625,156731.421875,185001.015625,203908.53125,138687.3125,158489.609375,691479.4375,177083.84375,0.0576171875,1.010986328125,-0.029541015625,-1.4038084745407104,-0.0915527269244194,0.8850097060203552,86.66667175292969,19946.0,1.0
15:56:07.968103,151069.546875,156719.984375,184990.015625,203911.484375,138678.71875,158489.609375,691490.9375,177085.1875,0.0546875,1.009521484375,-0.0302734375,-1.3732908964157104,-0.0610351525247097,0.9155272841453552,86.66667175292969,19947.0,1.0
15:56:07.968127,151038.4375,156706.921875,184979.296875,203916.21875,138666.5625,158482.453125,691007.25,177079.5625,0.052978515625,1.009033203125,-0.0302734375,-1.4648436307907104,-0.03051757626235485,0.8544921278953552,86.66667175292969,19948.0,1.0
15:56:07.969937,151099.953125,156711.9375,184978.578125,203907.203125,138665.484375,158478.875,690980.875,177071.515625,0.052978515625,1.0107421875,-0.03076171875,-1.4953612089157104,0.0610351525247097,0.7934569716453552,86.66667175292969,19949.0,1.0
15:56:07.976412,151125.15625,156719.53125,184976.4375,203879.5625,138669.328125,158482.734375,691405.9375,177062.578125,0.054443359375,1.012939453125,-0.029052734375,-1.4648436307907104,0.0610351525247097,0.7934569716453552,86.66667175292969,19950.0,1.0
15:56:07.983054,151053.984375,156705.765625,184963.46875,203862.5,138660.21875,158482.015625,691562.9375,177059.265625,0.055908203125,1.01513671875,-0.02978515625,-1.5258787870407104,0.0915527269244194,0.7934569716453552,86.66667175292969,19951.0,1.0
15:56:07.983075,151010.09375,156686.71875,184952.296875,203882.515625,138649.046875,158473.96875,691059.375,177061.859375,0.057373046875,1.017578125,-0.03173828125,-1.4953612089157104,0.0,0.7324218153953552,86.66667175292969,19952.0,1.0
15:56:07.993104,151067.84375,156693.6875,184960.609375,203889.578125,138656.015625,158475.3125,690953.1875,177064.453125,0.055419921875,1.016845703125,-0.031005859375,-1.4648436307907104,0.1220703050494194,0.7019042372703552,86.66667175292969,19953.0,1.0
15:56:07.993129,151122.921875,156708.359375,184970.265625,203895.125,138667.015625,158481.828125,691317.9375,177070.4375,0.055908203125,1.01416015625,-0.02880859375,-1.4343260526657104,0.1525878757238388,0.6408690810203552,86.66667175292969,19954.0,1.0
15:56:07.995557,151072.046875,156707.375,184970.0,203883.328125,138665.9375,158486.21875,691599.125,177072.3125,0.054443359375,1.014404296875,-0.030517578125,-1.4648436307907104,0.1831054538488388,0.5187987685203552,86.66667175292969,19955.0,1.0
15:56:07.995577,151031.640625,156698.875,184971.421875,203922.84375,138662.09375,158483.984375,691135.375,177085.1875,0.054931640625,1.013916015625,-0.0283203125,-1.5258787870407104,0.0915527269244194,0.5493163466453552,86.66667175292969,19956.0,1.0
15:56:08.005123,151080.546875,156711.75,184984.46875,203925.96875,138669.515625,158488.0,690932.5,177088.3125,0.053466796875,1.0126953125,-0.02880859375,-1.4648436307907104,0.1220703050494194,0.6408690810203552,86.66667175292969,19957.0,1.0
15:56:08.009389,151149.5625,156725.875,184993.6875,203929.546875,138679.265625,158490.5,691227.375,177090.640625,0.051513671875,1.012939453125,-0.02734375,-1.5258787870407104,0.03051757626235485,0.5798339247703552,86.66667175292969,19958.0,1.0
15:56:08.009416,151103.171875,156723.375,184986.71875,203895.125,138675.953125,158493.09375,691609.4375,177082.859375,0.051025390625,1.0126953125,-0.026123046875,-1.5563963651657104,-0.03051757626235485,0.3662109076976776,86.66667175292969,19959.0,1.0
15:56:08.016185,151043.53125,156704.78125,184977.234375,203922.84375,138662.71875,158485.765625,691226.6875,177087.96875,0.051025390625,1.014892578125,-0.02783203125,-1.6784666776657104,0.0,0.2441406100988388,86.66667175292969,19960.0,1.0
15:56:08.020518,151069.453125,156711.3125,184983.9375,203921.234375,138666.5625,158487.828125,690932.4375,177087.78125,0.051025390625,1.01513671875,-0.029052734375,-1.6174315214157104,-0.0610351525247097,0.1220703050494194,86.66667175292969,19961.0,1.0
15:56:08.020549,151143.21875,156720.515625,184990.734375,203927.578125,138673.984375,158485.59375,691147.5625,177087.15625,0.051025390625,1.01513671875,-0.02978515625,-1.7395018339157104,-0.1831054538488388,0.1525878757238388,86.66667175292969,19962.0,1.0
15:56:08.029804,151111.75,156720.78125,184984.75,203886.09375,138672.28125,158487.203125,691592.875,177075.453125,0.0517578125,1.013916015625,-0.025634765625,-1.8920897245407104,-0.1220703050494194,0.0915527269244194,86.66667175292969,19963.0,1.0
15:56:08.034532,151049.34375,156706.484375,184978.390625,203913.8125,138663.4375,158483.796875,691323.0625,177083.21875,0.051025390625,1.012451171875,-0.027099609375,-1.9226073026657104,-0.1831054538488388,-0.1220703050494194,86.66667175292969,19964.0,1.0
15:56:08.034556,151055.15625,156706.65625,184979.109375,203911.484375,138662.984375,158484.25,690946.625,177081.34375,0.05029296875,1.013671875,-0.027587890625,-2.044677495956421,-0.3051757514476776,-0.1220703050494194,86.66667175292969,19965.0,1.0
15:56:08.041393,151131.859375,156715.15625,184986.078125,203917.828125,138670.046875,158482.015625,691087.75,177081.53125,0.052978515625,1.01416015625,-0.02685546875,-2.044677495956421,-0.3356933295726776,-0.1831054538488388,86.66667175292969,19966.0,1.0
15:56:08.045586,151116.671875,156715.15625,184980.0,203878.859375,138669.609375,158481.828125,691553.25,177071.59375,0.052734375,1.01220703125,-0.028076171875,-2.075195074081421,-0.3051757514476776,-0.0610351525247097,86.66667175292969,19967.0,1.0
15:56:08.045604,151048.09375,156699.5,184971.328125,203895.84375,138661.109375,158476.828125,691414.6875,177076.78125,0.054443359375,1.01318359375,-0.02734375,-2.075195074081421,-0.3051757514476776,-0.0610351525247097,86.66667175292969,19968.0,1.0
15:56:08.051193,151046.296875,156702.1875,184978.125,203909.515625,138663.703125,158480.671875,690969.6875,177081.171875,0.05322265625,1.0146484375,-0.025390625,-2.105712652206421,-0.1831054538488388,-0.0610351525247097,86.66667175292969,19969.0,1.0
15:56:08.060555,151132.21875,156721.953125,184996.453125,203925.078125,138679.609375,158487.203125,691022.0,177088.671875,0.0537109375,1.01318359375,-0.026611328125,-2.197265386581421,-0.2746581733226776,0.0915527269244194,86.66667175292969,19970.0,1.0
15:56:08.060583,151143.046875,156730.265625,184998.515625,203899.15625,138686.59375,158491.671875,691480.3125,177084.65625,0.0537109375,1.012939453125,-0.028076171875,-2.227782964706421,-0.2746581733226776,0.0915527269244194,86.66667175292969,19971.0,1.0
15:56:08.063104,151075.71875,156718.8125,184990.640625,203905.59375,138679.53125,158490.421875,691500.875,177088.765625,0.0537109375,1.0126953125,-0.0263671875,-2.227782964706421,-0.1220703050494194,0.2441406100988388,86.66667175292969,19972.0,1.0
15:56:08.063142,151046.75,156706.390625,184984.03125,203919.09375,138669.6875,158484.421875,691007.875,177086.890625,0.052490234375,1.0126953125,-0.02392578125,-2.197265386581421,-0.2136230319738388,0.2746581733226776,86.66667175292969,19973.0,1.0
15:56:08.073837,151118.625,156719.625,184995.03125,203924.625,138678.1875,158488.265625,690986.6875,177088.046875,0.05322265625,1.01171875,-0.028076171875,-2.136230230331421,-0.2746581733226776,0.3967284858226776,86.66667175292969,19974.0,1.0
15:56:08.077310,151151.890625,156729.90625,184998.953125,203905.859375,138686.6875,158494.265625,691403.6875,177085.375,0.052490234375,1.010986328125,-0.027587890625,-2.227782964706421,-0.2746581733226776,0.4577636420726776,86.66667175292969,19975.0,1.0
15:56:08.077400,151084.203125,156717.921875,184989.75,203891.28125,138680.328125,158494.703125,691567.5625,177082.78125,0.05322265625,1.009521484375,-0.02490234375,-2.197265386581421,-0.2136230319738388,0.5187987685203552,86.66667175292969,19976.0,1.0
15:56:08.078731,151046.296875,156706.65625,184983.671875,203912.734375,138671.84375,158492.109375,691074.9375,177086.796875,0.052490234375,1.011474609375,-0.026123046875,-2.258300542831421,-0.2441406100988388,0.5187987685203552,86.66667175292969,19977.0,1.0
15:56:08.086317,151107.90625,156721.234375,184994.484375,203914.34375,138677.734375,158495.609375,690959.3125,177086.171875,0.0517578125,1.00927734375,-0.020751953125,-2.227782964706421,-0.3662109076976776,0.4882812201976776,86.66667175292969,19978.0,1.0
15:56:08.096817,151162.078125,156736.4375,185001.28125,203908.53125,138687.9375,158500.875,691317.75,177087.15625,0.0498046875,1.010986328125,-0.0234375,-2.288818120956421,-0.3356933295726776,0.6103515028953552,86.66667175292969,19979.0,1.0
15:56:08.096840,151104.140625,156731.78125,184993.6875,203881.09375,138684.4375,158503.109375,691609.75,177082.953125,0.04931640625,1.009765625,-0.02685546875,-2.197265386581421,-0.3356933295726776,0.6408690810203552,86.66667175292969,19980.0,1.0
15:56:08.098765,151050.6875,156715.15625,184984.296875,203907.640625,138673.359375,158496.140625,691147.0625,177086.53125,0.0498046875,1.00830078125,-0.028564453125,-2.166747808456421,-0.3662109076976776,0.6103515028953552,86.66667175292969,19981.0,1.0
15:56:08.105040,151092.34375,156722.296875,184991.546875,203906.84375,138678.359375,158497.921875,690933.125,177086.703125,0.048583984375,1.00830078125,-0.0263671875,-2.075195074081421,-0.4577636420726776,0.6103515028953552,86.66667175292969,19982.0,1.0
15:56:08.111836,151154.21875,156727.75,184995.03125,203907.203125,138685.609375,158494.96875,691212.375,177087.6875,0.0498046875,1.0068359375,-0.02734375,-2.044677495956421,-0.5187987685203552,0.6103515028953552,86.66667175292969,19983.0,1.0
15:56:08.111850,151105.671875,156722.75,184988.140625,203874.109375,138684.625,158495.609375,691609.75,177081.875,0.0498046875,1.0068359375,-0.025146484375,-1.8920897245407104,-0.5493163466453552,0.4577636420726776,86.66667175292969,19984.0,1.0
15:56:08.115849,151052.109375,156709.25,184983.765625,203911.9375,138677.734375,158491.84375,691230.75,177093.0625,0.05126953125,1.0078125,-0.02392578125,-1.8615721464157104,-0.5187987685203552,0.5493163466453552,86.66667175292969,19985.0,1.0
15:56:08.115870,151077.140625,156712.46875,184989.65625,203911.125,138679.96875,158490.59375,690925.0,177092.34375,0.05078125,1.009765625,-0.025146484375,-1.7395018339157104,-0.4882812201976776,0.5493163466453552,86.66667175292969,19986.0,1.0
15:56:08.125238,151157.703125,156729.1875,185004.140625,203923.296875,138695.359375,158494.265625,691141.1875,177097.796875,0.052734375,1.009521484375,-0.025634765625,-1.6479490995407104,-0.5798339247703552,0.5187987685203552,86.66667175292969,19987.0,1.0
15:56:08.153516,151129.0,156731.953125,185001.546875,203887.171875,138697.140625,158497.65625,691586.6875,177090.828125,0.05419921875,1.010498046875,-0.025634765625,-1.6174315214157104,-0.5187987685203552,0.4882812201976776,86.66667175292969,19988.0,1.0
15:56:08.153622,151065.078125,156716.484375,184993.859375,203913.0,138686.59375,158492.921875,691324.3125,177097.078125,0.053955078125,1.01025390625,-0.02490234375,-1.6479490995407104,-0.4272460639476776,0.5493163466453552,86.66667175292969,19989.0,1.0
15:56:08.178265,151073.65625,156720.875,184999.046875,203914.796875,138689.625,158496.046875,690941.6875,177097.265625,0.055908203125,1.01123046875,-0.025634765625,-1.6174315214157104,-0.3967284858226776,0.5187987685203552,86.66667175292969,19990.0,1.0
15:56:08.200049,151152.96875,156732.578125,185008.890625,203924.90625,138699.828125,158497.125,691073.5,177100.125,0.054443359375,1.009521484375,-0.023193359375,-1.5869139432907104,-0.3051757514476776,0.4272460639476776,86.66667175292969,19991.0,1.0
15:56:08.202468,151137.859375,156732.9375,185000.75,203884.390625,138697.234375,158496.046875,691537.0,177088.953125,0.053955078125,1.0107421875,-0.026611328125,-1.5563963651657104,-0.2746581733226776,0.4272460639476776,86.66667175292969,19992.0,1.0
15:56:08.204991,151066.78125,156714.96875,184989.578125,203897.546875,138685.875,158491.3125,691414.5625,177092.875,0.05126953125,1.010986328125,-0.0263671875,-1.4648436307907104,-0.1831054538488388,0.3967284858226776,86.66667175292969,19993.0,1.0
15:56:08.207477,151055.234375,156709.25,184988.328125,203905.046875,138682.65625,158489.796875,690967.4375,177093.6875,0.05419921875,1.0107421875,-0.02685546875,-1.4343260526657104,-0.1831054538488388,0.3356933295726776,86.66667175292969,19994.0,1.0
15:56:08.210001,151132.125,156720.515625,184998.6875,203914.171875,138690.609375,158489.171875,691026.625,177095.65625,0.0537109375,1.010986328125,-0.0263671875,-1.4648436307907104,-0.1831054538488388,0.4272460639476776,86.66667175292969,19995.0,1.0
15:56:08.212436,151145.453125,156729.28125,184999.140625,203886.8125,138694.8125,158491.9375,691479.4375,177088.953125,0.0537109375,1.01318359375,-0.02392578125,-1.3732908964157104,-0.1525878757238388,0.4577636420726776,86.66667175292969,19996.0,1.0
15:56:08.215001,151078.84375,156718.734375,184992.515625,203890.75,138687.578125,158492.5625,691509.0,177092.25,0.05224609375,1.01220703125,-0.02783203125,-1.2817381620407104,-0.1525878757238388,0.5187987685203552,86.66667175292969,19997.0,1.0
15:56:08.217460,151056.765625,156714.25,184993.15625,203909.515625,138685.34375,158493.453125,691011.375,177095.03125,0.052490234375,1.010986328125,-0.02685546875,-1.3732908964157104,-0.0610351525247097,0.4882812201976776,86.66667175292969,19998.0,1.0
15:56:08.219954,151131.15625,156730.4375,185007.90625,203915.953125,138697.234375,158499.0,690975.125,177096.71875,0.052978515625,1.01220703125,-0.02587890625,-1.4343260526657104,0.0610351525247097,0.4272460639476776,86.66667175292969,19999.0,1.0
15:56:08.224332,151163.78125,156739.921875,185008.796875,203896.109375,138703.125,158502.390625,691385.4375,177091.53125,0.05322265625,1.011962890625,-0.025634765625,-1.4343260526657104,0.0610351525247097,0.5493163466453552,86.66667175292969,20000.0,1.0
15:56:08.225032,151097.890625,156729.453125,184999.9375,203884.3125,138695.796875,158502.03125,691566.5,177090.015625,0.0546875,1.01171875,-0.023193359375,-1.3732908964157104,0.0610351525247097,0.4882812201976776,86.66667175292969,20001.0,1.0
15:56:08.227442,151059.359375,156717.46875,184997.4375,203910.59375,138690.875,158498.8125,691071.25,177096.71875,0.052734375,1.009521484375,-0.025634765625,-1.4038084745407104,0.1525878757238388,0.4882812201976776,86.66667175292969,20002.0,1.0
15:56:08.229930,151118.453125,156730.53125,185009.78125,203913.90625,138701.34375,158503.46875,690955.8125,177100.5625,0.051025390625,1.010009765625,-0.02978515625,-1.3122557401657104,0.0610351525247097,0.6408690810203552,86.66667175292969,20003.0,1.0
15:56:08.232453,151173.703125,156744.46875,185016.9375,203910.0625,138710.8125,158506.6875,691311.25,177100.5625,0.05322265625,1.009033203125,-0.02685546875,-1.1291502714157104,0.1525878757238388,0.5798339247703552,86.66667175292969,20004.0,1.0
15:56:08.235488,151119.796875,156743.671875,185013.359375,203888.421875,138709.203125,158510.0,691613.25,177098.328125,0.0517578125,1.00927734375,-0.0263671875,-1.1291502714157104,0.1525878757238388,0.6408690810203552,86.66667175292969,20005.0,1.0
15:56:08.235499,151075.53125,156734.734375,185012.375,203924.0,138705.359375,158508.921875,691161.125,177108.25,0.051513671875,1.009521484375,-0.02783203125,-1.0681151151657104,0.0610351525247097,0.5187987685203552,86.66667175292969,20006.0,1.0
15:56:08.238084,151121.5,156747.0625,185023.1875,203923.5625,138712.609375,158512.859375,690942.875,177107.0,0.050048828125,1.00927734375,-0.02685546875,-0.9460448622703552,0.03051757626235485,0.5493163466453552,86.66667175292969,20007.0,1.0
15:56:08.238111,151192.484375,156762.09375,185032.9375,203928.921875,138723.15625,158516.171875,691229.0625,177109.6875,0.0498046875,1.010498046875,-0.027099609375,-0.9155272841453552,0.0,0.5798339247703552,86.66667175292969,20008.0,1.0
15:56:08.240720,151146.34375,156759.9375,185026.859375,203894.328125,138721.8125,158519.46875,691622.8125,177102.359375,0.05078125,1.013427734375,-0.02783203125,-0.9155272841453552,0.03051757626235485,0.5798339247703552,86.66667175292969,20009.0,1.0
15:56:08.240769,151092.875,156748.5,185023.453125,203930.796875,138716.625,158518.671875,691247.6875,177114.34375,0.050048828125,1.013427734375,-0.02783203125,-1.0375975370407104,0.0,0.6103515028953552,86.66667175292969,20010.0,1.0
15:56:08.244405,151120.0625,156757.703125,185032.484375,203932.59375,138723.0625,158525.375,690936.1875,177116.9375,0.049560546875,1.01513671875,-0.026611328125,-0.9765624403953552,0.0,0.5493163466453552,86.66667175292969,20011.0,1.0
15:56:08.244469,151198.5625,156770.84375,185042.046875,203940.015625,138733.96875,158528.859375,691132.875,177119.609375,0.049072265625,1.013671875,-0.02734375,-0.8850097060203552,0.03051757626235485,0.6103515028953552,86.66667175292969,20012.0,1.0
15:56:08.244484,151168.078125,156770.140625,185034.71875,203896.46875,138732.09375,158530.109375,691589.1875,177108.703125,0.051025390625,1.01220703125,-0.02685546875,-0.8239745497703552,-0.03051757626235485,0.6408690810203552,86.66667175292969,20013.0,1.0
15:56:08.244495,151099.953125,156751.1875,185022.203125,203919.171875,138718.421875,158523.765625,691342.375,177112.640625,0.049560546875,1.012451171875,-0.028076171875,-0.9155272841453552,-0.0610351525247097,0.6408690810203552,86.66667175292969,20014.0,1.0
15:56:08.244507,151104.140625,156751.625,185024.796875,203922.390625,138718.328125,158525.109375,690953.0625,177112.90625,0.05078125,1.0126953125,-0.02685546875,-1.0375975370407104,-0.2441406100988388,0.7019042372703552,86.66667175292969,20015.0,1.0
15:56:08.246901,151186.578125,156766.109375,185037.40625,203936.15625,138731.109375,158528.6875,691069.75,177117.828125,0.050048828125,1.0146484375,-0.025146484375,-0.9765624403953552,-0.2441406100988388,0.7019042372703552,86.66667175292969,20016.0,1.0
15:56:08.246953,151178.625,156770.3125,185034.09375,203902.1875,138733.078125,158532.609375,691541.875,177110.84375,0.049560546875,1.013427734375,-0.025146484375,-1.0070799589157104,-0.3051757514476776,0.6713866591453552,86.66667175292969,20017.0,1.0
15:56:08.249485,151110.046875,156754.84375,185025.15625,203919.890625,138722.890625,158527.4375,691439.0,177116.9375,0.05029296875,1.01318359375,-0.02734375,-1.0070799589157104,-0.2136230319738388,0.6713866591453552,86.66667175292969,20018.0,1.0
15:56:08.251265,151096.546875,156749.484375,185025.609375,203928.390625,138719.046875,158523.671875,690982.875,177116.9375,0.05078125,1.0126953125,-0.02685546875,-0.9765624403953552,-0.2136230319738388,0.7629393935203552,86.66667175292969,20019.0,1.0
15:56:08.255257,151174.515625,156761.203125,185036.59375,203937.234375,138728.609375,158523.859375,691022.25,177120.234375,0.052001953125,1.0107421875,-0.0263671875,-0.9460448622703552,-0.2136230319738388,0.8544921278953552,86.66667175292969,20020.0,1.0
15:56:08.264844,151189.703125,156770.5,185038.296875,203913.28125,138733.703125,158527.34375,691473.125,177116.125,0.051513671875,1.01171875,-0.02734375,-1.0070799589157104,-0.1220703050494194,0.8239745497703552,86.66667175292969,20021.0,1.0
15:56:08.264892,151121.140625,156757.53125,185028.28125,203915.6875,138724.234375,158524.03125,691517.6875,177118.09375,0.0517578125,1.009033203125,-0.0283203125,-1.1291502714157104,-0.1525878757238388,0.7629393935203552,86.66667175292969,20022.0,1.0
15:56:08.274348,151093.859375,156749.84375,185024.625,203932.046875,138717.796875,158521.53125,691022.0,177120.6875,0.052001953125,1.0087890625,-0.0283203125,-1.0070799589157104,-0.2136230319738388,0.8544921278953552,86.66667175292969,20023.0,1.0
15:56:08.274369,151160.296875,156759.59375,185032.21875,203931.421875,138723.96875,158523.046875,690982.875,177118.625,0.052490234375,1.008544921875,-0.029296875,-0.9765624403953552,-0.2441406100988388,0.9155272841453552,86.66667175292969,20024.0,1.0
15:56:08.276804,151192.390625,156764.234375,185030.703125,203912.375,138727.71875,158522.875,691389.625,177113.890625,0.052001953125,1.009521484375,-0.0302734375,-0.9460448622703552,-0.1831054538488388,1.0070799589157104,86.66667175292969,20025.0,1.0
15:56:08.276823,151124.984375,156752.703125,185020.859375,203899.953125,138719.046875,158519.734375,691577.125,177113.078125,0.055419921875,1.01171875,-0.033203125,-0.9460448622703552,-0.1525878757238388,1.0070799589157104,86.66667175292969,20026.0,1.0
15:56:08.283753,151085.8125,156741.078125,185017.640625,203927.765625,138713.140625,158515.984375,691087.5625,177120.234375,0.055419921875,1.0126953125,-0.032470703125,-0.8239745497703552,-0.0610351525247097,0.9765624403953552,86.66667175292969,20027.0,1.0
15:56:08.290533,151142.859375,156754.21875,185029.359375,203929.015625,138723.515625,158522.0625,690959.25,177122.46875,0.05517578125,1.011474609375,-0.03173828125,-0.7629393935203552,-0.03051757626235485,0.9155272841453552,86.66667175292969,20028.0,1.0
15:56:08.290558,151197.40625,156767.359375,185034.453125,203923.5625,138731.109375,158524.75,691306.6875,177121.765625,0.05517578125,1.010986328125,-0.02978515625,-0.8239745497703552,0.0,1.1291502714157104,86.66667175292969,20029.0,1.0
15:56:08.300495,151141.25,156762.625,185026.9375,203899.15625,138726.46875,158525.546875,691619.4375,177117.375,0.054443359375,1.010986328125,-0.0302734375,-0.7019042372703552,0.03051757626235485,1.0070799589157104,86.66667175292969,20030.0,1.0
15:56:08.300509,151089.125,156747.25,185019.34375,203929.453125,138716.984375,158520.8125,691163.625,177124.703125,0.0546875,1.00927734375,-0.0302734375,-0.7324218153953552,0.0610351525247097,0.9765624403953552,86.66667175292969,20031.0,1.0
15:56:08.306790,151127.484375,156753.6875,185025.96875,203926.59375,138720.65625,158521.625,690940.0,177122.03125,0.052978515625,1.009765625,-0.030517578125,-0.7324218153953552,-0.0915527269244194,0.9460448622703552,86.66667175292969,20032.0,1.0
15:56:08.306818,151194.890625,156763.25,185029.359375,203925.703125,138725.484375,158519.203125,691222.0,177118.71875,0.0517578125,1.01171875,-0.031005859375,-0.7019042372703552,0.03051757626235485,0.8239745497703552,86.66667175292969,20033.0,1.0
15:56:08.314076,151149.484375,156759.140625,185019.53125,203886.1875,138720.03125,158519.921875,691619.25,177109.515625,0.05078125,1.01220703125,-0.031982421875,-0.7629393935203552,0.0,0.8239745497703552,86.66667175292969,20034.0,1.0
15:56:08.314099,151085.8125,156738.84375,185007.546875,203914.34375,138706.078125,158512.671875,691256.3125,177114.6875,0.051025390625,1.0126953125,-0.032958984375,-0.7019042372703552,-0.0915527269244194,0.7019042372703552,86.66667175292969,20035.0,1.0
15:56:08.314906,151101.734375,156739.828125,185007.71875,203907.375,138703.40625,158511.96875,690939.0625,177110.140625,0.0478515625,1.011962890625,-0.031982421875,-0.7019042372703552,-0.1525878757238388,0.6103515028953552,86.66667175292969,20036.0,1.0
15:56:08.322455,151182.640625,156756.1875,185019.609375,203917.484375,138715.640625,158516.171875,691144.5,177116.21875,0.04931640625,1.013916015625,-0.030029296875,-0.7629393935203552,-0.0915527269244194,0.6103515028953552,86.66667175292969,20037.0,1.0
15:56:08.333063,151157.078125,156760.390625,185016.3125,203879.75,138716.984375,158520.1875,691597.5,177109.234375,0.049560546875,1.0126953125,-0.031494140625,-0.8239745497703552,-0.1831054538488388,0.4577636420726776,86.66667175292969,20038.0,1.0
15:56:08.333092,151096.015625,156748.234375,185011.921875,203908.09375,138710.8125,158519.109375,691349.875,177118.8125,0.051025390625,1.013427734375,-0.03369140625,-0.9460448622703552,-0.2441406100988388,0.3967284858226776,86.66667175292969,20039.0,1.0
15:56:08.335554,151107.453125,156756.71875,185022.75,203914.4375,138716.984375,158525.546875,690953.0,177120.6875,0.0537109375,1.0166015625,-0.030029296875,-0.9155272841453552,-0.1525878757238388,0.4577636420726776,86.66667175292969,20040.0,1.0
15:56:08.335576,151192.390625,156773.796875,185037.40625,203926.59375,138730.3125,158530.015625,691067.625,177124.796875,0.053466796875,1.017578125,-0.03076171875,-0.9460448622703552,-0.2441406100988388,0.4272460639476776,86.66667175292969,20041.0,1.0
15:56:08.347462,151182.734375,156775.40625,185032.484375,203888.953125,138730.3125,158530.203125,691537.375,177114.421875,0.052734375,1.017822265625,-0.03271484375,-0.9765624403953552,-0.2441406100988388,0.3662109076976776,86.66667175292969,20042.0,1.0
15:56:08.351800,151113.71875,156759.234375,185023.09375,203901.921875,138718.59375,158524.03125,691437.9375,177116.125,0.053466796875,1.0166015625,-0.036376953125,-1.0986326932907104,-0.2441406100988388,0.4272460639476776,86.66667175292969,20043.0,1.0
15:56:08.351820,151104.59375,156757.171875,185025.328125,203915.25,138715.640625,158523.3125,690975.25,177118.890625,0.053466796875,1.017822265625,-0.031005859375,-1.1596678495407104,-0.1220703050494194,0.4272460639476776,86.66667175292969,20044.0,1.0
15:56:08.358090,151186.140625,156772.734375,185039.734375,203926.59375,138727.453125,158526.0,691020.0625,177123.09375,0.05517578125,1.016357421875,-0.031982421875,-1.2512205839157104,-0.2441406100988388,0.4882812201976776,86.66667175292969,20045.0,1.0
15:56:08.358112,151201.515625,156780.6875,185039.640625,203900.765625,138732.640625,158528.0625,691467.1875,177116.84375,0.05419921875,1.01708984375,-0.033203125,-1.3427733182907104,-0.2136230319738388,0.5798339247703552,86.66667175292969,20046.0,1.0
15:56:08.363696,151129.453125,156765.21875,185027.484375,203898.609375,138721.546875,158522.421875,691522.75,177115.59375,0.0537109375,1.017822265625,-0.032958984375,-1.4038084745407104,-0.2441406100988388,0.6103515028953552,86.66667175292969,20047.0,1.0
15:56:08.370570,151100.75,156755.828125,185022.390625,203914.078125,138712.515625,158517.5,691029.1875,177116.9375,0.0537109375,1.018310546875,-0.031982421875,-1.4343260526657104,-0.2746581733226776,0.6408690810203552,86.66667175292969,20048.0,1.0
15:56:08.370596,151166.015625,156765.21875,185028.28125,203913.984375,138715.640625,158516.4375,690975.9375,177113.625,0.051513671875,1.01708984375,-0.03369140625,-1.4953612089157104,-0.2441406100988388,0.7629393935203552,86.66667175292969,20049.0,1.0
15:56:08.380663,151198.734375,156773.0,185027.84375,203894.234375,138719.765625,158516.609375,691377.3125,177107.1875,0.051025390625,1.015380859375,-0.03076171875,-1.6174315214157104,-0.2746581733226776,0.6408690810203552,86.66667175292969,20050.0,1.0
15:56:08.380681,151132.9375,156761.734375,185017.828125,203877.609375,138713.140625,158515.8125,691579.625,177104.328125,0.050537109375,1.014404296875,-0.0322265625,-1.7089842557907104,-0.2746581733226776,0.6408690810203552,86.66667175292969,20051.0,1.0
15:56:08.383013,151091.1875,156748.59375,185013.359375,203904.515625,138704.296875,158512.953125,691085.375,177111.203125,0.05126953125,1.012939453125,-0.031005859375,-1.6784666776657104,-0.3662109076976776,0.7324218153953552,86.66667175292969,20052.0,1.0
15:56:08.383036,151139.375,156753.78125,185017.203125,203900.40625,138706.53125,158513.9375,690948.125,177107.71875,0.0517578125,1.01220703125,-0.029541015625,-1.7700194120407104,-0.3051757514476776,0.6408690810203552,86.66667175292969,20053.0,1.0
15:56:08.393728,151193.546875,156764.140625,185019.34375,203894.59375,138712.609375,158517.78125,691294.4375,177106.46875,0.05126953125,1.011962890625,-0.029541015625,-1.7395018339157104,-0.3662109076976776,0.6713866591453552,86.66667175292969,20054.0,1.0
15:56:08.398278,151137.046875,156757.078125,185009.328125,203865.265625,138706.625,158517.78125,691613.1875,177098.875,0.05224609375,1.01123046875,-0.031494140625,-1.7395018339157104,-0.3967284858226776,0.6103515028953552,86.66667175292969,20055.0,1.0
15:56:08.398322,151088.859375,156745.375,185006.5625,203898.4375,138701.34375,158514.640625,691170.5,177107.90625,0.05029296875,1.01123046875,-0.029296875,-1.8615721464157104,-0.3662109076976776,0.7019042372703552,86.66667175292969,20056.0,1.0
15:56:08.408037,151128.28125,156754.3125,185015.5,203897.265625,138708.5,158518.9375,690936.5625,177109.0625,0.05126953125,1.01220703125,-0.030029296875,-1.8920897245407104,-0.4577636420726776,0.7019042372703552,86.66667175292969,20057.0,1.0
15:56:08.408054,151196.59375,156764.140625,185020.328125,203898.96875,138715.203125,158518.9375,691208.25,177109.0625,0.05224609375,1.01171875,-0.030517578125,-1.8920897245407104,-0.4272460639476776,0.6713866591453552,86.66667175292969,20058.0,1.0
15:56:08.409967,151157.609375,156763.4375,185013.359375,203865.625,138712.078125,158520.015625,691613.625,177101.734375,0.051025390625,1.011962890625,-0.02880859375,-2.014159917831421,-0.5187987685203552,0.7019042372703552,86.66667175292969,20059.0,1.0
15:56:08.417990,151101.28125,156747.609375,185008.078125,203900.9375,138704.296875,158513.9375,691262.25,177112.375,0.050048828125,1.01025390625,-0.02734375,-1.9226073026657104,-0.5493163466453552,0.6713866591453552,86.66667175292969,20060.0,1.0
15:56:08.418000,151123.453125,156753.859375,185016.125,203901.921875,138710.015625,158515.984375,690936.1875,177113.53125,0.0517578125,1.010498046875,-0.028076171875,-1.9531248807907104,-0.5493163466453552,0.7019042372703552,86.66667175292969,20061.0,1.0
15:56:08.419904,151206.421875,156770.578125,185028.203125,203913.546875,138720.75,158520.90625,691128.25,177117.28125,0.053466796875,1.011962890625,-0.026611328125,-1.9531248807907104,-0.5798339247703552,0.6408690810203552,86.66667175292969,20062.0,1.0
15:56:08.431237,151183.984375,156774.515625,185025.875,203876.4375,138723.875,158526.890625,691586.25,177111.203125,0.05224609375,1.01318359375,-0.028076171875,-1.9531248807907104,-0.5798339247703552,0.7019042372703552,86.66667175292969,20063.0,1.0
15:56:08.437440,151120.421875,156758.78125,185019.171875,203901.828125,138716.09375,158521.53125,691354.3125,177120.421875,0.052490234375,1.012451171875,-0.02685546875,-1.9836424589157104,-0.5187987685203552,0.7019042372703552,86.66667175292969,20064.0,1.0
15:56:08.437500,151123.546875,156758.421875,185020.953125,203905.765625,138714.390625,158520.8125,690948.0625,177119.4375,0.052734375,1.0107421875,-0.027587890625,-1.8615721464157104,-0.5798339247703552,0.7629393935203552,86.66667175292969,20065.0,1.0
15:56:08.437524,151208.03125,156773.890625,185033.734375,203918.8125,138725.21875,158524.21875,691063.9375,177123.015625,0.0537109375,1.011474609375,-0.030029296875,-1.9226073026657104,-0.6103515028953552,0.7934569716453552,86.66667175292969,20066.0,1.0
15:56:08.440357,151206.703125,156782.296875,185033.828125,203887.703125,138729.859375,158529.9375,691529.125,177115.140625,0.052490234375,1.012451171875,-0.03369140625,-1.8310545682907104,-0.5798339247703552,0.6713866591453552,86.66667175292969,20067.0,1.0
15:56:08.448823,151144.375,156772.734375,185029.890625,203904.328125,138724.59375,158531.1875,691444.1875,177121.84375,0.052734375,1.010498046875,-0.026611328125,-1.7700194120407104,-0.5798339247703552,0.6408690810203552,86.66667175292969,20068.0,1.0
15:56:08.455673,151136.25,156776.03125,185035.4375,203919.796875,138725.21875,158535.03125,690976.5,177127.125,0.05126953125,1.010009765625,-0.028076171875,-1.7700194120407104,-0.5493163466453552,0.6103515028953552,86.66667175292969,20069.0,1.0
15:56:08.455749,151213.671875,156789.1875,185046.609375,203926.859375,138733.171875,158535.296875,691018.1875,177127.84375,0.05078125,1.006591796875,-0.029296875,-1.6784666776657104,-0.4882812201976776,0.6408690810203552,86.66667175292969,20070.0,1.0
15:56:08.457617,151237.625,156800.265625,185050.015625,203905.5,138738.890625,158538.78125,691460.625,177124.890625,0.050537109375,1.0078125,-0.028076171875,-1.6479490995407104,-0.5493163466453552,0.4882812201976776,86.66667175292969,20071.0,1.0
15:56:08.463886,151174.59375,156790.875,185044.640625,203909.34375,138732.640625,158537.625,691526.25,177128.734375,0.052734375,1.0078125,-0.027587890625,-1.5563963651657104,-0.5187987685203552,0.4882812201976776,86.66667175292969,20072.0,1.0
15:56:08.470538,151151.625,156787.125,185046.796875,203936.96875,138733.265625,158538.78125,691025.125,177137.84375,0.052001953125,1.00927734375,-0.029296875,-1.5869139432907104,-0.4577636420726776,0.4577636420726776,86.66667175292969,20073.0,1.0
15:56:08.470582,151223.5,156803.3125,185062.0,203947.515625,138747.203125,158544.59375,690970.75,177143.21875,0.053955078125,1.008544921875,-0.02685546875,-1.4953612089157104,-0.6103515028953552,0.5187987685203552,86.66667175292969,20074.0,1.0
15:56:08.478200,151270.4375,156819.21875,185070.671875,203940.28125,138757.484375,158552.203125,691368.8125,177145.890625,0.054443359375,1.0107421875,-0.027099609375,-1.5258787870407104,-0.6103515028953552,0.5798339247703552,86.66667175292969,20075.0,1.0
15:56:08.478268,151209.921875,156812.875,185063.609375,203924.90625,138751.859375,158554.4375,691580.1875,177144.375,0.05419921875,1.00927734375,-0.0263671875,-1.4953612089157104,-0.5798339247703552,0.5187987685203552,86.66667175292969,20076.0,1.0
15:56:08.484345,151171.46875,156804.109375,185061.546875,203954.578125,138747.203125,158554.875,691084.4375,177153.3125,0.05322265625,1.009765625,-0.025146484375,-1.3732908964157104,-0.5493163466453552,0.4882812201976776,86.66667175292969,20077.0,1.0
15:56:08.484373,151226.8125,156815.28125,185072.90625,203955.125,138756.5,158558.984375,690945.3125,177154.484375,0.05224609375,1.012451171875,-0.026123046875,-1.3427733182907104,-0.4882812201976776,0.5798339247703552,86.66667175292969,20078.0,1.0
15:56:08.486387,151283.859375,156825.921875,185078.796875,203950.640625,138764.28125,158559.890625,691283.4375,177152.421875,0.05322265625,1.015380859375,-0.025146484375,-1.3732908964157104,-0.4577636420726776,0.5187987685203552,86.66667175292969,20079.0,1.0
15:56:08.502621,151231.28125,156823.953125,185072.09375,203923.296875,138758.828125,158563.109375,691610.8125,177145.453125,0.053466796875,1.015869140625,-0.026123046875,-1.4343260526657104,-0.4577636420726776,0.5493163466453552,86.66667175292969,20080.0,1.0
15:56:08.528170,151180.859375,156811.984375,185067.625,203955.203125,138750.78125,158560.6875,691179.5625,177151.984375,0.052978515625,1.0146484375,-0.0244140625,-1.4038084745407104,-0.5493163466453552,0.6103515028953552,86.66667175292969,20081.0,1.0
15:56:08.528214,151215.1875,156818.140625,185072.71875,203947.078125,138751.40625,158561.578125,690933.5,177145.8125,0.052001953125,1.014404296875,-0.026123046875,-1.4038084745407104,-0.4882812201976776,0.5187987685203552,86.66667175292969,20082.0,1.0
15:56:08.528224,151283.40625,156827.890625,185075.5,203946.796875,138756.15625,158559.078125,691194.375,177142.40625,0.052490234375,1.01318359375,-0.02685546875,-1.4343260526657104,-0.4882812201976776,0.5798339247703552,86.66667175292969,20083.0,1.0
15:56:08.550613,151240.765625,156826.015625,185067.890625,203907.28125,138754.625,158561.671875,691608.6875,177133.46875,0.052734375,1.012939453125,-0.02734375,-1.5258787870407104,-0.4882812201976776,0.6103515028953552,86.66667175292969,20084.0,1.0
15:56:08.550648,151176.125,156807.59375,185057.796875,203933.65625,138743.90625,158554.4375,691261.8125,177139.28125,0.053955078125,1.013916015625,-0.027099609375,-1.4648436307907104,-0.4577636420726776,0.5493163466453552,86.66667175292969,20085.0,1.0
15:56:08.550657,151189.265625,156806.703125,185058.6875,203926.515625,138740.953125,158550.5,690926.625,177133.828125,0.05419921875,1.013916015625,-0.026611328125,-1.5258787870407104,-0.3967284858226776,0.6103515028953552,86.66667175292969,20086.0,1.0
15:56:08.553109,151265.265625,156816.8125,185065.125,203933.125,138748.109375,158548.53125,691116.3125,177134.359375,0.053466796875,1.011962890625,-0.028076171875,-1.4953612089157104,-0.4272460639476776,0.6408690810203552,86.66667175292969,20087.0,1.0
15:56:08.553140,151243.625,156819.75,185060.65625,203895.484375,138748.28125,158551.03125,691574.4375,177125.609375,0.052978515625,1.01220703125,-0.02783203125,-1.4343260526657104,-0.4272460639476776,0.6103515028953552,86.66667175292969,20088.0,1.0
15:56:08.553149,151178.265625,156804.015625,185051.984375,203920.421875,138738.796875,158546.5625,691353.4375,177132.046875,0.05419921875,1.01416015625,-0.0283203125,-1.4343260526657104,-0.3662109076976776,0.6103515028953552,86.66667175292969,20089.0,1.0
15:56:08.555626,151179.421875,156807.0625,185057.078125,203925.609375,138742.375,158549.609375,690945.5625,177134.984375,0.052001953125,1.013427734375,-0.025146484375,-1.4038084745407104,-0.3356933295726776,0.6713866591453552,86.66667175292969,20090.0,1.0
15:56:08.555649,151260.4375,156820.828125,185068.703125,203935.09375,138751.328125,158551.21875,691064.625,177138.296875,0.051025390625,1.0126953125,-0.02294921875,-1.3732908964157104,-0.3662109076976776,0.7019042372703552,86.66667175292969,20091.0,1.0
15:56:08.557498,151259.53125,156827.984375,185068.703125,203904.78125,138754.1875,158554.96875,691526.5,177132.3125,0.050537109375,1.01318359375,-0.0263671875,-1.3427733182907104,-0.3662109076976776,0.7629393935203552,86.66667175292969,20092.0,1.0
15:56:08.559984,151189.984375,156811.703125,185058.6875,203915.0625,138745.59375,158550.59375,691453.6875,177134.28125,0.053466796875,1.012939453125,-0.025634765625,-1.3122557401657104,-0.3356933295726776,0.8850097060203552,86.66667175292969,20093.0,1.0
15:56:08.562453,151175.9375,156809.75,185060.203125,203927.140625,138746.046875,158552.90625,690985.0625,177135.703125,0.053955078125,1.01123046875,-0.0283203125,-1.3122557401657104,-0.3662109076976776,0.8850097060203552,86.66667175292969,20094.0,1.0
15:56:08.564937,151254.078125,156825.75,185074.15625,203937.859375,138758.5625,158558.1875,691015.8125,177140.53125,0.051513671875,1.010498046875,-0.026123046875,-1.2817381620407104,-0.3662109076976776,0.9765624403953552,86.66667175292969,20095.0,1.0
15:56:08.568104,151272.40625,156832.0,185072.71875,203914.34375,138761.78125,158560.25,691453.125,177135.609375,0.051025390625,1.010498046875,-0.029052734375,-1.2817381620407104,-0.3356933295726776,0.8850097060203552,86.66667175292969,20096.0,1.0
15:56:08.568119,151201.328125,156816.359375,185062.96875,203910.421875,138752.84375,158557.46875,691536.25,177135.53125,0.052978515625,1.010986328125,-0.029541015625,-1.2512205839157104,-0.3356933295726776,1.0070799589157104,86.66667175292969,20097.0,1.0
15:56:08.570140,151163.6875,156801.34375,185055.375,203924.71875,138743.359375,158551.296875,691034.25,177135.96875,0.05126953125,1.010986328125,-0.024658203125,-1.1901854276657104,-0.3051757514476776,1.0070799589157104,86.66667175292969,20098.0,1.0
15:56:08.572591,151225.296875,156808.140625,185062.703125,203925.609375,138749.171875,158550.5,690962.125,177136.59375,0.0517578125,1.01220703125,-0.025390625,-1.1291502714157104,-0.2441406100988388,1.0681151151657104,86.66667175292969,20099.0,1.0
15:56:08.579299,151269.28125,156820.203125,185068.078125,203915.953125,138757.125,158554.4375,691355.375,177137.21875,0.052001953125,1.0107421875,-0.02978515625,-1.0681151151657104,-0.3051757514476776,1.1291502714157104,86.66667175292969,20100.0,1.0
15:56:08.579315,151208.75,156814.125,185061.640625,203900.3125,138752.390625,158556.21875,691583.3125,177134.90625,0.05322265625,1.011474609375,-0.02734375,-1.0375975370407104,-0.2136230319738388,1.1291502714157104,86.66667175292969,20101.0,1.0
15:56:08.586849,151167.171875,156802.765625,185059.125,203929.09375,138747.296875,158555.328125,691097.3125,177144.109375,0.054443359375,1.01123046875,-0.031494140625,-1.0681151151657104,-0.2746581733226776,1.0986326932907104,86.66667175292969,20102.0,1.0
15:56:08.586869,151217.78125,156812.6875,185067.359375,203927.40625,138754.546875,158558.984375,690948.4375,177143.484375,0.055908203125,1.01171875,-0.031982421875,-1.0986326932907104,-0.2441406100988388,1.1291502714157104,86.66667175292969,20103.0,1.0
15:56:08.588732,151273.484375,156822.703125,185068.703125,203919.171875,138758.734375,158559.53125,691282.0625,177139.109375,0.055419921875,1.0126953125,-0.0322265625,-0.9765624403953552,-0.2441406100988388,1.1901854276657104,86.66667175292969,20104.0,1.0
15:56:08.604507,151213.40625,156815.28125,185055.640625,203882.609375,138749.984375,158559.796875,691620.75,177128.734375,0.05615234375,1.01171875,-0.0302734375,-1.0986326932907104,-0.2136230319738388,1.3122557401657104,86.66667175292969,20105.0,1.0
15:56:08.604538,151154.75,156794.90625,185044.640625,203910.859375,138736.03125,158551.03125,691179.6875,177132.125,0.055908203125,1.01220703125,-0.031005859375,-1.0070799589157104,-0.1525878757238388,1.2512205839157104,86.66667175292969,20106.0,1.0
15:56:08.606948,151189.4375,156800.890625,185052.421875,203912.65625,138740.5,158551.125,690932.875,177133.65625,0.05615234375,1.01416015625,-0.0302734375,-1.0375975370407104,-0.1220703050494194,1.2817381620407104,86.66667175292969,20107.0,1.0
15:56:08.606971,151262.578125,156813.140625,185060.203125,203921.140625,138750.15625,158552.46875,691207.0,177136.78125,0.05712890625,1.01318359375,-0.029541015625,-1.0986326932907104,-0.0915527269244194,1.2817381620407104,86.66667175292969,20108.0,1.0
15:56:08.611442,151224.484375,156814.03125,185055.828125,203884.84375,138749.265625,158553.8125,691620.75,177129.359375,0.057373046875,1.01171875,-0.03125,-1.1596678495407104,-0.03051757626235485,1.1291502714157104,86.66667175292969,20109.0,1.0
15:56:08.613809,151167.09375,156801.25,185051.359375,203917.921875,138743.0,158548.4375,691281.8125,177139.015625,0.055419921875,1.012451171875,-0.030029296875,-1.2207030057907104,-0.0610351525247097,1.2512205839157104,86.66667175292969,20110.0,1.0
15:56:08.624471,151182.640625,156803.84375,185056.1875,203915.78125,138745.875,158548.0,690940.0,177138.203125,0.0556640625,1.012939453125,-0.030517578125,-1.1596678495407104,0.0610351525247097,1.2817381620407104,86.66667175292969,20111.0,1.0
15:56:08.624498,151261.234375,156816.09375,185066.546875,203924.71875,138757.765625,158548.703125,691126.4375,177141.875,0.05615234375,1.011474609375,-0.0322265625,-1.2512205839157104,0.0,1.2207030057907104,86.66667175292969,20112.0,1.0
15:56:08.626951,151235.3125,156814.84375,185057.609375,203884.578125,138755.4375,158547.453125,691579.625,177130.34375,0.056640625,1.0126953125,-0.032470703125,-1.3732908964157104,0.1525878757238388,1.2207030057907104,86.66667175292969,20113.0,1.0
15:56:08.627019,151162.703125,156792.75,185041.96875,203900.765625,138739.4375,158537.625,691371.9375,177131.59375,0.0576171875,1.013427734375,-0.03125,-1.2512205839157104,0.1220703050494194,1.0375975370407104,86.66667175292969,20114.0,1.0
15:56:08.634005,151155.375,156785.78125,185037.9375,203898.96875,138732.71875,158533.421875,690958.25,177127.84375,0.056884765625,1.01318359375,-0.031494140625,-1.2817381620407104,0.3051757514476776,0.9765624403953552,86.66667175292969,20115.0,1.0
15:56:08.639954,151229.046875,156795.796875,185044.375,203905.765625,138738.890625,158534.5,691063.25,177128.546875,0.058349609375,1.0126953125,-0.031494140625,-1.2817381620407104,0.2441406100988388,1.0375975370407104,86.66667175292969,20116.0,1.0
15:56:08.646785,151225.296875,156799.546875,185038.828125,203870.359375,138741.3125,158537.53125,691528.25,177119.171875,0.055419921875,1.010986328125,-0.0302734375,-1.3122557401657104,0.2746581733226776,0.8239745497703552,86.66667175292969,20117.0,1.0
15:56:08.646810,151154.75,156783.28125,185028.203125,203879.21875,138730.9375,158534.046875,691471.125,177121.484375,0.056396484375,1.013427734375,-0.033203125,-1.3122557401657104,0.2746581733226776,0.7019042372703552,86.66667175292969,20118.0,1.0
15:56:08.653159,151131.328125,156773.71875,185023.8125,203887.265625,138724.046875,158530.828125,690990.875,177120.0625,0.057861328125,1.010498046875,-0.03125,-1.3122557401657104,0.3356933295726776,0.6713866591453552,86.66667175292969,20119.0,1.0
15:56:08.653189,151202.671875,156784.359375,185030.875,203891.546875,138730.3125,158531.90625,691000.0,177119.515625,0.05615234375,1.010498046875,-0.032470703125,-1.3122557401657104,0.3051757514476776,0.5187987685203552,86.66667175292969,20120.0,1.0
15:56:08.658741,151221.625,156789.09375,185027.390625,203865.984375,138732.09375,158531.984375,691441.5625,177111.46875,0.0546875,1.01171875,-0.03271484375,-1.3732908964157104,0.3356933295726776,0.4882812201976776,86.66667175292969,20121.0,1.0
15:56:08.669292,151148.671875,156772.734375,185013.984375,203860.609375,138720.5625,158526.0,691537.875,177109.515625,0.054931640625,1.013671875,-0.031982421875,-1.4343260526657104,0.3356933295726776,0.3662109076976776,86.66667175292969,20122.0,1.0
15:56:08.669328,151118.0,156764.953125,185012.453125,203882.875,138715.828125,158524.75,691040.6875,177115.953125,0.054931640625,1.0126953125,-0.029052734375,-1.4038084745407104,0.3662109076976776,0.3967284858226776,86.66667175292969,20123.0,1.0
15:56:08.671283,151178.71875,156772.734375,185018.1875,203880.375,138721.015625,158524.296875,690959.4375,177113.71875,0.0546875,1.012451171875,-0.02978515625,-1.4038084745407104,0.3051757514476776,0.4577636420726776,86.66667175292969,20124.0,1.0
15:56:08.675073,151218.046875,156782.390625,185018.71875,203866.15625,138726.375,158526.359375,691345.9375,177111.03125,0.055419921875,1.0107421875,-0.031494140625,-1.2817381620407104,0.3662109076976776,0.4272460639476776,86.66667175292969,20125.0,1.0
15:56:08.685745,151155.203125,156772.28125,185010.21875,203848.71875,138722.890625,158528.0625,691591.875,177109.859375,0.05517578125,1.010986328125,-0.03271484375,-1.4038084745407104,0.4272460639476776,0.3051757514476776,86.66667175292969,20126.0,1.0
15:56:08.685772,151111.296875,156758.515625,185005.75,203878.234375,138716.28125,158524.75,691109.1875,177118.09375,0.053955078125,1.012451171875,-0.032958984375,-1.3427733182907104,0.3356933295726776,0.3662109076976776,86.66667175292969,20127.0,1.0
15:56:08.688076,151160.921875,156767.453125,185015.765625,203876.0,138722.171875,158524.21875,690942.3125,177116.84375,0.052001953125,1.012451171875,-0.03515625,-1.4343260526657104,0.3967284858226776,0.3662109076976776,86.66667175292969,20128.0,1.0
15:56:08.688103,151220.828125,156777.015625,185020.6875,203872.140625,138729.59375,158523.765625,691268.75,177115.140625,0.052978515625,1.012939453125,-0.035400390625,-1.3427733182907104,0.3662109076976776,0.3356933295726776,86.66667175292969,20129.0,1.0
15:56:08.702968,151169.140625,156773.71875,185015.046875,203843.71875,138727.359375,158526.984375,691620.25,177109.953125,0.053466796875,1.01220703125,-0.032470703125,-1.3122557401657104,0.3662109076976776,0.4272460639476776,86.66667175292969,20130.0,1.0
15:56:08.705595,151115.328125,156759.3125,185009.875,203876.0,138720.203125,158523.40625,691193.875,177118.265625,0.052978515625,1.01318359375,-0.032958984375,-1.3427733182907104,0.3356933295726776,0.5187987685203552,86.66667175292969,20131.0,1.0
15:56:08.708467,151147.328125,156767.0,185016.484375,203873.40625,138726.46875,158525.203125,690936.375,177118.09375,0.052734375,1.0126953125,-0.031005859375,-1.3427733182907104,0.2746581733226776,0.3662109076976776,86.66667175292969,20132.0,1.0
15:56:08.708562,151221.71875,156781.140625,185026.5,203879.75,138737.28125,158528.0625,691199.5625,177121.765625,0.051513671875,1.012451171875,-0.031494140625,-1.4038084745407104,0.2746581733226776,0.4577636420726776,86.66667175292969,20133.0,1.0
15:56:08.714730,151182.375,156779.875,185019.875,203841.84375,138735.046875,158529.484375,691621.75,177113.984375,0.05126953125,1.010498046875,-0.032470703125,-1.2207030057907104,0.2746581733226776,0.4272460639476776,86.66667175292969,20134.0,1.0
15:56:08.714792,151123.8125,156765.3125,185015.59375,203875.359375,138728.4375,158526.265625,691296.6875,177126.046875,0.052001953125,1.011962890625,-0.03271484375,-1.2512205839157104,0.2136230319738388,0.3967284858226776,86.66667175292969,20135.0,1.0
15:56:08.721999,151135.625,156762.890625,185016.84375,203872.78125,138726.28125,158522.15625,690947.0625,177123.640625,0.05078125,1.011474609375,-0.029052734375,-1.2817381620407104,0.0610351525247097,0.3662109076976776,86.66667175292969,20136.0,1.0
15:56:08.722088,151211.078125,156771.390625,185021.140625,203879.296875,138730.84375,158519.109375,691126.0625,177121.84375,0.05078125,1.010498046875,-0.032470703125,-1.4038084745407104,0.0610351525247097,0.3356933295726776,86.66667175292969,20137.0,1.0
15:56:08.724169,151189.890625,156774.25,185015.046875,203840.859375,138729.140625,158521.796875,691586.625,177111.5625,0.052490234375,1.01123046875,-0.032470703125,-1.4343260526657104,0.0,0.3356933295726776,86.66667175292969,20138.0,1.0
15:56:08.731387,151123.109375,156759.765625,185007.28125,203862.765625,138719.3125,158518.21875,691392.9375,177117.90625,0.0517578125,1.013427734375,-0.032470703125,-1.4038084745407104,0.03051757626235485,0.4577636420726776,86.66667175292969,20139.0,1.0
15:56:08.741839,151117.375,156756.640625,185006.03125,203865.625,138715.46875,158515.625,690972.125,177114.96875,0.05126953125,1.011962890625,-0.0283203125,-1.5258787870407104,0.03051757626235485,0.4577636420726776,86.66667175292969,20140.0,1.0
15:56:08.741865,151197.671875,156770.9375,185016.84375,203875.71875,138723.875,158517.78125,691060.25,177116.484375,0.05126953125,1.01171875,-0.029541015625,-1.4343260526657104,-0.0915527269244194,0.4272460639476776,86.66667175292969,20141.0,1.0
15:56:08.744452,151200.703125,156779.25,185015.765625,203842.28125,138727.09375,158523.5,691524.5,177108.25,0.051025390625,1.01123046875,-0.03173828125,-1.5563963651657104,-0.1220703050494194,0.3967284858226776,86.66667175292969,20142.0,1.0
15:56:08.744472,151130.078125,156765.3125,185006.5625,203849.703125,138718.59375,158520.546875,691478.0625,177110.765625,0.052978515625,1.01123046875,-0.030029296875,-1.5563963651657104,-0.0915527269244194,0.4882812201976776,86.66667175292969,20143.0,1.0
15:56:08.751469,151111.921875,156759.59375,185006.5625,203862.765625,138715.203125,158518.3125,690997.6875,177113.359375,0.05322265625,1.0126953125,-0.031005859375,-1.5869139432907104,-0.0915527269244194,0.4272460639476776,86.66667175292969,20144.0,1.0
15:56:08.761852,151184.875,156768.96875,185016.03125,203868.390625,138721.109375,158517.78125,691014.75,177113.53125,0.052490234375,1.010498046875,-0.031982421875,-1.6479490995407104,-0.1525878757238388,0.4882812201976776,86.66667175292969,20145.0,1.0
15:56:08.761874,151206.78125,156776.65625,185016.484375,203845.953125,138726.828125,158521.078125,691448.625,177108.890625,0.0537109375,1.011962890625,-0.030517578125,-1.5563963651657104,-0.1525878757238388,0.5798339247703552,86.66667175292969,20146.0,1.0
15:56:08.764496,151140.53125,156766.296875,185009.328125,203842.015625,138721.453125,158520.1875,691551.75,177110.578125,0.053466796875,1.011962890625,-0.03076171875,-1.5869139432907104,-0.1831054538488388,0.6103515028953552,86.66667175292969,20147.0,1.0
15:56:08.764515,151110.40625,156759.671875,185009.234375,203868.65625,138718.234375,158518.125,691049.625,177118.71875,0.052978515625,1.011962890625,-0.0302734375,-1.6174315214157104,-0.1525878757238388,0.7019042372703552,86.66667175292969,20148.0,1.0
15:56:08.794641,151171.828125,156767.8125,185016.21875,203868.296875,138723.0625,158517.328125,690967.8125,177116.03125,0.05419921875,1.01220703125,-0.031005859375,-1.5869139432907104,-0.0915527269244194,0.6713866591453552,86.66667175292969,20149.0,1.0
15:56:08.796344,151211.609375,156773.796875,185014.0625,203853.375,138724.59375,158516.25,691348.3125,177109.6875,0.053955078125,1.0107421875,-0.031494140625,-1.6479490995407104,-0.0610351525247097,0.6103515028953552,86.66667175292969,20150.0,1.0
15:56:08.798835,151143.046875,156762.984375,185000.03125,203828.078125,138713.0625,158513.296875,691598.5625,177101.546875,0.053955078125,1.011474609375,-0.029296875,-1.6174315214157104,-0.0915527269244194,0.7019042372703552,86.66667175292969,20151.0,1.0
15:56:08.801346,151094.046875,156746.265625,184990.90625,203850.78125,138701.703125,158506.59375,691114.5625,177103.875,0.05419921875,1.01318359375,-0.0283203125,-1.7089842557907104,-0.1831054538488388,0.7324218153953552,86.66667175292969,20152.0,1.0
15:56:08.803879,151140.796875,156752.703125,184996.90625,203846.484375,138705.28125,158507.140625,690939.5,177100.75,0.05517578125,1.012451171875,-0.03076171875,-1.7089842557907104,-0.1525878757238388,0.7019042372703552,86.66667175292969,20153.0,1.0
15:56:08.806416,151201.15625,156763.78125,185001.46875,203845.953125,138713.859375,158508.65625,691254.1875,177102.359375,0.05712890625,1.01220703125,-0.031982421875,-1.7700194120407104,-0.0915527269244194,0.7324218153953552,86.66667175292969,20154.0,1.0
15:56:08.808705,151150.1875,156760.125,184993.59375,203816.09375,138711.265625,158510.71875,691619.4375,177097.53125,0.05615234375,1.0107421875,-0.028564453125,-1.8005369901657104,-0.1220703050494194,0.6103515028953552,86.66667175292969,20155.0,1.0
15:56:08.811454,151094.046875,156743.40625,184987.609375,203849.34375,138703.40625,158505.703125,691199.375,177107.09375,0.055419921875,1.012451171875,-0.02978515625,-1.8005369901657104,-0.0610351525247097,0.6713866591453552,86.66667175292969,20156.0,1.0
15:56:08.814394,151125.421875,156748.140625,184994.046875,203846.75,138708.140625,158507.046875,690934.0,177107.09375,0.055419921875,1.012939453125,-0.029052734375,-1.9226073026657104,-0.03051757626235485,0.6408690810203552,86.66667175292969,20157.0,1.0
15:56:08.814410,151197.75,156758.6875,185000.21875,203852.484375,138715.203125,158507.3125,691187.3125,177108.078125,0.05419921875,1.013916015625,-0.0283203125,-1.8310545682907104,0.0,0.5493163466453552,86.66667175292969,20158.0,1.0
15:56:08.820724,151158.328125,156756.453125,184991.984375,203813.234375,138712.15625,158508.46875,691613.625,177099.40625,0.055419921875,1.013916015625,-0.031005859375,-1.7700194120407104,-0.03051757626235485,0.5798339247703552,86.66667175292969,20159.0,1.0
15:56:08.820769,151098.34375,156743.046875,184986.890625,203843.453125,138704.921875,158505.609375,691292.1875,177109.0625,0.05712890625,1.0146484375,-0.03076171875,-1.8615721464157104,0.0,0.6103515028953552,86.66667175292969,20160.0,1.0
15:56:08.825171,151111.203125,156745.640625,184990.90625,203839.0625,138704.734375,158505.4375,690934.75,177106.109375,0.05712890625,1.014404296875,-0.02880859375,-1.9226073026657104,0.1220703050494194,0.7019042372703552,86.66667175292969,20161.0,1.0
15:56:08.827466,151190.515625,156758.15625,184999.9375,203848.359375,138713.5,158507.21875,691094.25,177108.34375,0.055419921875,1.013916015625,-0.031982421875,-2.044677495956421,0.03051757626235485,0.6408690810203552,86.66667175292969,20162.0,1.0
15:56:08.830100,151168.34375,156756.28125,184992.875,203810.90625,138712.078125,158508.390625,691564.375,177098.421875,0.0556640625,1.01416015625,-0.03125,-2.014159917831421,0.0915527269244194,0.5493163466453552,86.66667175292969,20163.0,1.0
15:56:08.832552,151101.90625,156740.1875,184982.515625,203831.203125,138701.4375,158503.5625,691381.625,177104.40625,0.054931640625,1.013671875,-0.02978515625,-2.075195074081421,0.1525878757238388,0.5798339247703552,86.66667175292969,20164.0,1.0
15:56:08.835582,151101.015625,156742.421875,184986.4375,203838.359375,138702.5,158505.53125,690955.3125,177106.203125,0.05517578125,1.015869140625,-0.028564453125,-2.166747808456421,0.1831054538488388,0.5798339247703552,86.66667175292969,20165.0,1.0
15:56:08.835600,151181.65625,156756.640625,184999.5,203849.890625,138713.328125,158507.046875,691048.125,177108.25,0.05419921875,1.013916015625,-0.03173828125,-2.075195074081421,0.2746581733226776,0.5798339247703552,86.66667175292969,20166.0,1.0
15:56:08.845007,151181.9375,156759.859375,184994.484375,203815.546875,138714.390625,158509.734375,691509.1875,177099.578125,0.053955078125,1.013671875,-0.029296875,-2.105712652206421,0.1831054538488388,0.6713866591453552,86.66667175292969,20167.0,1.0
15:56:08.849353,151109.515625,156742.515625,184982.234375,203821.546875,138704.203125,158506.328125,691473.6875,177101.375,0.054443359375,1.014404296875,-0.028076171875,-2.075195074081421,0.2136230319738388,0.6408690810203552,86.66667175292969,20168.0,1.0
15:56:08.849393,151092.34375,156740.1875,184982.78125,203836.390625,138702.0625,158507.21875,690989.125,177103.34375,0.052978515625,1.01171875,-0.029541015625,-2.014159917831421,0.0915527269244194,0.6713866591453552,86.66667175292969,20169.0,1.0
15:56:08.858844,151168.25,156754.671875,184995.203125,203843.8125,138713.5,158510.171875,690991.3125,177105.3125,0.05224609375,1.01171875,-0.028076171875,-2.075195074081421,0.1525878757238388,0.4882812201976776,86.66667175292969,20170.0,1.0
15:56:08.863284,151192.921875,156762.984375,184995.921875,203818.328125,138717.4375,158511.96875,691429.6875,177097.625,0.0546875,1.01318359375,-0.02734375,-2.136230230331421,0.1831054538488388,0.5187987685203552,86.66667175292969,20171.0,1.0
15:56:08.863378,151126.328125,156752.171875,184987.25,203810.28125,138708.3125,158510.171875,691555.6875,177095.65625,0.053466796875,1.012451171875,-0.02685546875,-2.166747808456421,0.0915527269244194,0.5493163466453552,86.66667175292969,20172.0,1.0
15:56:08.865696,151093.328125,156744.03125,184985.640625,203833.875,138704.375,158508.390625,691056.25,177101.640625,0.05322265625,1.012939453125,-0.02587890625,-2.166747808456421,0.03051757626235485,0.5493163466453552,86.66667175292969,20173.0,1.0
15:56:08.891831,151155.828125,156754.671875,184996.015625,203837.546875,138713.765625,158510.796875,690964.8125,177103.4375,0.052734375,1.012939453125,-0.025634765625,-2.166747808456421,0.0915527269244194,0.4882812201976776,86.66667175292969,20174.0,1.0
15:56:08.891868,151197.21875,156762.0,184996.09375,203823.59375,138718.328125,158510.71875,691342.0625,177099.9375,0.0517578125,1.012451171875,-0.02587890625,-2.258300542831421,0.0,0.5187987685203552,86.66667175292969,20175.0,1.0
15:56:08.917668,151132.40625,156752.609375,184985.015625,203799.015625,138709.84375,158509.015625,691604.875,177094.21875,0.05322265625,1.0107421875,-0.02734375,-2.197265386581421,-0.03051757626235485,0.4577636420726776,86.66667175292969,20176.0,1.0
15:56:08.920429,151079.5625,156731.15625,184971.25,203821.984375,138694.1875,158498.109375,691121.875,177095.828125,0.0517578125,1.01025390625,-0.027587890625,-2.227782964706421,0.03051757626235485,0.5798339247703552,86.66667175292969,20177.0,1.0
15:56:08.923069,151124.078125,156738.3125,184976.609375,203818.234375,138695.078125,158499.53125,690940.5625,177093.5,0.052001953125,1.01171875,-0.02490234375,-2.258300542831421,-0.0610351525247097,0.4882812201976776,86.66667175292969,20178.0,1.0
15:56:08.923097,151184.609375,156750.015625,184982.515625,203816.8125,138703.21875,158501.40625,691254.8125,177093.6875,0.053466796875,1.01123046875,-0.02490234375,-2.258300542831421,-0.1831054538488388,0.5187987685203552,86.66667175292969,20179.0,1.0
15:56:08.925184,151135.703125,156749.484375,184978.484375,203786.140625,138704.734375,158506.421875,691618.25,177088.3125,0.05224609375,1.010009765625,-0.025390625,-2.227782964706421,-0.1525878757238388,0.4882812201976776,86.66667175292969,20180.0,1.0
15:56:08.927495,151085.1875,156739.734375,184977.5,203822.34375,138700.71875,158505.796875,691213.5,177099.234375,0.052490234375,1.01025390625,-0.025634765625,-2.136230230331421,-0.0610351525247097,0.5187987685203552,86.66667175292969,20181.0,1.0
15:56:08.932581,151119.609375,156749.75,184988.859375,203824.859375,138707.421875,158510.890625,690944.5,177101.640625,0.052490234375,1.01171875,-0.02587890625,-2.227782964706421,-0.0610351525247097,0.5798339247703552,86.66667175292969,20182.0,1.0
15:56:08.934997,151194.0,156762.265625,184996.1875,203831.015625,138717.34375,158512.234375,691185.5,177103.515625,0.052734375,1.009765625,-0.028564453125,-2.105712652206421,-0.0610351525247097,0.5187987685203552,86.66667175292969,20183.0,1.0
15:56:08.937526,151156.71875,156759.859375,184987.875,203789.359375,138714.578125,158512.234375,691620.5625,177091.890625,0.052734375,1.00830078125,-0.029052734375,-2.136230230331421,-0.1831054538488388,0.5493163466453552,86.66667175292969,20184.0,1.0
15:56:08.940001,151094.140625,156740.28125,184980.09375,203821.1875,138704.46875,158506.515625,691314.875,177100.84375,0.05322265625,1.009521484375,-0.0302734375,-1.9226073026657104,-0.2136230319738388,0.5493163466453552,86.66667175292969,20185.0,1.0
15:56:08.942490,151099.859375,156735.09375,184977.40625,203819.390625,138700.0,158499.71875,690946.8125,177096.546875,0.052001953125,1.0107421875,-0.026123046875,-1.9531248807907104,-0.3051757514476776,0.5798339247703552,86.66667175292969,20186.0,1.0
15:56:08.944987,151177.546875,156744.921875,184984.203125,203828.34375,138707.78125,158497.84375,691097.9375,177099.046875,0.051513671875,1.012451171875,-0.0263671875,-1.9226073026657104,-0.3051757514476776,0.5798339247703552,86.66667175292969,20187.0,1.0
15:56:08.948030,151163.421875,156750.46875,184981.078125,203791.328125,138710.546875,158503.109375,691576.0625,177092.34375,0.052490234375,1.011474609375,-0.025634765625,-1.8310545682907104,-0.3662109076976776,0.4882812201976776,86.66667175292969,20188.0,1.0
15:56:08.948043,151103.25,156741.796875,184978.21875,203815.203125,138706.96875,158504.28125,691405.5625,177101.734375,0.052490234375,1.0107421875,-0.02685546875,-1.9226073026657104,-0.3662109076976776,0.5798339247703552,86.66667175292969,20189.0,1.0
15:56:08.949966,151105.125,156744.921875,184985.375,203826.90625,138709.65625,158507.3125,690966.8125,177104.953125,0.05322265625,1.01171875,-0.02490234375,-1.8310545682907104,-0.3662109076976776,0.5798339247703552,86.66667175292969,20190.0,1.0
15:56:08.953135,151184.875,156757.171875,184995.46875,203837.09375,138718.15625,158508.203125,691039.1875,177105.9375,0.05517578125,1.011474609375,-0.02734375,-1.8310545682907104,-0.3662109076976776,0.5798339247703552,86.66667175292969,20191.0,1.0
15:56:08.953217,151187.5625,156763.875,184992.96875,203805.265625,138720.65625,158510.171875,691504.8125,177097.171875,0.055419921875,1.01171875,-0.02587890625,-1.8920897245407104,-0.3051757514476776,0.7324218153953552,86.66667175292969,20192.0,1.0
15:56:08.956146,151119.609375,156750.90625,184985.109375,203813.234375,138712.34375,158507.84375,691489.625,177100.03125,0.05419921875,1.010498046875,-0.025146484375,-1.8005369901657104,-0.2441406100988388,0.7019042372703552,86.66667175292969,20193.0,1.0
15:56:08.956168,151098.6875,156744.203125,184984.296875,203827.171875,138708.3125,158504.8125,691002.3125,177099.9375,0.055908203125,1.010498046875,-0.024169921875,-1.7395018339157104,-0.2136230319738388,0.7019042372703552,86.66667175292969,20194.0,1.0
15:56:08.957520,151169.859375,156753.59375,184994.3125,203830.84375,138717.078125,158505.078125,690989.8125,177098.328125,0.055908203125,1.01220703125,-0.02783203125,-1.8615721464157104,-0.2136230319738388,0.7019042372703552,86.66667175292969,20195.0,1.0
15:56:08.960507,151196.5,156762.09375,184993.59375,203808.40625,138721.90625,158507.3125,691419.9375,177094.125,0.054443359375,1.011474609375,-0.02783203125,-1.8310545682907104,-0.1220703050494194,0.7629393935203552,86.66667175292969,20196.0,1.0
15:56:08.960521,151129.1875,156748.40625,184983.84375,203800.890625,138714.03125,158505.96875,691559.25,177096.71875,0.05517578125,1.010986328125,-0.024169921875,-1.7395018339157104,-0.0610351525247097,0.7934569716453552,86.66667175292969,20197.0,1.0
15:56:08.967574,151091.625,156735.71875,184978.046875,203821.984375,138706.078125,158501.859375,691051.5,177101.1875,0.05615234375,1.010498046875,-0.025634765625,-1.7395018339157104,-0.03051757626235485,0.7324218153953552,86.66667175292969,20198.0,1.0
15:56:08.978155,151150.1875,156745.546875,184986.4375,203820.296875,138712.078125,158502.578125,690958.4375,177101.640625,0.05517578125,1.0107421875,-0.027587890625,-1.8005369901657104,-0.03051757626235485,0.8544921278953552,86.66667175292969,20199.0,1.0
15:56:08.978179,151194.1875,156752.796875,184986.4375,203806.796875,138716.546875,158501.5,691331.875,177098.515625,0.053955078125,1.009765625,-0.0244140625,-1.8310545682907104,0.03051757626235485,0.7629393935203552,86.66667175292969,20200.0,1.0
15:56:08.980567,151133.109375,156745.8125,184976.15625,203783.546875,138709.65625,158502.3125,691606.8125,177095.65625,0.0537109375,1.010009765625,-0.029052734375,-1.7089842557907104,0.1525878757238388,0.7324218153953552,86.66667175292969,20201.0,1.0
15:56:08.980587,151084.65625,156731.875,184968.65625,203812.421875,138701.15625,158499.0,691126.625,177102.71875,0.055419921875,1.009765625,-0.028076171875,-1.6174315214157104,0.1220703050494194,0.7629393935203552,86.66667175292969,20202.0,1.0
15:56:08.986433,151130.609375,156742.59375,184977.953125,203810.640625,138708.671875,158502.75,690934.625,177100.84375,0.055908203125,1.012451171875,-0.02490234375,-1.6174315214157104,0.1831054538488388,0.8239745497703552,86.66667175292969,20203.0,1.0
15:56:08.996775,151196.765625,156757.796875,184986.890625,203812.515625,138719.671875,158506.953125,691239.4375,177103.15625,0.055419921875,1.015380859375,-0.026123046875,-1.6479490995407104,0.2746581733226776,0.7324218153953552,86.66667175292969,20204.0,1.0
15:56:08.996795,151149.203125,156757.0,184981.796875,203781.671875,138718.59375,158510.890625,691616.5,177097.96875,0.05615234375,1.014404296875,-0.029296875,-1.5258787870407104,0.4272460639476776,0.7324218153953552,86.66667175292969,20205.0,1.0
15:56:09.004523,151095.390625,156742.859375,184976.703125,203813.859375,138712.078125,158507.3125,691210.3125,177104.953125,0.0546875,1.013671875,-0.0263671875,-1.5869139432907104,0.3356933295726776,0.7019042372703552,86.66667175292969,20206.0,1.0
15:56:09.004589,151123.8125,156746.625,184982.859375,203811.890625,138716.09375,158507.765625,690933.25,177104.859375,0.05712890625,1.011962890625,-0.029541015625,-1.5563963651657104,0.3967284858226776,0.7019042372703552,86.66667175292969,20207.0,1.0
15:56:09.010657,151199.640625,156759.3125,184992.96875,203820.5625,138726.90625,158510.171875,691174.4375,177109.0625,0.053955078125,1.01220703125,-0.03125,-1.4648436307907104,0.2441406100988388,0.5187987685203552,86.66667175292969,20208.0,1.0
15:56:09.010680,151164.5,156758.78125,184985.453125,203781.9375,138724.671875,158513.75,691610.1875,177100.390625,0.052001953125,1.013916015625,-0.02783203125,-1.4648436307907104,0.3967284858226776,0.5187987685203552,86.66667175292969,20209.0,1.0
15:56:09.018193,151101.109375,156744.203125,184977.59375,203810.015625,138714.84375,158512.234375,691316.625,177109.15625,0.053955078125,1.01416015625,-0.030029296875,-1.4343260526657104,0.3356933295726776,0.3967284858226776,86.66667175292969,20210.0,1.0
15:56:09.018214,151109.6875,156745.734375,184980.453125,203808.484375,138713.234375,158514.5625,690953.625,177106.640625,0.054931640625,1.014404296875,-0.02880859375,-1.4648436307907104,0.2746581733226776,0.4272460639476776,86.66667175292969,20211.0,1.0
15:56:09.025691,151188.015625,156758.15625,184988.40625,203817.34375,138720.203125,158514.640625,691109.5625,177106.828125,0.05419921875,1.01416015625,-0.0283203125,-1.4343260526657104,0.1831054538488388,0.3356933295726776,86.66667175292969,20212.0,1.0
15:56:09.025717,151173.796875,156762.71875,184985.453125,203782.5625,138721.8125,158517.328125,691576.4375,177099.40625,0.051513671875,1.015380859375,-0.025390625,-1.5258787870407104,0.1525878757238388,0.1831054538488388,86.66667175292969,20213.0,1.0
15:56:09.031535,151108.796875,156749.484375,184981.796875,203804.46875,138716.09375,158515.359375,691416.75,177107.1875,0.0517578125,1.015869140625,-0.027099609375,-1.6784666776657104,0.0610351525247097,0.0915527269244194,86.66667175292969,20214.0,1.0
15:56:09.039465,151104.765625,156748.671875,184984.125,203810.453125,138716.09375,158515.984375,690974.375,177107.453125,0.052734375,1.014892578125,-0.028564453125,-1.8310545682907104,0.1220703050494194,0.0610351525247097,86.66667175292969,20215.0,1.0
15:56:09.039484,151180.6875,156757.171875,184991.359375,203816.265625,138722.359375,158512.59375,691036.9375,177105.390625,0.052001953125,1.015625,-0.02685546875,-1.9226073026657104,0.1525878757238388,0.0610351525247097,86.66667175292969,20216.0,1.0
15:56:09.041873,151185.859375,156762.265625,184988.671875,203784.171875,138723.96875,158513.9375,691503.4375,177095.921875,0.052001953125,1.014404296875,-0.02783203125,-2.044677495956421,0.0915527269244194,-0.03051757626235485,86.66667175292969,20217.0,1.0
15:56:09.041932,151117.734375,156749.296875,184981.609375,203790.96875,138716.625,158512.59375,691500.625,177099.046875,0.053466796875,1.0146484375,-0.02587890625,-2.075195074081421,0.03051757626235485,0.03051757626235485,86.66667175292969,20218.0,1.0
15:56:09.057503,151096.734375,156743.046875,184980.28125,203806.609375,138711.453125,158510.890625,691007.0,177101.546875,0.053955078125,1.01416015625,-0.029541015625,-2.136230230331421,0.03051757626235485,-0.1220703050494194,86.66667175292969,20219.0,1.0
