Timestamp,Fz,FC3,FCz,FC4,Cz,C3,C4
15:43:40.037490,157330.09375,177681.265625,176673.203125,182437.546875,160480.96875,174111.78125,690774.375,188995.28125,0.056640625,1.010498046875,0.002685546875,-1.8615721464157104,0.1525878757238388,0.6408690810203552,86.66667175292969,232243.0,1.0
15:43:40.040518,157394.375,177692.625,176678.75,182435.125,160490.890625,174110.171875,691004.9375,188991.96875,0.057861328125,1.01123046875,0.001708984375,-1.8920897245407104,0.1220703050494194,0.6713866591453552,86.66667175292969,232244.0,1.0
15:43:40.040530,157343.40625,177687.96875,176668.46875,182390.515625,160482.046875,174109.1875,691296.0625,188980.609375,0.059326171875,1.0126953125,0.000732421875,-1.8920897245407104,0.1525878757238388,0.6408690810203552,86.66667175292969,232245.0,1.0
15:43:40.044040,157290.21875,177670.53125,176661.765625,182434.953125,160470.609375,174102.484375,691002.0625,188991.078125,0.059326171875,1.01171875,-0.00146484375,-1.9226073026657104,0.1525878757238388,0.7324218153953552,86.66667175292969,232246.0,1.0
15:43:40.044052,157312.484375,177675.015625,176668.28125,182431.90625,160475.078125,174103.734375,690766.6875,188990.984375,0.0576171875,1.0107421875,0.00048828125,-1.8920897245407104,0.2136230319738388,0.6408690810203552,86.66667175292969,232247.0,1.0
15:43:40.044055,157391.875,177690.921875,176681.25,182439.328125,160491.25,174107.484375,690949.125,188993.671875,0.055908203125,1.01220703125,0.0,-1.8615721464157104,0.1831054538488388,0.7019042372703552,86.66667175292969,232248.0,1.0
15:43:40.044059,157361.75,177695.21875,176677.859375,182392.5625,160491.609375,174114.375,691288.625,188985.171875,0.0576171875,1.0107421875,0.0,-1.8615721464157104,0.2441406100988388,0.6103515028953552,86.66667175292969,232249.0,1.0
15:43:40.046645,157302.734375,177680.1875,176670.96875,182431.1875,160481.15625,174112.40625,691088.375,188994.5625,0.0576171875,1.012939453125,0.0009765625,-1.8005369901657104,0.2441406100988388,0.7019042372703552,86.66667175292969,232250.0,1.0
15:43:40.046661,157305.859375,177680.375,176672.3125,182433.421875,160478.828125,174112.765625,690791.4375,188991.515625,0.0576171875,1.0126953125,0.0009765625,-1.8310545682907104,0.2746581733226776,0.6713866591453552,86.66667175292969,232251.0,1.0
15:43:40.048620,157387.9375,177696.203125,176685.71875,182441.734375,160492.328125,174114.203125,690908.875,188991.421875,0.058349609375,1.01318359375,0.0009765625,-1.8005369901657104,0.3356933295726776,0.6713866591453552,86.66667175292969,232252.0,1.0
15:43:40.051120,157380.078125,177704.515625,176685.265625,182399.453125,160496.0,174118.84375,691270.8125,188983.203125,0.056884765625,1.010009765625,0.001953125,-1.8310545682907104,0.3967284858226776,0.6408690810203552,86.66667175292969,232253.0,1.0
15:43:40.057984,157312.296875,177683.40625,176672.9375,182420.015625,160479.984375,174109.1875,691166.375,188986.328125,0.056640625,1.011474609375,0.005126953125,-1.8615721464157104,0.3967284858226776,0.6713866591453552,86.66667175292969,232254.0,1.0
15:43:40.057998,157294.59375,177671.171875,176665.875,182430.65625,160468.015625,174101.40625,690814.3125,188984.1875,0.0595703125,1.0107421875,0.005126953125,-1.8310545682907104,0.3662109076976776,0.5493163466453552,86.66667175292969,232255.0,1.0
15:43:40.065861,157372.921875,177685.296875,176678.203125,182439.859375,160479.453125,174104.984375,690852.875,188986.6875,0.05859375,1.01123046875,0.00244140625,-1.8920897245407104,0.4577636420726776,0.5798339247703552,86.66667175292969,232256.0,1.0
15:43:40.065892,157383.296875,177695.390625,176678.5625,182405.53125,160485.625,174112.671875,691207.6875,188981.234375,0.05810546875,1.01123046875,0.003662109375,-1.8615721464157104,0.4272460639476776,0.6103515028953552,86.66667175292969,232257.0,1.0
15:43:40.071675,157313.28125,177680.640625,176665.96875,182406.96875,160472.21875,174110.171875,691228.625,188982.75,0.0556640625,1.009521484375,0.00341796875,-1.8005369901657104,0.3662109076976776,0.6408690810203552,86.66667175292969,232258.0,1.0
15:43:40.071687,157288.703125,177673.125,176664.0,182433.515625,160465.78125,174108.46875,690851.4375,188989.640625,0.056396484375,1.00927734375,0.0009765625,-1.8310545682907104,0.3662109076976776,0.6103515028953552,86.66667175292969,232259.0,1.0
15:43:40.077371,157361.296875,177688.0625,176677.9375,182441.46875,160479.1875,174113.296875,690816.625,188994.296875,0.05322265625,1.00732421875,0.000244140625,-1.7700194120407104,0.4577636420726776,0.5187987685203552,86.66667175292969,232260.0,1.0
15:43:40.086722,157394.640625,177700.21875,176682.59375,182420.375,160487.953125,174116.875,691140.375,188990.171875,0.052978515625,1.0078125,0.001953125,-1.7089842557907104,0.3967284858226776,0.6103515028953552,86.66667175292969,232261.0,1.0
15:43:40.086748,157330.09375,177690.03125,176674.015625,182405.359375,160477.9375,174114.640625,691273.0,188988.203125,0.053466796875,1.0078125,0.00146484375,-1.6784666776657104,0.4577636420726776,0.6103515028953552,86.66667175292969,232262.0,1.0
15:43:40.091671,157291.203125,177673.484375,176665.78125,182438.609375,160465.953125,174105.4375,690891.125,188993.484375,0.05322265625,1.01025390625,0.003662109375,-1.6479490995407104,0.3356933295726776,0.6713866591453552,86.66667175292969,232263.0,1.0
15:43:40.091682,157345.65625,177683.953125,176676.0625,182434.40625,160474.0,174107.21875,690793.9375,188992.328125,0.053955078125,1.008544921875,0.002197265625,-1.6479490995407104,0.3051757514476776,0.7019042372703552,86.66667175292969,232264.0,1.0
15:43:40.093593,157397.328125,177694.328125,176681.078125,182424.3125,160483.203125,174107.484375,691077.25,188989.1875,0.054931640625,1.0078125,-0.002197265625,-1.4343260526657104,0.1525878757238388,0.6713866591453552,86.66667175292969,232265.0,1.0
15:43:40.103619,157338.3125,177687.703125,176672.9375,182394.171875,160477.75,174108.390625,691301.75,188984.90625,0.05419921875,1.00830078125,-0.00146484375,-1.4343260526657104,0.2136230319738388,0.6408690810203552,86.66667175292969,232266.0,1.0
15:43:40.107902,157292.90625,177670.453125,176665.609375,182438.078125,160466.671875,174101.59375,690945.5,188994.46875,0.05419921875,1.00732421875,-0.00146484375,-1.3122557401657104,0.1220703050494194,0.7019042372703552,86.66667175292969,232267.0,1.0
15:43:40.107918,157327.234375,177675.28125,176670.96875,182432.625,160468.640625,174101.765625,690779.0,188991.078125,0.056396484375,1.0087890625,0.0009765625,-1.2207030057907104,0.0915527269244194,0.7324218153953552,86.66667175292969,232268.0,1.0
15:43:40.117720,157391.25,177686.8125,176676.328125,182431.453125,160479.359375,174102.3125,691020.5,188988.84375,0.056884765625,1.01025390625,0.00048828125,-1.0375975370407104,0.1831054538488388,0.5798339247703552,86.66667175292969,232269.0,1.0
15:43:40.124156,157343.40625,177685.015625,176668.375,182388.359375,160477.3125,174105.875,691316.125,188981.0625,0.057373046875,1.009765625,0.000732421875,-1.0986326932907104,0.2136230319738388,0.5798339247703552,86.66667175292969,232270.0,1.0
15:43:40.124181,157282.96875,177661.421875,176655.328125,182427.171875,160461.21875,174094.078125,691024.625,188986.78125,0.05712890625,1.009521484375,0.002197265625,-1.0375975370407104,0.2136230319738388,0.4882812201976776,86.66667175292969,232271.0,1.0
15:43:40.126649,157301.75,177661.234375,176656.03125,182420.28125,160459.0625,174090.765625,690778.5625,188980.515625,0.058837890625,1.008056640625,0.001220703125,-1.0375975370407104,0.3967284858226776,0.3356933295726776,86.66667175292969,232272.0,1.0
15:43:40.126668,157383.015625,177678.578125,176668.640625,182427.890625,160472.390625,174094.4375,690946.4375,188981.5,0.057373046875,1.008544921875,-0.002197265625,-0.9765624403953552,0.4882812201976776,0.3356933295726776,86.66667175292969,232273.0,1.0
15:43:40.132314,157350.203125,177681.09375,176661.84375,182380.671875,160469.078125,174097.03125,691301.375,188972.75,0.0576171875,1.009521484375,-0.001220703125,-0.8850097060203552,0.5187987685203552,0.1525878757238388,86.66667175292969,232274.0,1.0
15:43:40.142928,157294.234375,177666.0625,176656.75,182421.796875,160457.640625,174092.65625,691109.875,188985.4375,0.05908203125,1.01123046875,0.002197265625,-0.9155272841453552,0.6103515028953552,0.1831054538488388,86.66667175292969,232275.0,1.0
15:43:40.142944,157301.484375,177667.234375,176661.140625,182427.265625,160457.1875,174094.265625,690809.0625,188986.15625,0.060302734375,1.01220703125,0.000732421875,-0.9765624403953552,0.7019042372703552,0.0915527269244194,86.66667175292969,232276.0,1.0
15:43:40.145483,157384.265625,177682.703125,176673.375,182438.171875,160470.421875,174098.28125,690905.0625,188987.40625,0.061767578125,1.011962890625,0.0009765625,-1.0070799589157104,0.8239745497703552,0.03051757626235485,86.66667175292969,232277.0,1.0
15:43:40.145501,157373.1875,177689.21875,176670.96875,182394.625,160474.71875,174105.25,691272.375,188981.421875,0.064208984375,1.012451171875,0.000732421875,-1.0375975370407104,0.9155272841453552,0.0610351525247097,86.66667175292969,232278.0,1.0
15:43:40.152342,157303.359375,177666.0625,176656.21875,182413.125,160459.25,174095.875,691173.5625,188985.625,0.0634765625,1.01318359375,0.00341796875,-0.9765624403953552,1.0375975370407104,-0.1220703050494194,86.66667175292969,232279.0,1.0
15:43:40.159120,157288.703125,177656.046875,176651.828125,182426.1875,160452.265625,174090.859375,690819.4375,188985.4375,0.063232421875,1.015625,0.003173828125,-1.0070799589157104,1.1596678495407104,0.0,86.66667175292969,232280.0,1.0
15:43:40.159135,157369.703125,177674.109375,176667.390625,182434.765625,160467.46875,174095.421875,690852.9375,188987.046875,0.063720703125,1.01513671875,0.0029296875,-1.0681151151657104,1.2512205839157104,-0.1220703050494194,86.66667175292969,232281.0,1.0
15:43:40.164815,157383.375,177688.15625,176670.796875,182402.3125,160476.5,174102.3125,691209.375,188981.234375,0.063232421875,1.01611328125,0.00439453125,-1.0986326932907104,1.4038084745407104,-0.0915527269244194,86.66667175292969,232282.0,1.0
15:43:40.171680,157318.921875,177676.890625,176664.265625,182410.53125,160468.015625,174100.421875,691231.6875,188986.0625,0.0615234375,1.01416015625,0.005126953125,-1.1596678495407104,1.4648436307907104,-0.0610351525247097,86.66667175292969,232283.0,1.0
15:43:40.171707,157295.40625,177668.296875,176662.65625,182439.78125,160461.21875,174096.765625,690843.125,188991.96875,0.060791015625,1.013916015625,0.0068359375,-1.2207030057907104,1.6174315214157104,-0.03051757626235485,86.66667175292969,232284.0,1.0
15:43:40.176066,157370.421875,177687.609375,176681.515625,182448.453125,160477.21875,174104.625,690836.6875,188995.625,0.0595703125,1.0146484375,0.0048828125,-1.2207030057907104,1.6784666776657104,-0.0610351525247097,86.66667175292969,232285.0,1.0
15:43:40.179778,157407.34375,177704.6875,176689.65625,182429.578125,160491.796875,174114.828125,691165.0625,188994.640625,0.055908203125,1.013916015625,0.003662109375,-1.1291502714157104,1.7700194120407104,-0.03051757626235485,86.66667175292969,232286.0,1.0
15:43:40.190550,157342.96875,177695.21875,176682.046875,182416.890625,160485.0,174114.640625,691289.125,188996.34375,0.056884765625,1.01318359375,0.00341796875,-1.1596678495407104,1.7089842557907104,0.0,86.66667175292969,232287.0,1.0
15:43:40.190592,157303.09375,177677.953125,176674.546875,182454.265625,160474.53125,174106.59375,690902.5625,189004.65625,0.056884765625,1.0126953125,0.0029296875,-1.2207030057907104,1.7089842557907104,0.0610351525247097,86.66667175292969,232288.0,1.0
15:43:40.192348,157356.46875,177686.0,176682.046875,182450.234375,160481.859375,174107.671875,690804.9375,189003.59375,0.05615234375,1.01611328125,0.001220703125,-1.2207030057907104,1.7395018339157104,0.1525878757238388,86.66667175292969,232289.0,1.0
15:43:40.198345,157404.484375,177694.671875,176684.109375,182436.015625,160489.90625,174108.390625,691083.4375,188997.953125,0.053955078125,1.01220703125,0.003662109375,-1.3427733182907104,1.7700194120407104,0.1525878757238388,86.66667175292969,232290.0,1.0
15:43:40.201090,157346.0,177689.046875,176677.765625,182406.875,160485.0,174110.796875,691319.9375,188993.9375,0.052490234375,1.01220703125,0.000732421875,-1.3732908964157104,1.7089842557907104,0.2441406100988388,86.66667175292969,232291.0,1.0
15:43:40.211764,157296.296875,177669.734375,176668.546875,182448.453125,160470.421875,174101.328125,690958.8125,189000.640625,0.052001953125,1.011962890625,-0.000732421875,-1.3427733182907104,1.5869139432907104,0.3051757514476776,86.66667175292969,232292.0,1.0
15:43:40.211790,157335.546875,177679.84375,176675.96875,182443.171875,160474.0,174104.8125,690791.125,188996.96875,0.051025390625,1.01171875,0.001953125,-1.2817381620407104,1.7089842557907104,0.4272460639476776,86.66667175292969,232293.0,1.0
15:43:40.214165,157406.359375,177697.984375,176687.328125,182445.5,160489.640625,174111.328125,691029.4375,188997.328125,0.050048828125,1.011962890625,0.00390625,-1.3732908964157104,1.4953612089157104,0.3662109076976776,86.66667175292969,232294.0,1.0
15:43:40.214190,157356.640625,177696.28125,176678.203125,182397.03125,160484.109375,174112.765625,691329.125,188986.953125,0.048583984375,1.010986328125,0.00390625,-1.4343260526657104,1.3732908964157104,0.4577636420726776,86.66667175292969,232295.0,1.0
15:43:40.253592,157300.765625,177676.796875,176670.078125,182437.0,160471.046875,174104.984375,691036.6875,188995.28125,0.051025390625,1.011962890625,0.0048828125,-1.3427733182907104,1.2817381620407104,0.3967284858226776,86.66667175292969,232296.0,1.0
15:43:40.259944,157321.78125,177681.71875,176675.171875,182434.046875,160473.375,174108.109375,690796.875,188995.1875,0.048583984375,1.01123046875,0.0048828125,-1.3122557401657104,1.0986326932907104,0.5187987685203552,86.66667175292969,232297.0,1.0
15:43:40.262330,157403.140625,177698.609375,176688.21875,182443.796875,160488.9375,174112.59375,690962.75,188998.140625,0.049560546875,1.01220703125,0.001708984375,-1.3732908964157104,1.0070799589157104,0.5798339247703552,86.66667175292969,232298.0,1.0
15:43:40.264907,157367.546875,177694.953125,176679.015625,182393.90625,160484.453125,174111.875,691299.875,188984.8125,0.048095703125,1.013916015625,0.004638671875,-1.3732908964157104,0.8239745497703552,0.5798339247703552,86.66667175292969,232299.0,1.0
15:43:40.267379,157299.875,177669.203125,176664.703125,182427.53125,160466.21875,174098.28125,691092.125,188988.296875,0.048583984375,1.013427734375,0.005126953125,-1.4648436307907104,0.7629393935203552,0.5187987685203552,86.66667175292969,232300.0,1.0
15:43:40.269939,157303.53125,177664.90625,176664.53125,182432.53125,160461.21875,174094.078125,690791.875,188986.15625,0.045654296875,1.01318359375,0.003662109375,-1.4038084745407104,0.5187987685203552,0.6713866591453552,86.66667175292969,232301.0,1.0
15:43:40.272377,157384.8125,177679.84375,176674.984375,182439.78125,160471.5,174094.34375,690912.3125,188984.8125,0.049072265625,1.011962890625,0.00244140625,-1.3732908964157104,0.4577636420726776,0.7934569716453552,86.66667175292969,232302.0,1.0
15:43:40.274796,157374.265625,177689.21875,176672.75,182396.59375,160474.0,174100.34375,691269.75,188974.984375,0.0498046875,1.01123046875,0.00048828125,-1.3732908964157104,0.3051757514476776,0.7934569716453552,86.66667175292969,232303.0,1.0
15:43:40.277377,157307.46875,177672.953125,176661.140625,182416.078125,160459.421875,174095.6875,691178.3125,188979.359375,0.05126953125,1.010986328125,0.0009765625,-1.4038084745407104,0.2136230319738388,0.7629393935203552,86.66667175292969,232304.0,1.0
15:43:40.279816,157289.953125,177663.125,176654.78125,182426.359375,160449.40625,174090.5,690826.75,188978.28125,0.05126953125,1.01025390625,0.00048828125,-1.4343260526657104,0.1220703050494194,0.7934569716453552,86.66667175292969,232305.0,1.0
15:43:40.282452,157365.9375,177674.921875,176664.890625,182430.5625,160460.140625,174091.21875,690856.5,188977.578125,0.05078125,1.01123046875,0.00048828125,-1.3427733182907104,0.0610351525247097,0.8850097060203552,86.66667175292969,232306.0,1.0
15:43:40.284859,157375.15625,177681.984375,176663.546875,182394.453125,160466.40625,174094.078125,691211.125,188970.421875,0.052978515625,1.01171875,0.002685546875,-1.3732908964157104,-0.0610351525247097,0.9765624403953552,86.66667175292969,232307.0,1.0
15:43:40.287963,157304.171875,177663.828125,176650.671875,182394.359375,160452.90625,174087.90625,691236.875,188970.515625,0.05322265625,1.012451171875,0.00439453125,-1.3122557401657104,-0.2136230319738388,1.0070799589157104,86.66667175292969,232308.0,1.0
15:43:40.287990,157275.828125,177651.9375,176644.140625,182418.3125,160442.078125,174082.8125,690852.75,188973.90625,0.0517578125,1.010986328125,0.0029296875,-1.4343260526657104,-0.2746581733226776,1.0681151151657104,86.66667175292969,232309.0,1.0
15:43:40.290076,157340.375,177661.59375,176651.03125,182418.140625,160446.8125,174081.734375,690820.375,188970.859375,0.052734375,1.012451171875,0.003173828125,-1.4953612089157104,-0.2441406100988388,1.0375975370407104,86.66667175292969,232310.0,1.0
15:43:40.292993,157372.46875,177671.171875,176653.09375,182397.484375,160453.171875,174083.078125,691140.375,188966.03125,0.05322265625,1.01220703125,0.0029296875,-1.4343260526657104,-0.3662109076976776,1.1901854276657104,86.66667175292969,232311.0,1.0
15:43:40.293019,157309.265625,177661.59375,176644.859375,182386.3125,160446.1875,174083.078125,691278.8125,188969.171875,0.054443359375,1.011474609375,0.000732421875,-1.4343260526657104,-0.4272460639476776,1.0681151151657104,86.66667175292969,232312.0,1.0
15:43:40.298605,157276.1875,177650.78125,176643.4375,182429.140625,160441.1875,174080.9375,690900.5625,188981.421875,0.05712890625,1.011474609375,0.001220703125,-1.4038084745407104,-0.4272460639476776,1.1596678495407104,86.66667175292969,232313.0,1.0
15:43:40.301159,157329.015625,177659.71875,176651.75,182423.40625,160446.46875,174080.578125,690805.8125,188977.84375,0.057373046875,1.011962890625,0.002685546875,-1.4648436307907104,-0.4272460639476776,1.2207030057907104,86.66667175292969,232314.0,1.0
15:43:40.304177,157378.109375,177670.8125,176655.59375,182408.75,160454.6875,174081.46875,691085.8125,188973.015625,0.057373046875,1.013671875,0.001708984375,-1.4648436307907104,-0.4882812201976776,1.2512205839157104,86.66667175292969,232315.0,1.0
15:43:40.304190,157322.21875,177667.3125,176649.421875,182376.828125,160450.84375,174084.875,691311.5,188969.078125,0.058837890625,1.010986328125,0.001953125,-1.4953612089157104,-0.4882812201976776,1.2207030057907104,86.66667175292969,232316.0,1.0
15:43:40.306096,157276.53125,177651.578125,176644.0625,182417.15625,160441.640625,174079.15625,690956.0,188977.390625,0.060791015625,1.01025390625,0.00146484375,-1.4343260526657104,-0.3356933295726776,1.3122557401657104,86.66667175292969,232317.0,1.0
15:43:40.308709,157317.75,177662.9375,176655.765625,182415.1875,160450.578125,174083.796875,690784.4375,188977.21875,0.059814453125,1.01025390625,0.000244140625,-1.5258787870407104,-0.3051757514476776,1.2817381620407104,86.66667175292969,232318.0,1.0
15:43:40.324199,157393.03125,177682.515625,176671.59375,182423.859375,160470.515625,174091.671875,691014.125,188983.828125,0.064697265625,1.010498046875,0.0009765625,-1.4953612089157104,-0.1525878757238388,1.1901854276657104,86.66667175292969,232319.0,1.0
15:43:40.324224,157343.953125,177679.03125,176664.0,182382.28125,160468.1875,174093.546875,691315.875,188976.671875,0.063232421875,1.009521484375,0.002197265625,-1.5563963651657104,-0.0610351525247097,1.2207030057907104,86.66667175292969,232320.0,1.0
15:43:40.326617,157286.90625,177658.734375,176654.703125,182425.828125,160455.671875,174085.140625,691034.875,188986.59375,0.062255859375,1.008544921875,0.0009765625,-1.4038084745407104,-0.1525878757238388,1.2207030057907104,86.66667175292969,232321.0,1.0
15:43:40.326630,157309.171875,177664.09375,176661.671875,182425.203125,160459.515625,174087.546875,690789.875,188986.328125,0.060302734375,1.0087890625,0.00244140625,-1.4953612089157104,0.03051757626235485,1.1596678495407104,86.66667175292969,232322.0,1.0
15:43:40.328580,157387.21875,177678.765625,176671.859375,182431.28125,160472.921875,174090.859375,690962.5625,188986.515625,0.060302734375,1.011474609375,0.0,-1.4038084745407104,0.0,1.1291502714157104,86.66667175292969,232323.0,1.0
15:43:40.334846,157353.96875,177680.109375,176663.90625,182380.59375,160469.4375,174094.4375,691306.75,188974.171875,0.060791015625,1.01123046875,0.001220703125,-1.4038084745407104,0.0610351525247097,1.0070799589157104,86.66667175292969,232324.0,1.0
15:43:40.341654,157290.390625,177659.625,176652.8125,182412.78125,160455.140625,174086.65625,691108.3125,188979.984375,0.060302734375,1.0126953125,0.003662109375,-1.4343260526657104,0.0610351525247097,0.9460448622703552,86.66667175292969,232325.0,1.0
15:43:40.341667,157292.09375,177658.5625,176653.796875,182414.46875,160452.8125,174086.84375,690800.1875,188978.546875,0.060302734375,1.013671875,0.0,-1.4038084745407104,0.1831054538488388,0.7629393935203552,86.66667175292969,232326.0,1.0
15:43:40.343585,157372.375,177672.953125,176664.703125,182419.21875,160464.703125,174088.09375,690892.0,188976.9375,0.06103515625,1.013427734375,-0.0009765625,-1.3122557401657104,0.2746581733226776,0.6408690810203552,86.66667175292969,232327.0,1.0
15:43:40.355506,157359.0625,177676.34375,176657.46875,182372.625,160461.65625,174090.6875,691260.25,188963.359375,0.060302734375,1.0126953125,-0.000244140625,-1.2817381620407104,0.3967284858226776,0.6713866591453552,86.66667175292969,232328.0,1.0
15:43:40.355522,157293.078125,177658.203125,176647.09375,182396.140625,160447.171875,174084.421875,691173.9375,188969.609375,0.061279296875,1.0107421875,-0.003173828125,-1.3122557401657104,0.4882812201976776,0.5493163466453552,86.66667175292969,232329.0,1.0
15:43:40.362938,157280.46875,177651.578125,176647.453125,182416.171875,160443.25,174081.46875,690817.4375,188975.328125,0.0615234375,1.009765625,-0.000732421875,-1.2512205839157104,0.4272460639476776,0.4882812201976776,86.66667175292969,232330.0,1.0
15:43:40.363040,157359.5,177666.96875,176660.953125,182424.125,160455.046875,174084.515625,690857.9375,188975.6875,0.061279296875,1.009765625,-0.0009765625,-1.2512205839157104,0.5187987685203552,0.3967284858226776,86.66667175292969,232331.0,1.0
15:43:40.365543,157373.09375,177678.234375,176662.03125,182390.78125,160461.21875,174089.703125,691211.5625,188968.71875,0.06201171875,1.01025390625,-0.00146484375,-1.2207030057907104,0.5798339247703552,0.3356933295726776,86.66667175292969,232332.0,1.0
15:43:40.365567,157307.828125,177666.6875,176654.515625,182397.21875,160452.09375,174088.0,691241.9375,188974.4375,0.056640625,1.011474609375,0.00244140625,-1.1596678495407104,0.5187987685203552,0.1525878757238388,86.66667175292969,232333.0,1.0
15:43:40.383648,157279.578125,177653.546875,176647.984375,182423.234375,160442.4375,174082.375,690856.75,188979.09375,0.05810546875,1.011962890625,-0.001220703125,-1.2512205839157104,0.4272460639476776,0.03051757626235485,86.66667175292969,232334.0,1.0
15:43:40.386714,157346.1875,177667.046875,176658.1875,182422.703125,160450.9375,174084.6875,690821.3125,188977.65625,0.05810546875,1.012939453125,0.001953125,-1.3427733182907104,0.5187987685203552,0.03051757626235485,86.66667175292969,232335.0,1.0
15:43:40.386728,157381.234375,177680.015625,176662.296875,182399.984375,160460.953125,174091.390625,691143.125,188972.828125,0.05712890625,1.012939453125,0.002197265625,-1.2817381620407104,0.4882812201976776,-0.0610351525247097,86.66667175292969,232336.0,1.0
15:43:40.389139,157319.625,177672.421875,176656.9375,182385.140625,160455.9375,174093.71875,691289.9375,188973.375,0.056640625,1.012939453125,0.001953125,-1.3732908964157104,0.5493163466453552,-0.0915527269244194,86.66667175292969,232337.0,1.0
15:43:40.389170,157279.671875,177655.15625,176649.953125,182421.265625,160443.78125,174085.5,690906.3125,188978.109375,0.055419921875,1.012939453125,0.001220703125,-1.4953612089157104,0.4882812201976776,-0.0915527269244194,86.66667175292969,232338.0,1.0
15:43:40.391040,157333.765625,177665.0,176658.265625,182418.046875,160450.03125,174087.015625,690793.5625,188974.625,0.05712890625,1.014404296875,0.0,-1.6174315214157104,0.4882812201976776,-0.0915527269244194,86.66667175292969,232339.0,1.0
15:43:40.411008,157392.671875,177682.421875,176667.65625,182413.125,160464.796875,174092.296875,691068.6875,188974.703125,0.0556640625,1.0126953125,0.001708984375,-1.6784666776657104,0.5798339247703552,-0.03051757626235485,86.66667175292969,232340.0,1.0
15:43:40.411029,157335.09375,177676.34375,176661.046875,182383.1875,160459.78125,174091.84375,691309.875,188971.140625,0.056884765625,1.011962890625,0.00146484375,-1.7395018339157104,0.5493163466453552,-0.03051757626235485,86.66667175292969,232341.0,1.0
15:43:40.411033,157284.40625,177654.71875,176651.296875,182424.046875,160445.03125,174080.671875,690963.4375,188977.390625,0.05712890625,1.010986328125,0.00048828125,-1.6784666776657104,0.4272460639476776,-0.03051757626235485,86.66667175292969,232342.0,1.0
15:43:40.414147,157323.125,177662.765625,176659.796875,182420.015625,160450.578125,174083.34375,690790.875,188975.78125,0.05712890625,1.011962890625,0.000732421875,-1.6479490995407104,0.5187987685203552,0.0,86.66667175292969,232343.0,1.0
15:43:40.414166,157391.515625,177677.328125,176668.46875,182420.46875,160463.265625,174086.65625,691022.4375,188974.890625,0.05712890625,1.013671875,0.00244140625,-1.6784666776657104,0.4577636420726776,0.2441406100988388,86.66667175292969,232344.0,1.0
15:43:40.416109,157345.46875,177677.421875,176662.65625,182379.0625,160460.859375,174091.21875,691326.4375,188968.625,0.05712890625,1.010498046875,0.00341796875,-1.7089842557907104,0.3967284858226776,0.2746581733226776,86.66667175292969,232345.0,1.0
15:43:40.419832,157288.78125,177656.140625,176652.734375,182420.640625,160449.953125,174081.734375,691041.6875,188977.03125,0.05615234375,1.011474609375,0.00244140625,-1.6479490995407104,0.3967284858226776,0.3051757514476776,86.66667175292969,232346.0,1.0
15:43:40.426680,157307.921875,177658.46875,176654.96875,182416.796875,160451.5625,174081.921875,690793.3125,188972.65625,0.05615234375,1.01171875,0.00341796875,-1.6479490995407104,0.4272460639476776,0.4882812201976776,86.66667175292969,232347.0,1.0
15:43:40.426701,157388.921875,177676.265625,176667.65625,182422.96875,160464.703125,174085.9375,690952.6875,188972.46875,0.0546875,1.014404296875,0.00634765625,-1.5869139432907104,0.3967284858226776,0.5187987685203552,86.66667175292969,232348.0,1.0
15:43:40.432261,157359.5,177680.8125,176664.53125,182374.953125,160466.40625,174092.296875,691304.1875,188965.328125,0.05517578125,1.013916015625,0.005126953125,-1.7089842557907104,0.3967284858226776,0.5187987685203552,86.66667175292969,232349.0,1.0
15:43:40.442870,157294.59375,177660.796875,176655.765625,182408.921875,160453.4375,174084.15625,691110.0625,188972.75,0.052001953125,1.0126953125,0.00439453125,-1.8615721464157104,0.3662109076976776,0.5798339247703552,86.66667175292969,232350.0,1.0
15:43:40.442886,157299.96875,177663.03125,176660.234375,182415.1875,160453.609375,174086.5625,690805.8125,188973.453125,0.05224609375,1.011474609375,0.0048828125,-1.8615721464157104,0.2441406100988388,0.6103515028953552,86.66667175292969,232351.0,1.0
15:43:40.444893,157383.734375,177680.109375,176673.65625,182424.9375,160466.75,174090.6875,690896.3125,188974.703125,0.051513671875,1.010498046875,0.00341796875,-1.9226073026657104,0.2441406100988388,0.5187987685203552,86.66667175292969,232352.0,1.0
15:43:40.474419,157370.59375,177683.5,176668.734375,182379.421875,160468.015625,174092.203125,691261.0,188964.25,0.051513671875,1.01123046875,0.00341796875,-2.044677495956421,0.1525878757238388,0.5798339247703552,86.66667175292969,232353.0,1.0
15:43:40.474458,157306.046875,177669.375,176661.671875,182402.671875,160459.78125,174088.265625,691175.8125,188972.390625,0.05224609375,1.011474609375,0.005615234375,-2.014159917831421,-0.03051757626235485,0.6103515028953552,86.66667175292969,232354.0,1.0
15:43:40.476665,157293.53125,177667.40625,176661.578125,182420.109375,160456.65625,174086.484375,690818.625,188976.765625,0.053955078125,1.009765625,0.00537109375,-1.9836424589157104,-0.0915527269244194,0.6408690810203552,86.66667175292969,232355.0,1.0
15:43:40.476689,157374.890625,177684.671875,176676.421875,182428.875,160470.609375,174091.75,690856.5,188979.984375,0.05419921875,1.009521484375,0.00439453125,-2.044677495956421,-0.1525878757238388,0.5493163466453552,86.66667175292969,232356.0,1.0
15:43:40.492353,157387.484375,177690.75,176676.59375,182394.71875,160476.0625,174095.59375,691208.875,188973.1875,0.05419921875,1.008544921875,0.00146484375,-1.9226073026657104,-0.1831054538488388,0.6408690810203552,86.66667175292969,232357.0,1.0
15:43:40.492388,157317.484375,177673.9375,176666.3125,182394.796875,160465.6875,174090.953125,691243.1875,188975.875,0.053466796875,1.01025390625,0.0029296875,-1.9836424589157104,-0.2136230319738388,0.7019042372703552,86.66667175292969,232358.0,1.0
15:43:40.492396,157288.34375,177661.6875,176660.421875,182420.90625,160456.75,174085.234375,690861.9375,188979.453125,0.0556640625,1.009765625,0.001708984375,-1.9836424589157104,-0.1525878757238388,0.7324218153953552,86.66667175292969,232359.0,1.0
15:43:40.500480,157359.234375,177677.25,176674.984375,182426.09375,160470.15625,174092.46875,690826.3125,188981.859375,0.056640625,1.0107421875,0.002685546875,-1.9226073026657104,-0.1831054538488388,0.7019042372703552,86.66667175292969,232360.0,1.0
15:43:40.500494,157393.21875,177687.703125,176677.671875,182402.9375,160477.75,174096.765625,691147.8125,188975.875,0.05712890625,1.009765625,0.0048828125,-1.8615721464157104,-0.2136230319738388,0.7324218153953552,86.66667175292969,232361.0,1.0
15:43:40.502955,157329.109375,177678.578125,176668.640625,182387.65625,160468.90625,174097.921875,691298.625,188974.265625,0.05859375,1.01025390625,0.002685546875,-1.8920897245407104,-0.1525878757238388,0.6103515028953552,86.66667175292969,232362.0,1.0
15:43:40.502975,157287.171875,177660.703125,176658.1875,182422.078125,160452.8125,174088.09375,690908.1875,188976.5,0.058837890625,1.01123046875,0.00048828125,-1.9226073026657104,-0.03051757626235485,0.6408690810203552,86.66667175292969,232363.0,1.0
15:43:40.507984,157342.15625,177672.765625,176669.265625,182418.9375,160459.78125,174090.859375,690806.0,188974.265625,0.058349609375,1.0126953125,0.003173828125,-2.014159917831421,-0.0610351525247097,0.7019042372703552,86.66667175292969,232364.0,1.0
15:43:40.508014,157396.15625,177685.46875,176674.8125,182408.84375,160470.0625,174093.8125,691082.375,188970.953125,0.057861328125,1.01171875,0.004638671875,-1.8615721464157104,-0.1220703050494194,0.6713866591453552,86.66667175292969,232365.0,1.0
15:43:40.509911,157337.875,177679.203125,176665.96875,182374.6875,160463.984375,174093.8125,691322.25,188966.03125,0.059814453125,1.011474609375,0.00439453125,-1.8615721464157104,-0.1220703050494194,0.6713866591453552,86.66667175292969,232366.0,1.0
15:43:40.512311,157289.953125,177660.53125,176658.265625,182417.421875,160451.296875,174085.765625,690972.625,188974.4375,0.060302734375,1.013427734375,0.001953125,-1.8615721464157104,-0.1525878757238388,0.4882812201976776,86.66667175292969,232367.0,1.0
15:43:40.514832,157326.34375,177667.59375,176665.328125,182412.859375,160454.953125,174087.28125,690792.3125,188972.65625,0.060302734375,1.01220703125,0.00244140625,-1.8310545682907104,-0.0915527269244194,0.5493163466453552,86.66667175292969,232368.0,1.0
15:43:40.517397,157398.21875,177683.6875,176675.4375,182417.15625,160468.28125,174093.0,691015.0,188974.171875,0.058349609375,1.012939453125,0.00634765625,-1.7700194120407104,-0.1220703050494194,0.5798339247703552,86.66667175292969,232369.0,1.0
15:43:40.520455,157356.734375,177686.453125,176671.5,182377.546875,160467.734375,174099.890625,691325.4375,188969.53125,0.05810546875,1.01171875,0.0009765625,-1.8920897245407104,-0.03051757626235485,0.6103515028953552,86.66667175292969,232370.0,1.0
15:43:40.520475,157302.015625,177668.75,176664.890625,182421.53125,160455.3125,174093.359375,691042.75,188976.765625,0.059326171875,1.01220703125,0.001953125,-1.7089842557907104,0.03051757626235485,0.6408690810203552,86.66667175292969,232371.0,1.0
15:43:40.529833,157322.046875,177671.96875,176670.34375,182418.046875,160456.125,174093.453125,690789.8125,188973.8125,0.061279296875,1.012939453125,0.002197265625,-1.7089842557907104,-0.0610351525247097,0.6103515028953552,86.66667175292969,232372.0,1.0
15:43:40.535711,157404.5625,177689.21875,176684.640625,182426.984375,160472.84375,174097.296875,690945.1875,188977.125,0.06103515625,1.011962890625,0.002197265625,-1.6479490995407104,-0.03051757626235485,0.6713866591453552,86.66667175292969,232373.0,1.0
15:43:40.535735,157378.734375,177694.234375,176682.6875,182382.546875,160476.234375,174104.625,691301.875,188971.21875,0.06103515625,1.010986328125,0.003173828125,-1.7089842557907104,0.0610351525247097,0.5493163466453552,86.66667175292969,232374.0,1.0
15:43:40.537322,157318.109375,177676.34375,176674.359375,182418.859375,160463.8125,174098.90625,691115.1875,188979.625,0.06005859375,1.01220703125,0.002197265625,-1.7700194120407104,0.0610351525247097,0.4882812201976776,86.66667175292969,232375.0,1.0
15:43:40.541081,157320.34375,177675.71875,176676.6875,182425.203125,160461.484375,174097.75,690808.125,188979.8125,0.060302734375,1.009521484375,0.001953125,-1.5563963651657104,0.1220703050494194,0.4882812201976776,86.66667175292969,232376.0,1.0
15:43:40.547920,157402.25,177690.390625,176688.40625,182434.140625,160474.625,174100.609375,690915.9375,188981.765625,0.060302734375,1.010986328125,0.001220703125,-1.6174315214157104,0.1525878757238388,0.5187987685203552,86.66667175292969,232377.0,1.0
15:43:40.547941,157394.46875,177697.984375,176686.96875,182390.953125,160478.65625,174105.609375,691273.0,188974.625,0.058837890625,1.0107421875,0.00341796875,-1.6479490995407104,0.1220703050494194,0.5493163466453552,86.66667175292969,232378.0,1.0
15:43:40.557364,157326.421875,177678.765625,176677.234375,182409.640625,160468.359375,174097.390625,691183.8125,188978.734375,0.057861328125,1.010009765625,0.002197265625,-1.6174315214157104,0.2136230319738388,0.4882812201976776,86.66667175292969,232379.0,1.0
15:43:40.566095,157313.8125,177673.046875,176676.421875,182424.21875,160464.515625,174095.15625,690825.6875,188981.59375,0.056396484375,1.010498046875,0.003662109375,-1.5563963651657104,0.2136230319738388,0.5187987685203552,86.66667175292969,232380.0,1.0
15:43:40.566111,157389.734375,177686.453125,176687.953125,182428.0625,160475.609375,174096.671875,690855.0,188982.125,0.05712890625,1.01025390625,0.002685546875,-1.5258787870407104,0.2746581733226776,0.5187987685203552,86.66667175292969,232381.0,1.0
15:43:40.566115,157399.921875,177691.453125,176684.375,182393.015625,160477.84375,174097.296875,691204.0625,188973.8125,0.057373046875,1.009765625,0.003173828125,-1.4038084745407104,0.2441406100988388,0.5493163466453552,86.66667175292969,232382.0,1.0
15:43:40.568665,157332.15625,177676.171875,176673.65625,182395.875,160467.203125,174093.09375,691242.75,188977.03125,0.058349609375,1.009765625,0.00244140625,-1.4038084745407104,0.1525878757238388,0.4882812201976776,86.66667175292969,232383.0,1.0
15:43:40.571111,157305.6875,177666.0625,176671.6875,182424.484375,160459.96875,174088.625,690857.4375,188983.46875,0.057373046875,1.009765625,0.005126953125,-1.4038084745407104,0.2136230319738388,0.3967284858226776,86.66667175292969,232384.0,1.0
15:43:40.577270,157376.21875,177681.53125,176687.328125,182430.65625,160475.34375,174093.546875,690830.75,188986.59375,0.054443359375,1.009521484375,0.0048828125,-1.4343260526657104,0.2441406100988388,0.4577636420726776,86.66667175292969,232385.0,1.0
15:43:40.615520,157411.8125,177693.421875,176691.078125,182410.453125,160484.90625,174098.28125,691152.1875,188982.9375,0.0556640625,1.011474609375,0.00390625,-1.4648436307907104,0.1220703050494194,0.3662109076976776,86.66667175292969,232386.0,1.0
15:43:40.615556,157350.296875,177687.25,176684.109375,182395.421875,160477.125,174100.078125,691294.9375,188982.84375,0.055908203125,1.0107421875,0.005859375,-1.4343260526657104,0.1525878757238388,0.3051757514476776,86.66667175292969,232387.0,1.0
15:43:40.628986,157312.84375,177671.4375,176676.25,182430.921875,160464.609375,174093.359375,690909.8125,188987.671875,0.054931640625,1.010986328125,0.005126953125,-1.3122557401657104,0.0610351525247097,0.3662109076976776,86.66667175292969,232388.0,1.0
15:43:40.631068,157363.796875,177679.921875,176683.03125,182424.578125,160468.90625,174094.4375,690805.625,188982.125,0.056396484375,1.0107421875,0.005859375,-1.2817381620407104,-0.0610351525247097,0.3662109076976776,86.66667175292969,232389.0,1.0
15:43:40.633625,157415.828125,177689.3125,176685.8125,182413.3125,160475.34375,174092.734375,691079.25,188976.671875,0.05712890625,1.0107421875,0.005615234375,-1.2817381620407104,0.0610351525247097,0.3051757514476776,86.66667175292969,232390.0,1.0
15:43:40.639888,157357.0,177681.53125,176674.28125,182380.671875,160466.3125,174093.09375,691322.75,188970.6875,0.056396484375,1.009765625,0.00341796875,-1.3122557401657104,-0.03051757626235485,0.3356933295726776,86.66667175292969,232391.0,1.0
15:43:40.642326,157304.796875,177659.984375,176662.109375,182420.015625,160448.515625,174082.28125,690972.8125,188975.6875,0.058349609375,1.009765625,0.001708984375,-1.3732908964157104,0.03051757626235485,0.3967284858226776,86.66667175292969,232392.0,1.0
15:43:40.644817,157338.671875,177665.359375,176666.234375,182411.875,160447.453125,174082.015625,690794.125,188968.0,0.058349609375,1.010498046875,0.00146484375,-1.3122557401657104,0.0,0.4577636420726776,86.66667175292969,232393.0,1.0
15:43:40.647437,157408.234375,177677.6875,176672.578125,182410.890625,160456.75,174081.296875,691023.8125,188962.546875,0.05810546875,1.01025390625,0.001708984375,-1.2817381620407104,0.0,0.4272460639476776,86.66667175292969,232394.0,1.0
15:43:40.649821,157363.078125,177676.796875,176665.0625,182365.921875,160453.609375,174084.421875,691324.125,188953.25,0.05859375,1.010498046875,0.001708984375,-1.1901854276657104,-0.0610351525247097,0.4577636420726776,86.66667175292969,232395.0,1.0
15:43:40.677364,157302.5625,177653.640625,176651.921875,182403.5625,160436.1875,174072.265625,691037.5,188959.328125,0.0595703125,1.0107421875,0.0009765625,-1.1901854276657104,0.0,0.5798339247703552,86.66667175292969,232396.0,1.0
15:43:40.679830,157317.3125,177651.859375,176653.0,182396.59375,160431.796875,174070.125,690787.5,188954.765625,0.0595703125,1.01220703125,0.000732421875,-1.1596678495407104,-0.03051757626235485,0.5187987685203552,86.66667175292969,232397.0,1.0
15:43:40.682297,157392.59375,177662.9375,176661.046875,182401.234375,160442.53125,174069.671875,690952.6875,188953.34375,0.060791015625,1.01123046875,0.003173828125,-1.2207030057907104,0.03051757626235485,0.5187987685203552,86.66667175292969,232398.0,1.0
15:43:40.685009,157366.484375,177667.765625,176657.28125,182358.59375,160445.65625,174076.015625,691302.5,188948.328125,0.059814453125,1.010986328125,0.00244140625,-1.2512205839157104,0.0610351525247097,0.5798339247703552,86.66667175292969,232399.0,1.0
15:43:40.688582,157303.625,177648.0,176648.078125,182392.390625,160432.421875,174067.890625,691108.75,188957.453125,0.06005859375,1.01220703125,0.0029296875,-1.1291502714157104,0.0915527269244194,0.6713866591453552,86.66667175292969,232400.0,1.0
15:43:40.688604,157304.25,177647.5625,176649.59375,182396.328125,160429.296875,174067.171875,690794.75,188956.828125,0.057861328125,1.01171875,0.002685546875,-1.1901854276657104,0.0610351525247097,0.7324218153953552,86.66667175292969,232401.0,1.0
15:43:40.688610,157391.25,177668.75,176666.671875,182408.84375,160447.09375,174075.125,690892.0,188959.515625,0.057373046875,1.01220703125,0.003662109375,-1.2512205839157104,0.0915527269244194,0.6408690810203552,86.66667175292969,232402.0,1.0
15:43:40.691962,157386.15625,177678.9375,176669.265625,182368.703125,160455.046875,174084.15625,691259.1875,188953.15625,0.056640625,1.013671875,0.00390625,-1.3122557401657104,0.1831054538488388,0.6408690810203552,86.66667175292969,232403.0,1.0
15:43:40.691981,157319.984375,177663.46875,176661.40625,182390.328125,160446.90625,174081.296875,691183.125,188960.40625,0.055908203125,1.013427734375,0.004638671875,-1.2512205839157104,0.0915527269244194,0.4882812201976776,86.66667175292969,232404.0,1.0
15:43:40.693600,157303.8125,177654.890625,176657.734375,182405.078125,160440.375,174077.453125,690821.75,188961.125,0.0546875,1.01123046875,0.002197265625,-1.2817381620407104,0.0610351525247097,0.3662109076976776,86.66667175292969,232405.0,1.0
15:43:40.696044,157378.1875,177666.15625,176666.9375,182409.109375,160451.015625,174078.4375,690845.625,188960.5,0.052490234375,1.01123046875,0.00244140625,-1.3122557401657104,-0.03051757626235485,0.2441406100988388,86.66667175292969,232406.0,1.0
15:43:40.698561,157393.390625,177677.953125,176668.90625,182377.546875,160460.59375,174086.921875,691198.875,188956.109375,0.0537109375,1.0107421875,0.001220703125,-1.2817381620407104,-0.0915527269244194,0.1831054538488388,86.66667175292969,232407.0,1.0
15:43:40.701096,157330.453125,177667.5,176663.09375,182381.84375,160454.0625,174087.109375,691241.25,188961.390625,0.055419921875,1.009521484375,0.000732421875,-1.2817381620407104,-0.1831054538488388,0.0915527269244194,86.66667175292969,232408.0,1.0
15:43:40.703635,157303.09375,177655.078125,176659.078125,182408.84375,160444.671875,174080.84375,690848.75,188965.59375,0.055908203125,1.0126953125,0.003662109375,-1.2207030057907104,-0.0915527269244194,0.0610351525247097,86.66667175292969,232409.0,1.0
15:43:40.706049,157367.109375,177663.203125,176666.59375,182407.234375,160448.25,174077.8125,690807.0,188959.953125,0.056640625,1.0126953125,0.00048828125,-1.3122557401657104,-0.2136230319738388,-0.03051757626235485,86.66667175292969,232410.0,1.0
15:43:40.708641,157405.015625,177675.71875,176672.3125,182387.921875,160458.171875,174082.015625,691124.4375,188955.3125,0.057861328125,1.012939453125,0.00244140625,-1.3122557401657104,-0.2441406100988388,-0.0915527269244194,86.66667175292969,232411.0,1.0
15:43:40.711974,157343.140625,177668.65625,176667.03125,182374.59375,160453.609375,174083.890625,691279.5,188955.75,0.058349609375,1.012451171875,0.00048828125,-1.3122557401657104,-0.3051757514476776,-0.0915527269244194,86.66667175292969,232412.0,1.0
15:43:40.714148,157302.015625,177652.203125,176659.703125,182410.890625,160442.4375,174075.296875,690904.8125,188961.03125,0.059814453125,1.013671875,-0.000732421875,-1.4648436307907104,-0.2441406100988388,-0.1831054538488388,86.66667175292969,232413.0,1.0
15:43:40.714187,157352.625,177661.234375,176668.46875,182405.265625,160449.59375,174075.9375,690792.0625,188958.609375,0.060791015625,1.013916015625,0.0009765625,-1.4038084745407104,-0.2441406100988388,-0.3051757514476776,86.66667175292969,232414.0,1.0
15:43:40.718591,157408.6875,177675.28125,176674.640625,182395.25,160460.859375,174078.4375,691066.1875,188957.453125,0.060791015625,1.013916015625,0.00244140625,-1.4038084745407104,-0.2136230319738388,-0.2136230319738388,86.66667175292969,232415.0,1.0
15:43:40.722315,157352.171875,177671.4375,176665.6875,182362.796875,160455.046875,174080.21875,691306.5625,188954.0625,0.060302734375,1.012451171875,0.00244140625,-1.5258787870407104,-0.2136230319738388,-0.1220703050494194,86.66667175292969,232416.0,1.0
15:43:40.722361,157304.25,177653.46875,176658.890625,182410.09375,160444.3125,174074.59375,690960.25,188966.03125,0.0615234375,1.015869140625,0.004638671875,-1.5563963651657104,-0.2441406100988388,-0.0915527269244194,86.66667175292969,232417.0,1.0
15:43:40.724368,157341.625,177662.40625,176667.578125,182407.046875,160450.75,174078.703125,690769.625,188967.109375,0.05908203125,1.014892578125,0.002197265625,-1.5563963651657104,-0.1831054538488388,0.03051757626235485,86.66667175292969,232418.0,1.0
15:43:40.724397,157414.84375,177680.546875,176680.796875,182412.234375,160468.09375,174087.015625,690986.6875,188970.234375,0.058837890625,1.015625,0.000244140625,-1.6479490995407104,-0.0915527269244194,0.0610351525247097,86.66667175292969,232419.0,1.0
15:43:40.726151,157371.3125,177681.71875,176676.15625,182370.125,160467.65625,174093.359375,691304.8125,188965.59375,0.056396484375,1.011474609375,0.0029296875,-1.6784666776657104,0.0,0.0915527269244194,86.66667175292969,232420.0,1.0
15:43:40.728591,157311.9375,177658.5625,176663.90625,182409.109375,160451.46875,174083.265625,691028.4375,188971.765625,0.0576171875,1.013671875,0.00390625,-1.7700194120407104,-0.03051757626235485,0.1525878757238388,86.66667175292969,232421.0,1.0
15:43:40.731773,157326.421875,177656.765625,176664.53125,182402.140625,160449.140625,174080.578125,690772.375,188966.125,0.05859375,1.0126953125,0.006103515625,-1.7395018339157104,0.0,0.1220703050494194,86.66667175292969,232422.0,1.0
15:43:40.731828,157401.078125,177668.03125,176671.234375,182403.921875,160457.734375,174079.328125,690937.875,188961.75,0.05712890625,1.012451171875,0.0029296875,-1.7700194120407104,0.0,0.1525878757238388,86.66667175292969,232423.0,1.0
15:43:40.734287,157368.8125,177667.953125,176662.828125,182353.3125,160453.4375,174079.234375,691282.0625,188950.5625,0.0556640625,1.012451171875,0.002685546875,-1.8005369901657104,-0.03051757626235485,0.1831054538488388,86.66667175292969,232424.0,1.0
15:43:40.740468,157306.046875,177647.296875,176653.265625,182389.34375,160440.296875,174068.953125,691101.125,188960.765625,0.0546875,1.009521484375,0.00537109375,-1.7089842557907104,-0.1220703050494194,0.1220703050494194,86.66667175292969,232425.0,1.0
15:43:40.740499,157308.359375,177646.84375,176654.875,182398.015625,160438.59375,174067.796875,690791.0,188962.1875,0.054931640625,1.0107421875,0.004150390625,-1.8005369901657104,-0.1220703050494194,0.1831054538488388,86.66667175292969,232426.0,1.0
15:43:40.746114,157388.828125,177660.875,176665.0625,182405.359375,160448.96875,174067.890625,690886.0,188961.125,0.0537109375,1.012451171875,0.002197265625,-1.7700194120407104,-0.2136230319738388,0.1831054538488388,86.66667175292969,232427.0,1.0
15:43:40.756706,157383.109375,177670.265625,176664.703125,182364.21875,160453.4375,174076.375,691246.875,188954.328125,0.05419921875,1.010009765625,0.003173828125,-1.8615721464157104,-0.2136230319738388,0.2136230319738388,86.66667175292969,232428.0,1.0
15:43:40.756732,157318.734375,177654.359375,176657.46875,182384.796875,160443.78125,174073.25,691178.625,188960.671875,0.05517578125,1.01123046875,0.00048828125,-1.8615721464157104,-0.1525878757238388,0.0915527269244194,86.66667175292969,232429.0,1.0
15:43:40.759295,157304.078125,177646.046875,176654.875,182398.828125,160436.8125,174068.78125,690827.1875,188959.515625,0.05517578125,1.010986328125,0.000732421875,-1.8615721464157104,-0.1831054538488388,0.1831054538488388,86.66667175292969,232430.0,1.0
15:43:40.759315,157377.125,177655.609375,176663.1875,182400.96875,160444.5,174067.890625,690850.3125,188954.59375,0.054931640625,1.010009765625,0.003173828125,-1.7700194120407104,-0.2136230319738388,0.0915527269244194,86.66667175292969,232431.0,1.0
15:43:40.771263,157391.96875,177667.5,176664.625,182368.25,160452.09375,174076.203125,691200.3125,188948.25,0.055419921875,1.0107421875,0.002685546875,-1.8005369901657104,-0.2746581733226776,0.1831054538488388,86.66667175292969,232432.0,1.0
15:43:40.774218,157324.453125,177655.78125,176655.953125,182371.296875,160443.328125,174076.109375,691245.8125,188954.0625,0.05419921875,1.01123046875,0.00439453125,-1.7395018339157104,-0.3356933295726776,0.1220703050494194,86.66667175292969,232433.0,1.0
15:43:40.774245,157296.296875,177645.328125,176652.1875,182402.140625,160434.390625,174071.734375,690864.375,188961.75,0.0546875,1.0126953125,0.005126953125,-1.8005369901657104,-0.2746581733226776,0.1525878757238388,86.66667175292969,232434.0,1.0
15:43:40.776042,157361.828125,177656.046875,176660.953125,182403.03125,160440.296875,174070.75,690824.125,188960.046875,0.055419921875,1.0126953125,0.0068359375,-1.8005369901657104,-0.2746581733226776,0.0915527269244194,86.66667175292969,232435.0,1.0
15:43:40.778643,157397.140625,177665.703125,176663.375,182383.359375,160446.375,174071.90625,691138.4375,188956.203125,0.055908203125,1.01416015625,0.00439453125,-1.8615721464157104,-0.2441406100988388,0.0610351525247097,86.66667175292969,232436.0,1.0
15:43:40.786102,157334.296875,177656.046875,176656.03125,182368.078125,160437.875,174070.921875,691285.9375,188956.828125,0.0546875,1.0126953125,0.00439453125,-1.8310545682907104,-0.2136230319738388,0.03051757626235485,86.66667175292969,232437.0,1.0
15:43:40.791648,157298.703125,177643.265625,176653.171875,182409.375,160430.90625,174065.734375,690901.6875,188966.65625,0.054931640625,1.012451171875,0.002197265625,-1.8005369901657104,-0.2746581733226776,0.0915527269244194,86.66667175292969,232438.0,1.0
15:43:40.796750,157349.9375,177652.921875,176662.109375,182404.015625,160438.0625,174067.265625,690781.5625,188961.484375,0.0556640625,1.012939453125,0.001708984375,-1.8005369901657104,-0.2136230319738388,0.0915527269244194,86.66667175292969,232439.0,1.0
15:43:40.796774,157410.203125,177671.515625,176675.171875,182399.1875,160456.125,174075.390625,691051.625,188961.75,0.05517578125,1.01318359375,0.001708984375,-1.7395018339157104,-0.2746581733226776,0.1525878757238388,86.66667175292969,232440.0,1.0
15:43:40.804187,157354.765625,177667.859375,176670.078125,182366.734375,160454.6875,174080.125,691302.625,188958.609375,0.05517578125,1.0126953125,0.00537109375,-1.7395018339157104,-0.2746581733226776,0.1831054538488388,86.66667175292969,232441.0,1.0
15:43:40.804211,157305.59375,177649.53125,176662.296875,182410.53125,160443.6875,174073.515625,690961.3125,188968.90625,0.055908203125,1.01220703125,0.004638671875,-1.7700194120407104,-0.2136230319738388,0.2746581733226776,86.66667175292969,232442.0,1.0
15:43:40.806198,157338.9375,177655.609375,176667.296875,182403.203125,160447.171875,174074.5,690769.3125,188965.59375,0.054931640625,1.01416015625,0.0048828125,-1.7089842557907104,-0.2441406100988388,0.2746581733226776,86.66667175292969,232443.0,1.0
15:43:40.817415,157405.546875,177666.34375,176672.125,182401.0625,160456.828125,174073.515625,690975.5,188962.1875,0.05419921875,1.013427734375,0.00634765625,-1.7089842557907104,-0.2746581733226776,0.1831054538488388,86.66667175292969,232444.0,1.0
15:43:40.820507,157360.9375,177665.265625,176665.875,182358.328125,160454.59375,174077.984375,691294.875,188955.9375,0.0556640625,1.011474609375,0.00439453125,-1.6784666776657104,-0.2441406100988388,0.2441406100988388,86.66667175292969,232445.0,1.0
15:43:40.820530,157304.34375,177647.203125,176659.171875,182403.03125,160443.15625,174072.53125,691025.75,188966.9375,0.0556640625,1.01171875,0.008056640625,-1.6784666776657104,-0.2746581733226776,0.1831054538488388,86.66667175292969,232446.0,1.0
15:43:40.822314,157322.9375,177652.203125,176664.078125,182401.78125,160444.671875,174073.421875,690770.5625,188966.484375,0.053955078125,1.011962890625,0.00439453125,-1.6479490995407104,-0.2136230319738388,0.0610351525247097,86.66667175292969,232447.0,1.0
15:43:40.829127,157403.234375,177668.75,176677.5,182409.828125,160459.609375,174075.390625,690933.375,188967.375,0.05615234375,1.01123046875,0.005615234375,-1.5869139432907104,-0.2441406100988388,0.1831054538488388,86.66667175292969,232448.0,1.0
15:43:40.829146,157381.6875,177677.953125,176679.46875,182366.8125,160465.5,174084.0625,691279.875,188962.28125,0.055419921875,1.01171875,0.003173828125,-1.5563963651657104,-0.2136230319738388,0.1220703050494194,86.66667175292969,232449.0,1.0
15:43:40.838589,157321.515625,177660.875,176672.578125,182402.671875,160454.234375,174078.703125,691102.0,188970.859375,0.056640625,1.01318359375,0.003173828125,-1.5258787870407104,-0.1831054538488388,0.03051757626235485,86.66667175292969,232450.0,1.0
15:43:40.846877,157320.890625,177657.484375,176672.3125,182407.859375,160451.375,174077.265625,690791.9375,188968.546875,0.05517578125,1.011474609375,0.00537109375,-1.5258787870407104,-0.2746581733226776,0.1220703050494194,86.66667175292969,232451.0,1.0
15:43:40.846959,157403.140625,177672.234375,176686.25,182418.046875,160465.234375,174081.109375,690884.6875,188969.96875,0.054931640625,1.01123046875,0.00390625,-1.4648436307907104,-0.2441406100988388,0.1220703050494194,86.66667175292969,232452.0,1.0
15:43:40.848667,157395.890625,177678.5,176683.9375,182375.21875,160471.140625,174085.765625,691244.0625,188961.03125,0.0556640625,1.013427734375,0.004150390625,-1.5869139432907104,-0.2441406100988388,0.0610351525247097,86.66667175292969,232453.0,1.0
15:43:40.851041,157326.421875,177659.1875,176671.421875,182391.234375,160458.265625,174080.578125,691173.9375,188964.078125,0.055419921875,1.012451171875,0.003173828125,-1.4648436307907104,-0.3356933295726776,0.0915527269244194,86.66667175292969,232454.0,1.0
15:43:40.853568,157306.9375,177650.25,176665.609375,182404.8125,160446.734375,174077.453125,690814.6875,188963.625,0.056884765625,1.013427734375,0.002197265625,-1.4343260526657104,-0.2441406100988388,0.1220703050494194,86.66667175292969,232455.0,1.0
15:43:40.863673,157382.578125,177665.359375,176676.15625,182411.078125,160457.546875,174081.46875,690850.0625,188965.140625,0.0546875,1.011474609375,0.00537109375,-1.4953612089157104,-0.2746581733226776,0.0915527269244194,86.66667175292969,232456.0,1.0
15:43:40.866653,157399.203125,177677.515625,176678.390625,182381.296875,160465.328125,174088.8125,691198.6875,188961.65625,0.05517578125,1.012451171875,0.0029296875,-1.4343260526657104,-0.2746581733226776,0.1220703050494194,86.66667175292969,232457.0,1.0
15:43:40.866665,157330.625,177661.15625,176667.65625,182381.390625,160454.0625,174082.90625,691244.0,188964.875,0.05322265625,1.011474609375,0.0029296875,-1.4648436307907104,-0.2136230319738388,0.2136230319738388,86.66667175292969,232458.0,1.0
15:43:40.872305,157295.3125,177640.859375,176656.9375,182403.75,160439.046875,174069.046875,690864.3125,188966.390625,0.052734375,1.011962890625,0.00439453125,-1.4343260526657104,-0.2441406100988388,0.2136230319738388,86.66667175292969,232459.0,1.0
15:43:40.887968,157357.09375,177650.15625,176664.078125,182399.984375,160444.40625,174067.4375,690823.5,188962.90625,0.0537109375,1.011474609375,0.00341796875,-1.4343260526657104,-0.2441406100988388,0.03051757626235485,86.66667175292969,232460.0,1.0
15:43:40.887993,157392.40625,177660.53125,176666.765625,182376.828125,160452.453125,174070.390625,691135.0,188957.09375,0.05322265625,1.01025390625,0.002197265625,-1.4648436307907104,-0.1831054538488388,0.1831054538488388,86.66667175292969,232461.0,1.0
15:43:40.892960,157327.859375,177650.25,176656.9375,182356.8125,160442.703125,174069.21875,691282.5625,188954.140625,0.0537109375,1.011962890625,0.0009765625,-1.4038084745407104,-0.1525878757238388,0.1525878757238388,86.66667175292969,232462.0,1.0
15:43:40.892979,157286.640625,177631.921875,176647.359375,182392.921875,160428.140625,174060.015625,690903.75,188959.78125,0.05224609375,1.01220703125,0.00390625,-1.3732908964157104,-0.1831054538488388,0.2136230319738388,86.66667175292969,232463.0,1.0
15:43:40.894869,157334.921875,177637.1875,176651.921875,182387.65625,160431.265625,174058.234375,690795.625,188955.671875,0.05419921875,1.011474609375,0.0029296875,-1.4343260526657104,-0.1525878757238388,0.1831054538488388,86.66667175292969,232464.0,1.0
15:43:40.897354,157392.3125,177650.59375,176659.875,182382.90625,160444.046875,174061.890625,691070.9375,188954.59375,0.054443359375,1.010986328125,0.006591796875,-1.4953612089157104,-0.1220703050494194,0.2441406100988388,86.66667175292969,232465.0,1.0
15:43:40.902287,157340.109375,177650.6875,176657.28125,182353.234375,160443.328125,174067.609375,691310.5,188953.078125,0.055419921875,1.01123046875,0.00439453125,-1.3732908964157104,-0.2136230319738388,0.3051757514476776,86.66667175292969,232466.0,1.0
15:43:40.904884,157293.796875,177635.046875,176653.71875,182400.171875,160434.03125,174061.625,690974.0,188963.71875,0.05322265625,1.013671875,0.00244140625,-1.4343260526657104,-0.1525878757238388,0.3967284858226776,86.66667175292969,232467.0,1.0
15:43:40.908571,157330.265625,177644.875,176662.390625,182396.234375,160439.484375,174066.28125,690791.4375,188962.1875,0.052734375,1.012939453125,0.00439453125,-1.3427733182907104,-0.1831054538488388,0.3967284858226776,86.66667175292969,232468.0,1.0
15:43:40.915479,157401.078125,177661.15625,176671.953125,182396.59375,160451.828125,174071.734375,691016.625,188961.203125,0.052734375,1.011962890625,0.002197265625,-1.4038084745407104,-0.1831054538488388,0.4577636420726776,86.66667175292969,232469.0,1.0
15:43:40.915490,157355.3125,177659.1875,176664.171875,182351.625,160446.8125,174074.859375,691322.3125,188952.171875,0.052490234375,1.013427734375,0.0029296875,-1.4038084745407104,-0.0915527269244194,0.5187987685203552,86.66667175292969,232470.0,1.0
15:43:40.924857,157298.984375,177638.984375,176654.609375,182396.765625,160434.84375,174066.546875,691056.0,188961.484375,0.05322265625,1.01123046875,0.001953125,-1.4343260526657104,-0.1220703050494194,0.4577636420726776,86.66667175292969,232471.0,1.0
15:43:40.928139,157315.515625,177641.390625,176659.25,182394.796875,160435.828125,174066.90625,690797.3125,188959.25,0.054931640625,1.010498046875,0.0009765625,-1.4343260526657104,-0.0610351525247097,0.4577636420726776,86.66667175292969,232472.0,1.0
15:43:40.928161,157398.125,177658.640625,176674.015625,182404.09375,160451.5625,174071.28125,690939.125,188961.03125,0.052490234375,1.009521484375,-0.000732421875,-1.4648436307907104,-0.1525878757238388,0.4577636420726776,86.66667175292969,232473.0,1.0
15:43:40.937962,157371.125,177662.40625,176669.8125,182357.25,160453.078125,174075.21875,691298.875,188951.015625,0.0537109375,1.00927734375,0.002197265625,-1.3732908964157104,-0.0610351525247097,0.6103515028953552,86.66667175292969,232474.0,1.0
15:43:40.937982,157309.625,177647.65625,176664.0,182392.75,160443.875,174071.453125,691119.875,188960.765625,0.052978515625,1.010498046875,0.00341796875,-1.3427733182907104,-0.1220703050494194,0.7324218153953552,86.66667175292969,232475.0,1.0
15:43:40.947932,157314.796875,177652.65625,176671.5,182403.125,160447.359375,174077.984375,690804.625,188964.703125,0.055419921875,1.0107421875,0.004150390625,-1.3122557401657104,-0.0915527269244194,0.7324218153953552,86.66667175292969,232476.0,1.0
15:43:40.947964,157397.6875,177670.09375,176684.640625,182410.0,160461.921875,174083.078125,690886.75,188965.5,0.053955078125,1.01123046875,0.004638671875,-1.3732908964157104,-0.1525878757238388,0.6103515028953552,86.66667175292969,232477.0,1.0
15:43:40.990460,157385.609375,177671.4375,176676.15625,182358.328125,160459.96875,174081.734375,691245.6875,188949.046875,0.053955078125,1.01171875,0.004638671875,-1.3732908964157104,-0.1525878757238388,0.6408690810203552,86.66667175292969,232478.0,1.0
15:43:40.990479,157319.1875,177655.515625,176667.21875,182377.1875,160448.609375,174077.71875,691188.75,188955.3125,0.055908203125,1.011962890625,0.00048828125,-1.4038084745407104,-0.0915527269244194,0.7324218153953552,86.66667175292969,232479.0,1.0
15:43:40.992339,157304.4375,177647.921875,176665.15625,182394.09375,160441.453125,174073.96875,690839.1875,188957.90625,0.0576171875,1.012451171875,0.000244140625,-1.4343260526657104,-0.03051757626235485,0.7629393935203552,86.66667175292969,232480.0,1.0
15:43:40.994787,157379.796875,177659.8125,176676.15625,182400.609375,160451.46875,174074.40625,690852.3125,188958.96875,0.054931640625,1.01318359375,0.00048828125,-1.4953612089157104,-0.0610351525247097,0.7934569716453552,86.66667175292969,232481.0,1.0
15:43:40.997361,157394.828125,177668.84375,176676.15625,182370.03125,160456.828125,174077.453125,691198.5,188953.078125,0.054443359375,1.013671875,0.003662109375,-1.4648436307907104,-0.0610351525247097,0.7934569716453552,86.66667175292969,232482.0,1.0
15:43:40.999803,157332.328125,177658.46875,176669.09375,182374.0625,160450.578125,174077.453125,691250.1875,188959.0625,0.054931640625,1.013427734375,0.002197265625,-1.4038084745407104,-0.1220703050494194,0.7934569716453552,86.66667175292969,232483.0,1.0
15:43:41.002648,157304.609375,177646.390625,176666.046875,182406.609375,160444.671875,174073.0625,690864.5,188966.9375,0.056640625,1.012451171875,0.001708984375,-1.4953612089157104,-0.0610351525247097,0.7324218153953552,86.66667175292969,232484.0,1.0
15:43:41.004846,157367.640625,177657.75,176676.515625,182406.15625,160454.328125,174074.765625,690831.9375,188966.125,0.056396484375,1.013671875,0.000732421875,-1.5563963651657104,-0.03051757626235485,0.7629393935203552,86.66667175292969,232485.0,1.0
15:43:41.007404,157405.640625,177670.265625,176681.34375,182386.578125,160463.71875,174079.78125,691150.8125,188963.09375,0.055908203125,1.011962890625,0.00048828125,-1.4343260526657104,0.0,0.7934569716453552,86.66667175292969,232486.0,1.0
15:43:41.009907,157342.15625,177663.46875,176673.46875,182369.5,160456.5625,174082.09375,691305.8125,188962.8125,0.057861328125,1.01171875,-0.000244140625,-1.4343260526657104,-0.0610351525247097,0.7019042372703552,86.66667175292969,232487.0,1.0
15:43:41.012301,157299.875,177645.6875,176664.796875,182404.1875,160443.25,174074.234375,690926.6875,188968.453125,0.05517578125,1.012939453125,0.0009765625,-1.4953612089157104,0.03051757626235485,0.7324218153953552,86.66667175292969,232488.0,1.0
15:43:41.014908,157354.328125,177659.625,176677.578125,182402.046875,160452.625,174079.78125,690805.9375,188968.09375,0.05517578125,1.010498046875,0.001953125,-1.5258787870407104,0.0610351525247097,0.7324218153953552,86.66667175292969,232489.0,1.0
15:43:41.017368,157411.359375,177673.84375,176685.09375,182394.359375,160463.71875,174084.0625,691070.375,188965.140625,0.0556640625,1.011474609375,0.000732421875,-1.5869139432907104,0.03051757626235485,0.5493163466453552,86.66667175292969,232490.0,1.0
15:43:41.019925,157356.640625,177670.1875,176678.125,182362.34375,160459.0625,174087.109375,691325.25,188960.40625,0.056640625,1.010986328125,0.00146484375,-1.6479490995407104,0.0915527269244194,0.5187987685203552,86.66667175292969,232491.0,1.0
15:43:41.022888,157307.46875,177651.21875,176670.515625,182408.578125,160447.09375,174080.3125,690981.5625,188971.40625,0.05712890625,1.0126953125,0.00390625,-1.5258787870407104,0.1220703050494194,0.5493163466453552,86.66667175292969,232492.0,1.0
15:43:41.022906,157338.3125,177652.484375,176673.03125,182400.609375,160448.34375,174078.609375,690789.625,188967.5625,0.0576171875,1.012451171875,0.00390625,-1.5869139432907104,0.1220703050494194,0.5798339247703552,86.66667175292969,232493.0,1.0
15:43:41.024899,157408.59375,177666.15625,176681.96875,182401.6875,160461.21875,174080.40625,691004.125,188966.75,0.055419921875,1.01220703125,0.00341796875,-1.6479490995407104,0.2746581733226776,0.4272460639476776,86.66667175292969,232494.0,1.0
15:43:41.027284,157369.609375,177671.25,176680.453125,182360.46875,160463.265625,174088.171875,691326.0,188962.46875,0.055419921875,1.0126953125,0.00244140625,-1.6174315214157104,0.2136230319738388,0.4272460639476776,86.66667175292969,232495.0,1.0
15:43:41.030428,157316.328125,177655.78125,176674.453125,182405.625,160453.703125,174084.0625,691060.4375,188975.421875,0.056396484375,1.0107421875,0.000732421875,-1.6479490995407104,0.2746581733226776,0.4577636420726776,86.66667175292969,232496.0,1.0
15:43:41.030442,157326.421875,177652.828125,176671.6875,182400.171875,160447.0,174078.609375,690795.625,188967.375,0.056396484375,1.01171875,0.00341796875,-1.6784666776657104,0.3051757514476776,0.5187987685203552,86.66667175292969,232497.0,1.0
15:43:41.034904,157406.0,177667.046875,176681.875,182410.0,160459.6875,174079.0625,690943.625,188967.734375,0.057373046875,1.01416015625,0.003662109375,-1.7089842557907104,0.3662109076976776,0.3967284858226776,86.66667175292969,232498.0,1.0
15:43:41.037956,157378.8125,177668.921875,176675.890625,182361.71875,160459.421875,174081.296875,691297.5625,188958.34375,0.056640625,1.01318359375,0.0048828125,-1.7395018339157104,0.2746581733226776,0.3356933295726776,86.66667175292969,232499.0,1.0
15:43:41.037977,157312.390625,177645.6875,176664.0,182391.765625,160445.84375,174070.75,691121.0625,188963.796875,0.054931640625,1.012451171875,0.002685546875,-1.7700194120407104,0.3051757514476776,0.3662109076976776,86.66667175292969,232500.0,1.0
15:43:41.039903,157309.4375,177640.5,176662.65625,182394.625,160443.15625,174066.28125,690799.8125,188962.46875,0.05615234375,1.012451171875,0.004638671875,-1.7089842557907104,0.4272460639476776,0.3662109076976776,86.66667175292969,232501.0,1.0
15:43:41.056707,157388.828125,177655.78125,176672.046875,182398.5625,160454.6875,174067.96875,690878.4375,188961.390625,0.051513671875,1.01171875,0.005126953125,-1.7089842557907104,0.2441406100988388,0.2746581733226776,86.66667175292969,232502.0,1.0
15:43:41.056731,157375.515625,177658.5625,176664.265625,182348.765625,160452.625,174069.5,691244.5625,188948.328125,0.05419921875,1.011962890625,0.0029296875,-1.6479490995407104,0.2136230319738388,0.3662109076976776,86.66667175292969,232503.0,1.0
15:43:41.059243,157305.78125,177639.515625,176651.484375,182364.40625,160437.15625,174064.125,691186.875,188952.171875,0.05322265625,1.012451171875,0.00244140625,-1.6174315214157104,0.3051757514476776,0.4272460639476776,86.66667175292969,232504.0,1.0
15:43:41.059258,157282.4375,177625.203125,176640.65625,182374.5,160422.859375,174055.453125,690826.375,188947.890625,0.05322265625,1.01220703125,0.005126953125,-1.6479490995407104,0.2441406100988388,0.3051757514476776,86.66667175292969,232505.0,1.0
15:43:41.061087,157353.609375,177635.9375,176649.421875,182376.75,160431.625,174056.265625,690855.5,188946.28125,0.052734375,1.010498046875,0.003173828125,-1.6174315214157104,0.2746581733226776,0.3051757514476776,86.66667175292969,232506.0,1.0
15:43:41.063645,157368.265625,177645.421875,176647.90625,182342.234375,160436.625,174061.359375,691206.625,188938.234375,0.05322265625,1.008544921875,0.003173828125,-1.5258787870407104,0.3051757514476776,0.3051757514476776,86.66667175292969,232507.0,1.0
15:43:41.075448,157293.34375,177623.421875,176630.46875,182334.1875,160416.953125,174050.8125,691251.5,188934.296875,0.052490234375,1.0068359375,0.002685546875,-1.4343260526657104,0.1831054538488388,0.3356933295726776,86.66667175292969,232508.0,1.0
15:43:41.075462,157261.515625,177608.84375,176624.65625,182363.59375,160406.234375,174043.125,690862.5625,188937.421875,0.051513671875,1.0068359375,0.002197265625,-1.3427733182907104,0.1525878757238388,0.3356933295726776,86.66667175292969,232509.0,1.0
15:43:41.077893,157332.0625,177627.4375,176641.46875,182368.421875,160420.171875,174050.984375,690811.75,188937.78125,0.05126953125,1.005615234375,0.002685546875,-1.3122557401657104,0.2136230319738388,0.3356933295726776,86.66667175292969,232510.0,1.0
15:43:41.077903,157374.265625,177644.4375,176649.25,182351.265625,160433.59375,174059.21875,691122.5,188935.1875,0.051513671875,1.00634765625,0.004150390625,-1.1291502714157104,0.1525878757238388,0.3662109076976776,86.66667175292969,232511.0,1.0
15:43:41.095166,157312.03125,177637.71875,176641.90625,182332.390625,160427.234375,174060.1875,691287.625,188933.765625,0.051513671875,1.00732421875,0.005615234375,-1.0681151151657104,0.1220703050494194,0.3356933295726776,86.66667175292969,232512.0,1.0
15:43:41.098520,157276.984375,177627.265625,176640.5625,182376.75,160419.640625,174056.796875,690913.375,188943.59375,0.05322265625,1.00732421875,0.00244140625,-1.0070799589157104,0.1831054538488388,0.3356933295726776,86.66667175292969,232513.0,1.0
15:43:41.098557,157329.5625,177642.640625,176652.8125,182374.421875,160428.046875,174061.359375,690794.625,188942.703125,0.052978515625,1.0068359375,0.002685546875,-0.7934569716453552,0.1831054538488388,0.4272460639476776,86.66667175292969,232514.0,1.0
15:43:41.098564,157392.3125,177662.671875,176665.609375,182372.90625,160446.546875,174071.015625,691068.9375,188947.703125,0.052490234375,1.00537109375,0.00390625,-0.7019042372703552,0.1220703050494194,0.4577636420726776,86.66667175292969,232515.0,1.0
15:43:41.101188,157337.328125,177659.265625,176659.171875,182341.609375,160443.421875,174075.75,691315.0625,188944.046875,0.05224609375,1.00439453125,0.005859375,-0.5798339247703552,0.03051757626235485,0.5187987685203552,86.66667175292969,232516.0,1.0
15:43:41.103639,157283.59375,177635.9375,176647.546875,182383.1875,160426.96875,174062.78125,690978.625,188950.21875,0.052978515625,1.005859375,0.00439453125,-0.3356933295726776,0.03051757626235485,0.5798339247703552,86.66667175292969,232517.0,1.0
15:43:41.107377,157324.640625,177648.359375,176662.65625,182385.59375,160438.859375,174069.84375,690788.375,188955.125,0.052490234375,1.006103515625,0.00537109375,-0.3051757514476776,-0.03051757626235485,0.5493163466453552,86.66667175292969,232518.0,1.0
15:43:41.114283,157400.984375,177665.984375,176676.953125,182391.40625,160456.03125,174074.953125,691002.25,188958.171875,0.052490234375,1.00927734375,0.003662109375,-0.1525878757238388,-0.0915527269244194,0.5187987685203552,86.66667175292969,232519.0,1.0
15:43:41.114312,157363.265625,177669.828125,176675.53125,182352.15625,160457.28125,174081.46875,691311.625,188952.984375,0.0546875,1.0078125,0.001708984375,-0.03051757626235485,-0.1525878757238388,0.4882812201976776,86.66667175292969,232520.0,1.0
15:43:41.123577,157312.84375,177656.5,176672.40625,182399.359375,160450.3125,174077.984375,691052.375,188966.75,0.055419921875,1.009033203125,0.00341796875,0.0610351525247097,-0.0915527269244194,0.6408690810203552,86.66667175292969,232521.0,1.0
15:43:41.130541,157332.234375,177662.21875,176679.46875,182400.4375,160453.53125,174080.671875,690793.125,188968.0,0.053955078125,1.01025390625,0.00341796875,0.0915527269244194,-0.0915527269244194,0.6408690810203552,86.66667175292969,232522.0,1.0
15:43:41.130561,157413.59375,177676.625,176691.796875,182410.1875,160467.65625,174083.0,690940.375,188970.421875,0.056396484375,1.013427734375,0.00341796875,0.03051757626235485,-0.0610351525247097,0.7019042372703552,86.66667175292969,232523.0,1.0
15:43:41.132904,157387.484375,177680.109375,176686.34375,182364.40625,160466.75,174086.84375,691287.8125,188961.5625,0.0537109375,1.01513671875,0.001953125,0.03051757626235485,-0.03051757626235485,0.7629393935203552,86.66667175292969,232524.0,1.0
15:43:41.132923,157322.5,177659.359375,176673.65625,182396.59375,160451.015625,174079.328125,691125.875,188969.078125,0.055419921875,1.015869140625,0.0068359375,0.0,-0.0610351525247097,0.7934569716453552,86.66667175292969,232525.0,1.0
15:43:41.139817,157315.703125,177652.75,176669.625,182402.3125,160443.328125,174074.859375,690811.1875,188967.46875,0.056884765625,1.0166015625,0.006591796875,-0.1831054538488388,0.0,0.7324218153953552,86.66667175292969,232526.0,1.0
15:43:41.155509,157394.375,177664.1875,176679.375,182408.484375,160453.609375,174075.296875,690888.1875,188967.734375,0.05615234375,1.017578125,0.004150390625,-0.2441406100988388,-0.03051757626235485,0.8239745497703552,86.66667175292969,232527.0,1.0
15:43:41.155525,157388.03125,177669.90625,176676.421875,182366.8125,160458.796875,174080.21875,691246.3125,188960.21875,0.05712890625,1.018310546875,0.001708984375,-0.3356933295726776,-0.03051757626235485,0.7324218153953552,86.66667175292969,232528.0,1.0
15:43:41.162236,157321.59375,177652.921875,176666.046875,182385.140625,160448.421875,174077.09375,691186.3125,188967.375,0.0576171875,1.01708984375,0.000244140625,-0.5493163466453552,0.0915527269244194,0.7934569716453552,86.66667175292969,232529.0,1.0
15:43:41.162259,157307.03125,177647.734375,176665.6875,182403.03125,160443.421875,174075.390625,690824.0625,188970.15625,0.05908203125,1.016357421875,0.002685546875,-0.6103515028953552,0.1831054538488388,0.7324218153953552,86.66667175292969,232530.0,1.0
15:43:41.162265,157382.9375,177664.734375,176679.46875,182407.953125,160457.015625,174080.578125,690843.125,188969.4375,0.056396484375,1.01513671875,0.001953125,-0.7019042372703552,0.1525878757238388,0.6713866591453552,86.66667175292969,232531.0,1.0
15:43:41.165490,157398.046875,177673.046875,176677.859375,182374.234375,160462.375,174082.375,691184.25,188960.859375,0.057861328125,1.015625,0.00146484375,-0.8850097060203552,0.1220703050494194,0.5493163466453552,86.66667175292969,232532.0,1.0
15:43:41.165512,157332.15625,177658.015625,176668.546875,182376.390625,160452.71875,174077.265625,691240.8125,188965.046875,0.058349609375,1.017333984375,0.000732421875,-0.9460448622703552,0.2136230319738388,0.7019042372703552,86.66667175292969,232533.0,1.0
15:43:41.172301,157303.890625,177644.96875,176665.328125,182409.828125,160444.765625,174069.765625,690855.4375,188972.5625,0.05859375,1.015380859375,0.001953125,-1.0681151151657104,0.2136230319738388,0.6103515028953552,86.66667175292969,232534.0,1.0
15:43:41.180539,157369.078125,177657.3125,176675.796875,182408.578125,160452.265625,174072.4375,690814.9375,188969.96875,0.058837890625,1.014404296875,0.0,-1.1901854276657104,0.3051757514476776,0.6103515028953552,86.66667175292969,232535.0,1.0
15:43:41.180566,157405.1875,177667.859375,176677.40625,182384.4375,160458.078125,174076.734375,691124.125,188962.015625,0.058837890625,1.015625,-0.001220703125,-1.3732908964157104,0.3662109076976776,0.5493163466453552,86.66667175292969,232536.0,1.0
15:43:41.186240,157340.28125,177659.453125,176667.578125,182360.921875,160450.390625,174078.34375,691287.625,188957.90625,0.057373046875,1.01513671875,-0.00048828125,-1.4648436307907104,0.3967284858226776,0.5187987685203552,86.66667175292969,232537.0,1.0
15:43:41.196664,157295.84375,177639.78125,176655.59375,182394.265625,160436.265625,174067.890625,690915.3125,188960.046875,0.05810546875,1.014404296875,0.00390625,-1.5563963651657104,0.3967284858226776,0.4272460639476776,86.66667175292969,232538.0,1.0
15:43:41.196687,157342.25,177646.578125,176660.953125,182387.921875,160438.234375,174067.703125,690798.5,188954.59375,0.056884765625,1.01318359375,0.001708984375,-1.6784666776657104,0.3967284858226776,0.4577636420726776,86.66667175292969,232539.0,1.0
15:43:41.199349,157397.0625,177658.46875,176665.0625,182380.765625,160446.1875,174069.046875,691068.125,188951.46875,0.056640625,1.0126953125,0.000732421875,-1.7395018339157104,0.4577636420726776,0.4272460639476776,86.66667175292969,232540.0,1.0
15:43:41.199389,157340.109375,177652.484375,176655.046875,182343.21875,160437.96875,174068.15625,691317.875,188944.046875,0.05810546875,1.013427734375,0.003173828125,-1.7395018339157104,0.5798339247703552,0.3662109076976776,86.66667175292969,232541.0,1.0
15:43:41.201111,157291.203125,177635.21875,176647.0,182384.96875,160424.921875,174060.46875,690990.0,188952.359375,0.0556640625,1.01220703125,0.002685546875,-1.8310545682907104,0.4272460639476776,0.2441406100988388,86.66667175292969,232542.0,1.0
15:43:41.216173,157324.90625,177643.265625,176655.765625,182381.578125,160429.65625,174063.859375,690796.3125,188949.9375,0.056396484375,1.012939453125,0.000244140625,-1.8310545682907104,0.5798339247703552,0.3967284858226776,86.66667175292969,232543.0,1.0
15:43:41.219135,157399.46875,177659.984375,176668.109375,182386.3125,160446.109375,174067.265625,691008.6875,188950.84375,0.0556640625,1.01220703125,-0.000732421875,-1.8920897245407104,0.5798339247703552,0.4272460639476776,86.66667175292969,232544.0,1.0
15:43:41.219162,157355.390625,177660.96875,176661.84375,182340.0,160444.3125,174068.953125,691320.875,188942.171875,0.054931640625,1.01123046875,0.000244140625,-1.9836424589157104,0.5493163466453552,0.3356933295726776,86.66667175292969,232545.0,1.0
15:43:41.221642,157301.921875,177645.328125,176657.109375,182384.875,160435.46875,174065.203125,691059.5625,188954.421875,0.054443359375,1.0126953125,0.001953125,-2.014159917831421,0.5493163466453552,0.2441406100988388,86.66667175292969,232546.0,1.0
15:43:41.221666,157321.0625,177650.15625,176662.921875,182384.703125,160437.96875,174068.515625,690797.0625,188954.328125,0.0537109375,1.012939453125,0.003173828125,-1.9531248807907104,0.5798339247703552,0.1525878757238388,86.66667175292969,232547.0,1.0
15:43:41.237323,157403.765625,177667.59375,176677.40625,182395.515625,160452.625,174074.40625,690942.8125,188958.171875,0.052978515625,1.01123046875,0.001708984375,-1.9226073026657104,0.4882812201976776,0.1831054538488388,86.66667175292969,232548.0,1.0
15:43:41.243483,157376.5,177671.171875,176672.046875,182347.421875,160452.1875,174079.234375,691301.75,188948.328125,0.052734375,1.01123046875,0.005126953125,-1.9531248807907104,0.3662109076976776,0.2136230319738388,86.66667175292969,232549.0,1.0
15:43:41.243505,157308.8125,177647.203125,176657.5625,182374.5,160434.75,174068.0625,691124.75,188950.921875,0.0517578125,1.0107421875,0.002197265625,-1.9226073026657104,0.2441406100988388,0.2441406100988388,86.66667175292969,232550.0,1.0
15:43:41.243513,157305.0625,177643.53125,176656.84375,182381.03125,160429.296875,174065.65625,690806.0,188950.03125,0.050537109375,1.009033203125,0.004638671875,-1.9226073026657104,0.2441406100988388,0.3356933295726776,86.66667175292969,232551.0,1.0
15:43:41.246733,157386.328125,177661.328125,176670.4375,182389.96875,160443.59375,174070.203125,690894.25,188951.28125,0.05078125,1.00927734375,0.001953125,-1.8615721464157104,0.3051757514476776,0.2441406100988388,86.66667175292969,232552.0,1.0
15:43:41.246774,157376.578125,177664.734375,176664.265625,182344.46875,160444.40625,174071.640625,691254.4375,188938.953125,0.05078125,1.0107421875,0.00390625,-1.9226073026657104,0.3051757514476776,0.3356933295726776,86.66667175292969,232553.0,1.0
15:43:41.252380,157306.3125,177644.25,176651.03125,182358.328125,160428.671875,174062.34375,691191.3125,188940.734375,0.05224609375,1.01220703125,0.002197265625,-1.8310545682907104,0.0915527269244194,0.4272460639476776,86.66667175292969,232554.0,1.0
15:43:41.258692,157290.484375,177636.109375,176649.25,182375.140625,160422.046875,174058.046875,690821.625,188941.09375,0.05078125,1.011962890625,0.00341796875,-1.8920897245407104,-0.0610351525247097,0.4272460639476776,86.66667175292969,232555.0,1.0
15:43:41.265586,157369.34375,177653.375,176663.375,182383.359375,160436.8125,174063.859375,690835.3125,188941.984375,0.05078125,1.010498046875,0.00390625,-1.8005369901657104,-0.1220703050494194,0.3662109076976776,86.66667175292969,232556.0,1.0
15:43:41.265610,157386.78125,177665.4375,176665.25,182351.890625,160445.03125,174070.296875,691180.4375,188935.8125,0.053466796875,1.009521484375,0.0009765625,-1.6784666776657104,-0.0915527269244194,0.4272460639476776,86.66667175292969,232557.0,1.0
15:43:41.272868,157320.078125,177651.140625,176654.875,182349.46875,160433.140625,174066.984375,691238.4375,188937.78125,0.05126953125,1.007568359375,0.003173828125,-1.6784666776657104,-0.1831054538488388,0.3967284858226776,86.66667175292969,232558.0,1.0
15:43:41.272887,157288.609375,177636.65625,176647.8125,182378.53125,160421.96875,174058.9375,690853.5,188944.484375,0.053955078125,1.007568359375,0.001220703125,-1.6174315214157104,-0.0915527269244194,0.4577636420726776,86.66667175292969,232559.0,1.0
15:43:41.281783,157354.140625,177649.703125,176659.609375,182378.890625,160431.984375,174062.515625,690811.8125,188945.65625,0.054931640625,1.007568359375,0.002685546875,-1.5563963651657104,-0.1525878757238388,0.5493163466453552,86.66667175292969,232560.0,1.0
15:43:41.281811,157390.984375,177658.734375,176660.78125,182358.140625,160440.46875,174064.578125,691122.75,188941.359375,0.054443359375,1.0068359375,0.00341796875,-1.4648436307907104,-0.2136230319738388,0.6408690810203552,86.66667175292969,232561.0,1.0
15:43:41.283904,157325.171875,177646.578125,176649.0625,182336.953125,160430.375,174062.15625,691284.5625,188938.234375,0.053955078125,1.00634765625,0.003662109375,-1.3427733182907104,-0.3051757514476776,0.7629393935203552,86.66667175292969,232562.0,1.0
15:43:41.318108,157285.65625,177631.203125,176643.4375,182378.53125,160420.53125,174056.796875,690916.625,188946.8125,0.05322265625,1.00927734375,0.00390625,-1.2207030057907104,-0.2746581733226776,0.7934569716453552,86.66667175292969,232563.0,1.0
15:43:41.318130,157334.734375,177639.96875,176651.125,182373.25,160424.5625,174058.671875,690793.375,188943.421875,0.053955078125,1.010498046875,0.002197265625,-1.1596678495407104,-0.3662109076976776,0.7324218153953552,86.66667175292969,232564.0,1.0
15:43:41.345538,157390.53125,177651.5,176657.109375,182364.578125,160434.390625,174060.015625,691058.5,188938.5,0.053955078125,1.010986328125,0.001953125,-1.0986326932907104,-0.3356933295726776,0.7019042372703552,86.66667175292969,232565.0,1.0
15:43:41.345735,157339.125,177653.109375,176653.890625,182332.21875,160433.5,174067.703125,691317.75,188935.1875,0.053466796875,1.010986328125,0.0029296875,-1.0375975370407104,-0.3662109076976776,0.7629393935203552,86.66667175292969,232566.0,1.0
15:43:41.366472,157291.296875,177636.203125,176645.9375,182376.75,160421.875,174060.28125,690994.0,188944.40625,0.0546875,1.010498046875,0.002197265625,-1.0986326932907104,-0.3662109076976776,0.7934569716453552,86.66667175292969,232567.0,1.0
15:43:41.368724,157327.046875,177645.0625,176657.734375,182376.921875,160428.9375,174063.40625,690798.25,188945.5625,0.0546875,1.009765625,0.0029296875,-1.0375975370407104,-0.3662109076976776,0.6713866591453552,86.66667175292969,232568.0,1.0
15:43:41.371150,157400.640625,177659.09375,176669.8125,182382.46875,160443.15625,174065.65625,691007.5,188947.703125,0.05517578125,1.01171875,0.001953125,-1.1291502714157104,-0.4272460639476776,0.7324218153953552,86.66667175292969,232569.0,1.0
15:43:41.373717,157358.875,177659.359375,176664.625,182339.1875,160441.8125,174068.421875,691321.9375,188941.8125,0.058837890625,1.010986328125,0.002197265625,-1.0681151151657104,-0.3967284858226776,0.7629393935203552,86.66667175292969,232570.0,1.0
15:43:41.376179,157305.5,177643.1875,176658.890625,182383.359375,160431.796875,174062.25,691050.1875,188953.875,0.0595703125,1.010986328125,0.00048828125,-1.0375975370407104,-0.2746581733226776,0.8239745497703552,86.66667175292969,232571.0,1.0
15:43:41.381151,157325.0,177647.109375,176665.421875,182385.953125,160432.6875,174063.6875,690784.0,188954.140625,0.058837890625,1.01220703125,-0.002197265625,-0.9765624403953552,-0.1525878757238388,0.8544921278953552,86.66667175292969,232572.0,1.0
15:43:41.383570,157404.75,177661.78125,176676.25,182393.28125,160444.859375,174066.28125,690931.1875,188953.96875,0.059814453125,1.010986328125,-0.001953125,-1.0681151151657104,-0.0610351525247097,1.0070799589157104,86.66667175292969,232573.0,1.0
15:43:41.386150,157384.0,177670.984375,176675.96875,182351.4375,160450.3125,174076.203125,691287.25,188948.328125,0.05810546875,1.008544921875,-0.00048828125,-1.0070799589157104,0.0,0.8850097060203552,86.66667175292969,232574.0,1.0
15:43:41.388648,157330.1875,177659.984375,176675.078125,182392.296875,160443.875,174076.828125,691121.5,188961.5625,0.058349609375,1.01025390625,-0.002197265625,-1.0375975370407104,0.03051757626235485,0.8544921278953552,86.66667175292969,232575.0,1.0
15:43:41.391051,157336.703125,177664.734375,176682.140625,182406.34375,160445.921875,174080.671875,690801.375,188963.796875,0.0576171875,1.009765625,-0.001220703125,-1.0681151151657104,0.1220703050494194,0.8544921278953552,86.66667175292969,232576.0,1.0
15:43:41.393723,157421.375,177682.875,176695.015625,182414.65625,160458.359375,174084.515625,690882.0,188962.8125,0.059326171875,1.0078125,-0.00048828125,-1.0681151151657104,0.2136230319738388,0.7629393935203552,86.66667175292969,232577.0,1.0
15:43:41.396147,157419.234375,177693.0625,176694.21875,182373.609375,160461.484375,174088.625,691243.3125,188954.859375,0.057373046875,1.010009765625,0.0009765625,-1.0681151151657104,0.1525878757238388,0.8239745497703552,86.66667175292969,232578.0,1.0
15:43:41.398591,157355.9375,177678.140625,176687.234375,182394.0,160451.734375,174084.0625,691191.0,188963.53125,0.0576171875,1.011474609375,0.00048828125,-1.1596678495407104,0.1831054538488388,0.7934569716453552,86.66667175292969,232579.0,1.0
15:43:41.401105,157342.703125,177672.140625,176687.78125,182416.078125,160447.53125,174081.734375,690823.625,188969.96875,0.05810546875,1.013427734375,-0.003662109375,-1.2207030057907104,0.2441406100988388,0.7934569716453552,86.66667175292969,232580.0,1.0
15:43:41.403786,157422.265625,177689.140625,176702.625,182426.0,160461.21875,174086.5625,690848.75,188974.0,0.05810546875,1.013916015625,-0.00146484375,-1.1596678495407104,0.1831054538488388,0.7934569716453552,86.66667175292969,232581.0,1.0
15:43:41.408649,157446.953125,177703.796875,176707.0,182399.453125,160469.703125,174095.515625,691193.0625,188972.125,0.057861328125,1.013671875,-0.002197265625,-1.3122557401657104,0.3051757514476776,0.6408690810203552,86.66667175292969,232582.0,1.0
15:43:41.411134,157381.59375,177692.171875,176696.71875,182396.59375,160457.640625,174094.078125,691249.75,188974.0,0.05908203125,1.01171875,-0.0009765625,-1.2817381620407104,0.3356933295726776,0.6103515028953552,86.66667175292969,232583.0,1.0
15:43:41.413620,157356.828125,177683.6875,176695.734375,182428.0625,160450.9375,174092.375,690860.0625,188980.15625,0.059326171875,1.013671875,-0.00048828125,-1.2512205839157104,0.3967284858226776,0.4577636420726776,86.66667175292969,232584.0,1.0
15:43:41.419276,157425.21875,177700.484375,176710.9375,182429.40625,160461.578125,174097.5625,690809.9375,188980.515625,0.059326171875,1.01416015625,0.001953125,-1.2817381620407104,0.4272460639476776,0.3967284858226776,86.66667175292969,232585.0,1.0
15:43:41.419293,157469.296875,177715.234375,176716.125,182412.6875,160471.9375,174101.859375,691115.625,188976.859375,0.056640625,1.0126953125,0.0,-1.1901854276657104,0.4272460639476776,0.3662109076976776,86.66667175292969,232586.0,1.0
15:43:41.424208,157409.484375,177707.90625,176709.140625,182394.625,160464.34375,174102.3125,691289.0625,188975.0625,0.054443359375,1.01220703125,0.001953125,-1.2512205839157104,0.4882812201976776,0.2746581733226776,86.66667175292969,232587.0,1.0
15:43:41.424225,157370.0625,177693.0625,176703.421875,182436.375,160451.375,174094.703125,690920.8125,188981.6875,0.054443359375,1.012939453125,0.001953125,-1.3732908964157104,0.5187987685203552,0.0915527269244194,86.66667175292969,232588.0,1.0
15:43:41.426759,157424.859375,177709.875,176718.078125,182436.203125,160462.109375,174101.59375,690796.0625,188982.9375,0.0537109375,1.013916015625,0.001220703125,-1.4038084745407104,0.3967284858226776,0.0,86.66667175292969,232589.0,1.0
15:43:41.426775,157490.578125,177729.453125,176732.03125,182436.203125,160479.984375,174110.265625,691060.875,188986.78125,0.05322265625,1.01416015625,0.0009765625,-1.4648436307907104,0.2746581733226776,-0.0610351525247097,86.66667175292969,232590.0,1.0
15:43:41.429789,157440.953125,177727.9375,176730.953125,182404.734375,160481.15625,174114.734375,691314.0,188986.421875,0.051513671875,1.01220703125,0.003173828125,-1.5563963651657104,0.1831054538488388,-0.1525878757238388,86.66667175292969,232591.0,1.0
15:43:41.429806,157392.59375,177708.53125,176724.515625,182451.390625,160469.703125,174104.71875,690978.5625,188997.234375,0.05126953125,1.01416015625,0.001708984375,-1.6174315214157104,0.1831054538488388,-0.1525878757238388,86.66667175292969,232592.0,1.0
15:43:41.429812,157429.515625,177719.4375,176734.8125,182453.09375,160475.609375,174108.390625,690784.8125,188998.140625,0.05224609375,1.011962890625,0.003173828125,-1.7395018339157104,0.1220703050494194,-0.2136230319738388,86.66667175292969,232593.0,1.0
15:43:41.433266,157506.046875,177737.765625,176748.84375,182460.15625,160492.953125,174114.90625,691003.875,189001.796875,0.05224609375,1.011474609375,0.005615234375,-1.7089842557907104,0.0,-0.3356933295726776,86.66667175292969,232594.0,1.0
15:43:41.433278,157465.71875,177739.03125,176744.546875,182416.96875,160493.484375,174120.359375,691318.0,188994.734375,0.05322265625,1.013916015625,0.00537109375,-1.7089842557907104,0.03051757626235485,-0.2136230319738388,86.66667175292969,232595.0,1.0
15:43:41.434823,157412.96875,177723.109375,176740.171875,182464.09375,160483.75,174116.609375,691053.5625,189008.0625,0.0556640625,1.01220703125,0.00537109375,-1.7700194120407104,0.03051757626235485,-0.1220703050494194,86.66667175292969,232596.0,1.0
15:43:41.437339,157424.6875,177722.21875,176742.140625,182463.109375,160482.40625,174114.640625,690786.3125,189003.859375,0.05517578125,1.01318359375,0.000732421875,-1.6784666776657104,0.03051757626235485,-0.1220703050494194,86.66667175292969,232597.0,1.0
15:43:41.440441,157500.5,177734.46875,176749.46875,182466.59375,160494.03125,174115.359375,690930.8125,189000.8125,0.0546875,1.012939453125,-0.001220703125,-1.6784666776657104,0.0,-0.0915527269244194,86.66667175292969,232598.0,1.0
15:43:41.440460,157471.984375,177736.703125,176742.578125,182416.265625,160495.640625,174120.640625,691285.25,188991.515625,0.0546875,1.0126953125,0.005615234375,-1.6784666776657104,-0.0610351525247097,-0.0915527269244194,86.66667175292969,232599.0,1.0
15:43:41.442276,157406.171875,177717.203125,176733.015625,182447.828125,160483.296875,174115.265625,691119.4375,189001.625,0.05224609375,1.01220703125,0.003173828125,-1.7089842557907104,-0.03051757626235485,0.0,86.66667175292969,232600.0,1.0
15:43:41.445488,157401.96875,177712.828125,176732.484375,182456.40625,160479.0,174112.046875,690796.875,189004.390625,0.053466796875,1.010986328125,0.004150390625,-1.8005369901657104,-0.0915527269244194,0.03051757626235485,86.66667175292969,232601.0,1.0
15:43:41.445504,157480.921875,177724.71875,176741.515625,182463.640625,160489.5625,174110.890625,690891.8125,189004.390625,0.053466796875,1.01025390625,0.003662109375,-1.8005369901657104,0.0,0.1525878757238388,86.66667175292969,232602.0,1.0
15:43:41.447322,157473.328125,177729.546875,176736.953125,182421.0,160489.90625,174111.875,691244.25,188994.640625,0.053466796875,1.008544921875,0.00439453125,-1.7395018339157104,0.0,0.2136230319738388,86.66667175292969,232603.0,1.0
15:43:41.457422,157406.71875,177712.296875,176727.921875,182438.609375,160479.625,174107.21875,691193.9375,189002.0625,0.052734375,1.01171875,0.0009765625,-1.8005369901657104,-0.0610351525247097,0.3662109076976776,86.66667175292969,232604.0,1.0
15:43:41.460547,157388.125,177704.515625,176725.15625,182456.671875,160473.28125,174105.4375,690832.625,189005.640625,0.051025390625,1.01171875,0.00244140625,-1.7700194120407104,-0.1525878757238388,0.3356933295726776,86.66667175292969,232605.0,1.0
15:43:41.460571,157463.21875,177719.984375,176737.9375,182460.515625,160486.15625,174109.28125,690839.875,189005.375,0.050048828125,1.0126953125,0.004638671875,-1.7089842557907104,-0.2746581733226776,0.4882812201976776,86.66667175292969,232606.0,1.0
15:43:41.462300,157481.09375,177730.171875,176740.265625,182429.671875,160493.9375,174113.484375,691186.0625,188999.03125,0.049072265625,1.013427734375,0.003662109375,-1.6784666776657104,-0.3356933295726776,0.4272460639476776,86.66667175292969,232607.0,1.0
15:43:41.473999,157411.1875,177713.453125,176729.796875,182426.0,160482.5,174109.1875,691253.5,188999.03125,0.0498046875,1.01318359375,0.00244140625,-1.8310545682907104,-0.2441406100988388,0.4577636420726776,86.66667175292969,232608.0,1.0
15:43:41.476670,157379.359375,177698.4375,176723.359375,182457.203125,160471.578125,174102.125,690865.0,189003.671875,0.051025390625,1.012451171875,0.004150390625,-1.8310545682907104,-0.3662109076976776,0.3967284858226776,86.66667175292969,232609.0,1.0
15:43:41.476684,157440.59375,177709.4375,176731.5,182454.53125,160477.578125,174101.59375,690810.125,188999.75,0.0498046875,1.01318359375,0.00439453125,-1.7700194120407104,-0.4882812201976776,0.3967284858226776,86.66667175292969,232610.0,1.0
15:43:41.484201,157476.984375,177718.640625,176732.21875,182431.546875,160484.109375,174103.28125,691115.6875,188992.6875,0.05029296875,1.01171875,0.0048828125,-1.7395018339157104,-0.5187987685203552,0.4882812201976776,86.66667175292969,232611.0,1.0
15:43:41.484227,157411.8125,177709.96875,176723.0,182407.3125,160475.78125,174104.625,691292.75,188989.546875,0.052001953125,1.010986328125,0.00341796875,-1.8005369901657104,-0.5187987685203552,0.5187987685203552,86.66667175292969,232612.0,1.0
15:43:41.486070,157368.0,177693.25,176715.140625,182445.40625,160463.359375,174097.296875,690915.1875,188995.71875,0.052490234375,1.01025390625,0.004638671875,-1.8005369901657104,-0.5187987685203552,0.5798339247703552,86.66667175292969,232613.0,1.0
15:43:41.494816,157422.359375,177708.71875,176729.4375,182445.765625,160475.078125,174105.703125,690787.75,188995.71875,0.05322265625,1.010986328125,0.007568359375,-1.8310545682907104,-0.4882812201976776,0.5798339247703552,86.66667175292969,232614.0,1.0
15:43:41.505774,157483.78125,177723.734375,176739.28125,182439.78125,160488.578125,174111.0625,691049.75,188991.15625,0.056640625,1.010009765625,0.0068359375,-1.8615721464157104,-0.4882812201976776,0.6103515028953552,86.66667175292969,232615.0,1.0
15:43:41.505801,157429.6875,177719.53125,176734.265625,182404.09375,160486.515625,174114.203125,691317.0625,188984.359375,0.055908203125,1.012451171875,0.0068359375,-1.8005369901657104,-0.4577636420726776,0.5187987685203552,86.66667175292969,232616.0,1.0
15:43:41.507869,157375.6875,177697.1875,176722.015625,182444.78125,160471.3125,174101.234375,690985.25,188988.203125,0.057373046875,1.013427734375,0.004150390625,-1.7395018339157104,-0.3967284858226776,0.5493163466453552,86.66667175292969,232617.0,1.0
15:43:41.507881,157404.03125,177698.703125,176725.0625,182437.453125,160469.53125,174098.734375,690789.8125,188983.03125,0.056396484375,1.013916015625,0.003173828125,-1.6784666776657104,-0.3662109076976776,0.6103515028953552,86.66667175292969,232618.0,1.0
15:43:41.516674,157467.25,177703.96875,176725.953125,182434.59375,160473.1875,174092.65625,691002.8125,188977.125,0.056640625,1.011474609375,0.0048828125,-1.7395018339157104,-0.3967284858226776,0.6103515028953552,86.66667175292969,232619.0,1.0
15:43:41.516701,157419.59375,177700.671875,176712.359375,182383.8125,160464.171875,174092.203125,691315.875,188965.046875,0.0576171875,1.013427734375,0.001220703125,-1.6784666776657104,-0.3662109076976776,0.5493163466453552,86.66667175292969,232620.0,1.0
15:43:41.518567,157361.296875,177683.765625,176702.96875,182423.40625,160451.015625,174087.46875,691053.9375,188975.328125,0.056396484375,1.01318359375,-0.000244140625,-1.7089842557907104,-0.2746581733226776,0.5493163466453552,86.66667175292969,232621.0,1.0
15:43:41.524830,157370.5,177682.34375,176703.328125,182417.421875,160449.40625,174087.015625,690785.5,188973.640625,0.05615234375,1.01220703125,0.000732421875,-1.8005369901657104,-0.03051757626235485,0.4882812201976776,86.66667175292969,232622.0,1.0
15:43:41.529267,157448.28125,177696.015625,176711.46875,182423.40625,160460.140625,174087.734375,690928.75,188974.0,0.055419921875,1.01220703125,0.0048828125,-1.7700194120407104,-0.03051757626235485,0.6408690810203552,86.66667175292969,232623.0,1.0
15:43:41.529294,157424.859375,177700.84375,176707.984375,182378.625,160461.65625,174092.65625,691283.4375,188967.46875,0.0576171875,1.012939453125,0.00341796875,-1.6479490995407104,-0.03051757626235485,0.6103515028953552,86.66667175292969,232624.0,1.0
15:43:41.531076,157360.671875,177679.65625,176697.96875,182410.1875,160448.703125,174084.875,691119.375,188976.3125,0.05615234375,1.011962890625,0.00537109375,-1.5563963651657104,0.03051757626235485,0.6103515028953552,86.66667175292969,232625.0,1.0
15:43:41.541091,157355.65625,177673.9375,176696.265625,182417.15625,160444.234375,174081.5625,690795.5625,188975.25,0.05615234375,1.01123046875,0.004150390625,-1.5869139432907104,0.0610351525247097,0.5798339247703552,86.66667175292969,232626.0,1.0
15:43:41.547905,157435.5,177689.5,176709.140625,182425.203125,160457.28125,174084.0625,690891.5,188975.328125,0.055419921875,1.01123046875,0.003662109375,-1.5869139432907104,0.1831054538488388,0.6103515028953552,86.66667175292969,232627.0,1.0
15:43:41.547935,157433.53125,177698.515625,176708.515625,182383.359375,160462.734375,174089.96875,691248.625,188967.375,0.054931640625,1.0126953125,0.00146484375,-1.5869139432907104,0.1831054538488388,0.5493163466453552,86.66667175292969,232628.0,1.0
15:43:41.552899,157369.078125,177684.3125,176701.359375,182400.609375,160453.875,174086.296875,691202.0625,188974.703125,0.05712890625,1.01318359375,0.005615234375,-1.4343260526657104,0.2441406100988388,0.6103515028953552,86.66667175292969,232629.0,1.0
15:43:41.552927,157350.296875,177675.1875,176698.328125,182418.765625,160447.265625,174081.921875,690837.3125,188976.859375,0.05712890625,1.0126953125,0.00537109375,-1.4343260526657104,0.2441406100988388,0.6103515028953552,86.66667175292969,232630.0,1.0
15:43:41.562347,157420.578125,177686.1875,176707.0,182419.03125,160454.78125,174082.8125,690856.75,188973.546875,0.05517578125,1.011962890625,0.003662109375,-1.4648436307907104,0.3356933295726776,0.6408690810203552,86.66667175292969,232631.0,1.0
15:43:41.569773,157436.9375,177695.296875,176705.5625,182387.296875,160460.140625,174087.734375,691198.0625,188963.890625,0.055908203125,1.010498046875,0.003662109375,-1.3427733182907104,0.4882812201976776,0.5187987685203552,86.66667175292969,232632.0,1.0
15:43:41.569788,157369.609375,177682.25,176696.09375,182384.609375,160451.375,174086.75,691264.9375,188965.953125,0.05615234375,1.01025390625,0.002685546875,-1.4038084745407104,0.5493163466453552,0.4882812201976776,86.66667175292969,232633.0,1.0
15:43:41.581765,157339.21875,177670.71875,176692.6875,182418.046875,160443.421875,174081.65625,690878.75,188973.28125,0.053955078125,1.0107421875,0.00341796875,-1.3732908964157104,0.5187987685203552,0.5187987685203552,86.66667175292969,232634.0,1.0
15:43:41.581792,157401.703125,177682.515625,176703.78125,182419.390625,160451.828125,174083.34375,690819.875,188971.484375,0.05224609375,1.01171875,0.00244140625,-1.2817381620407104,0.4577636420726776,0.5187987685203552,86.66667175292969,232635.0,1.0
15:43:41.584217,157442.390625,177694.859375,176708.875,182402.140625,160461.03125,174086.390625,691122.75,188966.390625,0.0537109375,1.01171875,0.0029296875,-1.3122557401657104,0.4882812201976776,0.4272460639476776,86.66667175292969,232636.0,1.0
15:43:41.584239,157383.375,177690.390625,176704.5,182383.53125,160457.015625,174090.0625,691303.25,188966.21875,0.052978515625,1.010986328125,0.00146484375,-1.2512205839157104,0.5187987685203552,0.4577636420726776,86.66667175292969,232637.0,1.0
15:43:41.586089,157337.875,177670.09375,176694.65625,182420.28125,160443.875,174080.40625,690928.5625,188971.40625,0.051025390625,1.010009765625,0.00537109375,-1.3122557401657104,0.4882812201976776,0.5187987685203552,86.66667175292969,232638.0,1.0
15:43:41.594844,157383.828125,177679.484375,176702.796875,182414.296875,160450.75,174082.375,690793.5625,188969.703125,0.05322265625,1.01025390625,0.005126953125,-1.1596678495407104,0.3967284858226776,0.4272460639476776,86.66667175292969,232639.0,1.0
15:43:41.601665,157442.484375,177693.515625,176710.75,182409.640625,160462.46875,174086.484375,691046.5,188969.796875,0.05126953125,1.01220703125,0.004638671875,-1.2207030057907104,0.4272460639476776,0.4272460639476776,86.66667175292969,232640.0,1.0
15:43:41.601685,157389.453125,177690.03125,176703.328125,182373.53125,160457.453125,174090.59375,691313.5625,188965.234375,0.051513671875,1.010986328125,0.0048828125,-1.0986326932907104,0.3967284858226776,0.3356933295726776,86.66667175292969,232641.0,1.0
15:43:41.611748,157342.96875,177675.90625,176699.84375,182421.09375,160449.953125,174086.484375,690982.875,188979.625,0.0517578125,1.011474609375,0.004150390625,-1.0986326932907104,0.3356933295726776,0.3662109076976776,86.66667175292969,232642.0,1.0
15:43:41.611777,157369.609375,177678.5,176703.875,182413.3125,160451.921875,174083.703125,690775.125,188974.703125,0.05078125,1.0126953125,0.00341796875,-1.0681151151657104,0.4272460639476776,0.3662109076976776,86.66667175292969,232643.0,1.0
15:43:41.614208,157440.78125,177690.390625,176711.640625,182414.109375,160463.625,174084.421875,690978.3125,188973.375,0.05419921875,1.01318359375,0.000732421875,-1.0681151151657104,0.3356933295726776,0.3356933295726776,86.66667175292969,232644.0,1.0
15:43:41.614232,157394.828125,177686.90625,176702.078125,182365.65625,160459.34375,174085.765625,691301.9375,188962.640625,0.052734375,1.01171875,0.003173828125,-1.0375975370407104,0.2441406100988388,0.4272460639476776,86.66667175292969,232645.0,1.0
15:43:41.616042,157332.859375,177663.125,176689.46875,182402.40625,160443.421875,174075.03125,691052.6875,188968.0,0.0546875,1.012451171875,0.0048828125,-1.0681151151657104,0.2746581733226776,0.4577636420726776,86.66667175292969,232646.0,1.0
15:43:41.624110,157344.3125,177662.046875,176690.1875,182399.359375,160440.65625,174071.90625,690783.4375,188964.421875,0.0537109375,1.012451171875,0.003662109375,-1.0681151151657104,0.1831054538488388,0.3662109076976776,86.66667175292969,232647.0,1.0
15:43:41.627667,157422.265625,177675.640625,176700.109375,182408.84375,160451.921875,174071.90625,690927.875,188965.5,0.05322265625,1.010986328125,0.00341796875,-1.1291502714157104,0.1220703050494194,0.3662109076976776,86.66667175292969,232648.0,1.0
15:43:41.633613,157397.328125,177678.3125,176696.1875,182362.890625,160452.90625,174074.5,691280.9375,188956.375,0.052978515625,1.009765625,0.0029296875,-1.0681151151657104,0.0915527269244194,0.4882812201976776,86.66667175292969,232649.0,1.0
15:43:41.637978,157335.375,177659.546875,176688.140625,182395.078125,160442.078125,174068.15625,691126.1875,188964.703125,0.05419921875,1.008544921875,0.002197265625,-1.1291502714157104,0.0610351525247097,0.5493163466453552,86.66667175292969,232650.0,1.0
15:43:41.638002,157328.484375,177652.921875,176686.34375,182399.984375,160436.71875,174063.59375,690800.5625,188962.46875,0.053466796875,1.010009765625,0.004638671875,-1.0681151151657104,0.1220703050494194,0.6103515028953552,86.66667175292969,232651.0,1.0
15:43:41.654919,157404.203125,177665.078125,176695.28125,182403.125,160447.265625,174064.046875,690887.4375,188959.328125,0.05322265625,1.01318359375,0.003662109375,-1.1291502714157104,0.1220703050494194,0.6408690810203552,86.66667175292969,232652.0,1.0
15:43:41.657954,157399.109375,177672.765625,176692.15625,182356.890625,160450.484375,174069.84375,691244.0625,188948.421875,0.05419921875,1.01318359375,-0.001220703125,-1.1596678495407104,0.1220703050494194,0.7019042372703552,86.66667175292969,232653.0,1.0
15:43:41.657985,157329.015625,177654.171875,176678.921875,182366.46875,160436.359375,174063.6875,691198.75,188950.484375,0.0546875,1.012939453125,-0.001220703125,-1.0681151151657104,-0.03051757626235485,0.7934569716453552,86.66667175292969,232654.0,1.0
15:43:41.660513,157312.125,177646.21875,176676.78125,182386.578125,160431.4375,174061.0,690836.125,188954.859375,0.054931640625,1.012451171875,0.0009765625,-1.0070799589157104,0.03051757626235485,0.8850097060203552,86.66667175292969,232655.0,1.0
15:43:41.660537,157388.828125,177662.3125,176692.25,182393.640625,160446.109375,174065.921875,690851.3125,188956.5625,0.055419921875,1.010986328125,0.000244140625,-1.0375975370407104,0.03051757626235485,0.7934569716453552,86.66667175292969,232656.0,1.0
15:43:41.666864,157408.5,177673.40625,176694.296875,182364.21875,160453.4375,174071.546875,691191.8125,188949.859375,0.056396484375,1.01123046875,0.00048828125,-1.0070799589157104,0.03051757626235485,0.8850097060203552,86.66667175292969,232657.0,1.0
15:43:41.666949,157342.34375,177663.203125,176684.828125,182359.671875,160443.25,174071.90625,691267.9375,188950.390625,0.05419921875,1.010498046875,0.001220703125,-1.0375975370407104,-0.03051757626235485,0.9765624403953552,86.66667175292969,232658.0,1.0
15:43:41.676253,157309.625,177649.796875,176679.015625,182390.59375,160433.3125,174067.53125,690881.375,188954.421875,0.053955078125,1.011962890625,0.0009765625,-1.0681151151657104,0.0,0.9765624403953552,86.66667175292969,232659.0,1.0
15:43:41.680501,157370.953125,177661.328125,176690.015625,182386.84375,160442.796875,174070.03125,690816.125,188951.640625,0.05419921875,1.01025390625,-0.000732421875,-1.0986326932907104,-0.0610351525247097,0.9460448622703552,86.66667175292969,232660.0,1.0
15:43:41.680540,157411.359375,177674.109375,176692.96875,182366.375,160453.875,174073.15625,691119.875,188946.09375,0.054443359375,1.0107421875,-0.0009765625,-1.1901854276657104,-0.03051757626235485,0.8850097060203552,86.66667175292969,232661.0,1.0
15:43:41.714240,157341.0,177659.625,176676.953125,182338.75,160440.65625,174068.421875,691298.1875,188938.953125,0.052978515625,1.011474609375,-0.000244140625,-1.1596678495407104,-0.03051757626235485,0.7934569716453552,86.66667175292969,232662.0,1.0
15:43:41.714257,157293.34375,177636.65625,176665.421875,182376.390625,160425.890625,174057.328125,690923.75,188946.546875,0.053466796875,1.01220703125,0.003173828125,-1.0986326932907104,-0.03051757626235485,0.7019042372703552,86.66667175292969,232663.0,1.0
15:43:41.731845,157341.890625,177646.578125,176676.15625,182375.140625,160434.65625,174060.734375,690795.6875,188948.953125,0.052734375,1.011962890625,-0.000732421875,-1.2512205839157104,0.0,0.5493163466453552,86.66667175292969,232664.0,1.0
15:43:41.731930,157401.53125,177661.59375,176683.03125,182370.84375,160445.125,174063.5,691058.125,188948.328125,0.05126953125,1.011962890625,-0.001220703125,-1.2512205839157104,-0.1220703050494194,0.5493163466453552,86.66667175292969,232665.0,1.0
15:43:41.734316,157347.265625,177659.0,176674.359375,182332.75,160437.34375,174065.109375,691315.875,188940.640625,0.052978515625,1.013427734375,0.001708984375,-1.2817381620407104,-0.2136230319738388,0.4272460639476776,86.66667175292969,232666.0,1.0
15:43:41.734395,157299.15625,177643.71875,176669.0,182377.1875,160426.609375,174059.03125,690984.625,188950.75,0.05322265625,1.013671875,0.0,-1.2817381620407104,-0.2746581733226776,0.3356933295726776,86.66667175292969,232667.0,1.0
15:43:41.736235,157333.125,177652.75,176678.65625,182374.59375,160433.5,174062.703125,690783.4375,188949.5,0.054931640625,1.015625,-0.002197265625,-1.3732908964157104,-0.2746581733226776,0.3356933295726776,86.66667175292969,232668.0,1.0
15:43:41.738656,157406.171875,177667.40625,176688.671875,182377.90625,160446.90625,174066.09375,690989.8125,188948.0625,0.05615234375,1.01611328125,-0.0009765625,-1.4648436307907104,-0.1525878757238388,0.1831054538488388,86.66667175292969,232669.0,1.0
15:43:41.741050,157359.234375,177663.390625,176678.203125,182328.1875,160439.84375,174065.921875,691314.4375,188934.296875,0.056640625,1.01513671875,0.0,-1.4648436307907104,-0.1220703050494194,0.0915527269244194,86.66667175292969,232670.0,1.0
15:43:41.743599,157298.53125,177643.0,176666.9375,182367.53125,160425.453125,174056.890625,691059.9375,188942.609375,0.058837890625,1.016357421875,0.001220703125,-1.6479490995407104,-0.03051757626235485,0.2136230319738388,86.66667175292969,232671.0,1.0
15:43:41.746411,157313.109375,177644.703125,176670.796875,182368.25,160425.265625,174056.890625,690787.75,188942.25,0.05908203125,1.01611328125,0.001220703125,-1.6479490995407104,0.0,0.3662109076976776,86.66667175292969,232672.0,1.0
15:43:41.749987,157395.0,177661.421875,176683.484375,182377.640625,160440.734375,174061.625,690922.75,188944.84375,0.0576171875,1.01416015625,0.000732421875,-1.8310545682907104,0.1220703050494194,0.2746581733226776,86.66667175292969,232673.0,1.0
15:43:41.751153,157374.265625,177668.484375,176680.359375,182332.9375,160443.59375,174069.140625,691282.8125,188937.34375,0.058349609375,1.015380859375,0.0009765625,-1.8005369901657104,0.0915527269244194,0.4577636420726776,86.66667175292969,232674.0,1.0
15:43:41.753618,157311.578125,177649.890625,176671.6875,182367.71875,160432.515625,174062.96875,691131.875,188948.25,0.0576171875,1.014404296875,-0.000732421875,-1.7089842557907104,0.1525878757238388,0.4577636420726776,86.66667175292969,232675.0,1.0
15:43:41.760491,157304.875,177641.21875,176670.96875,182377.1875,160427.234375,174057.0625,690803.375,188948.78125,0.05419921875,1.01318359375,-0.004150390625,-1.7700194120407104,0.1831054538488388,0.5187987685203552,86.66667175292969,232676.0,1.0
15:43:41.760523,157386.421875,177656.234375,176685.265625,182387.375,160440.203125,174060.46875,690890.1875,188950.84375,0.054931640625,1.01318359375,0.001708984375,-1.8615721464157104,0.1525878757238388,0.6103515028953552,86.66667175292969,232677.0,1.0
15:43:41.773619,157384.8125,177665.0,176685.09375,182347.0625,160444.859375,174065.203125,691247.3125,188943.15625,0.053466796875,1.01171875,0.0,-1.8005369901657104,0.1831054538488388,0.6408690810203552,86.66667175292969,232678.0,1.0
15:43:41.778082,157319.984375,177650.328125,176678.203125,182363.25,160435.90625,174061.171875,691203.25,188950.03125,0.052734375,1.01220703125,0.00146484375,-1.8310545682907104,0.1220703050494194,0.6103515028953552,86.66667175292969,232679.0,1.0
15:43:41.778145,157301.84375,177640.671875,176674.984375,182383.453125,160429.03125,174055.71875,690828.6875,188951.828125,0.0517578125,1.011962890625,0.002685546875,-1.8615721464157104,0.1220703050494194,0.5187987685203552,86.66667175292969,232680.0,1.0
15:43:41.778830,157379.0,177657.03125,176691.265625,182390.59375,160444.140625,174059.921875,690835.125,188954.421875,0.05126953125,1.010498046875,0.00244140625,-1.8615721464157104,0.1220703050494194,0.5187987685203552,86.66667175292969,232681.0,1.0
15:43:41.781114,157402.59375,177669.375,176694.84375,182365.390625,160454.515625,174065.828125,691177.5,188951.828125,0.0537109375,1.008056640625,0.0009765625,-1.8920897245407104,0.03051757626235485,0.5493163466453552,86.66667175292969,232682.0,1.0
15:43:41.783658,157333.84375,177653.109375,176683.03125,182362.171875,160441.546875,174060.640625,691252.875,188951.109375,0.052734375,1.010498046875,0.00244140625,-1.8920897245407104,0.03051757626235485,0.5187987685203552,86.66667175292969,232683.0,1.0
15:43:41.786127,157299.78125,177636.296875,176675.53125,182391.234375,160428.046875,174051.703125,690862.75,188954.0625,0.0517578125,1.010009765625,0.001953125,-1.8005369901657104,0.0915527269244194,0.5798339247703552,86.66667175292969,232684.0,1.0
15:43:41.788605,157362.71875,177648.28125,176686.609375,182391.40625,160435.828125,174053.40625,690808.9375,188955.84375,0.05224609375,1.01025390625,0.00390625,-1.8615721464157104,-0.0915527269244194,0.6103515028953552,86.66667175292969,232685.0,1.0
15:43:41.791105,157403.3125,177658.5625,176689.296875,182373.4375,160443.421875,174054.734375,691113.9375,188950.84375,0.052490234375,1.010009765625,0.004150390625,-1.8005369901657104,-0.1220703050494194,0.5798339247703552,86.66667175292969,232686.0,1.0
15:43:41.794148,157339.125,177649.078125,176679.734375,182349.828125,160434.390625,174054.46875,691291.0,188947.0,0.053955078125,1.0107421875,-0.000732421875,-1.8920897245407104,-0.1220703050494194,0.4577636420726776,86.66667175292969,232687.0,1.0
15:43:41.794172,157294.0625,177629.859375,176669.8125,182388.984375,160420.53125,174045.53125,690927.75,188954.421875,0.053466796875,1.010986328125,0.0009765625,-1.8005369901657104,-0.1220703050494194,0.4882812201976776,86.66667175292969,232688.0,1.0
15:43:41.796660,157342.703125,177639.96875,176680.09375,182386.3125,160429.109375,174049.734375,690784.625,188954.140625,0.05322265625,1.011962890625,0.0009765625,-1.8920897245407104,-0.1220703050494194,0.5493163466453552,86.66667175292969,232689.0,1.0
15:43:41.796683,157405.90625,177656.859375,176690.8125,182384.515625,160444.9375,174056.078125,691043.4375,188955.3125,0.0537109375,1.010986328125,0.002685546875,-1.8310545682907104,-0.1220703050494194,0.4882812201976776,86.66667175292969,232690.0,1.0
15:43:41.798552,157350.75,177651.5,176681.609375,182345.8125,160438.6875,174056.4375,691311.125,188948.328125,0.055419921875,1.01123046875,0.002197265625,-1.8310545682907104,-0.1220703050494194,0.5187987685203552,86.66667175292969,232691.0,1.0
15:43:41.809293,157299.875,177633.34375,176673.921875,182390.15625,160427.6875,174048.03125,690982.1875,188958.171875,0.054443359375,1.012451171875,0.0029296875,-1.8005369901657104,-0.0915527269244194,0.5493163466453552,86.66667175292969,232692.0,1.0
15:43:41.809313,157330.984375,177642.46875,176682.40625,182385.859375,160433.3125,174051.25,690774.1875,188956.828125,0.0546875,1.01318359375,0.004150390625,-1.8005369901657104,-0.03051757626235485,0.4577636420726776,86.66667175292969,232693.0,1.0
15:43:41.811068,157407.96875,177660.703125,176695.5625,182391.046875,160449.140625,174055.8125,690972.9375,188958.609375,0.053955078125,1.01171875,0.002685546875,-1.8615721464157104,-0.1220703050494194,0.4577636420726776,86.66667175292969,232694.0,1.0
15:43:41.819882,157366.921875,177658.921875,176688.140625,182342.671875,160444.671875,174056.078125,691297.75,188946.28125,0.053466796875,1.01220703125,0.00341796875,-1.8615721464157104,-0.2441406100988388,0.5798339247703552,86.66667175292969,232695.0,1.0
15:43:41.824145,157306.578125,177636.65625,176676.78125,182380.140625,160430.28125,174045.984375,691047.125,188951.90625,0.05517578125,1.01171875,0.0029296875,-1.8310545682907104,-0.03051757626235485,0.4882812201976776,86.66667175292969,232696.0,1.0
15:43:41.824165,157318.203125,177640.046875,176682.40625,182378.890625,160431.359375,174048.75,690777.8125,188949.5,0.056640625,1.01025390625,0.00048828125,-1.8615721464157104,-0.0915527269244194,0.4577636420726776,86.66667175292969,232697.0,1.0
15:43:41.830439,157399.921875,177656.234375,176694.578125,182385.859375,160444.5,174053.484375,690932.6875,188949.234375,0.05517578125,1.011474609375,0.000244140625,-1.7700194120407104,-0.1220703050494194,0.4577636420726776,86.66667175292969,232698.0,1.0
15:43:41.830461,157380.703125,177663.46875,176691.53125,182341.875,160446.90625,174061.453125,691285.375,188943.859375,0.054931640625,1.011962890625,0.005126953125,-1.7089842557907104,-0.0915527269244194,0.3967284858226776,86.66667175292969,232699.0,1.0
15:43:41.832314,157316.6875,177646.125,176683.578125,182374.5,160435.546875,174056.625,691133.3125,188954.234375,0.0556640625,1.009765625,0.00146484375,-1.7395018339157104,-0.1220703050494194,0.4272460639476776,86.66667175292969,232700.0,1.0
15:43:41.845595,157310.0625,177641.03125,176682.40625,182382.203125,160430.015625,174053.3125,690803.875,188953.25,0.055419921875,1.0087890625,0.0,-1.7395018339157104,-0.1831054538488388,0.4577636420726776,86.66667175292969,232701.0,1.0
15:43:41.847911,157390.984375,177656.953125,176695.109375,182389.890625,160444.234375,174055.1875,690884.0625,188954.328125,0.054443359375,1.0087890625,0.0048828125,-1.7395018339157104,-0.1220703050494194,0.3662109076976776,86.66667175292969,232702.0,1.0
15:43:41.847928,157392.671875,177667.59375,176695.640625,182350.8125,160451.828125,174061.359375,691240.9375,188947.703125,0.05615234375,1.010498046875,0.00537109375,-1.6784666776657104,0.0,0.3051757514476776,86.66667175292969,232703.0,1.0
15:43:41.849833,157326.15625,177651.765625,176686.171875,182365.921875,160439.75,174056.890625,691203.5,188953.078125,0.056396484375,1.012451171875,0.00439453125,-1.5869139432907104,0.0610351525247097,0.2746581733226776,86.66667175292969,232704.0,1.0
15:43:41.859982,157306.21875,177642.109375,176683.21875,182384.15625,160430.90625,174052.0625,690838.25,188954.59375,0.05419921875,1.01025390625,0.0029296875,-1.6174315214157104,0.0,0.2136230319738388,86.66667175292969,232705.0,1.0
15:43:41.869173,157383.375,177659.625,176698.953125,182389.890625,160446.109375,174058.40625,690846.0625,188956.46875,0.054931640625,1.01123046875,0.003662109375,-1.5563963651657104,0.0,0.3356933295726776,86.66667175292969,232706.0,1.0
15:43:41.869191,157403.234375,177669.640625,176699.578125,182360.109375,160451.734375,174062.4375,691186.25,188948.15625,0.05615234375,1.010009765625,0.00390625,-1.5258787870407104,0.0610351525247097,0.2746581733226776,86.66667175292969,232707.0,1.0
15:43:41.872185,157331.796875,177653.46875,176684.46875,182351.625,160437.078125,174057.421875,691261.625,188944.578125,0.0556640625,1.01025390625,0.00244140625,-1.5869139432907104,0.0915527269244194,0.2136230319738388,86.66667175292969,232708.0,1.0
15:43:41.872209,157291.828125,177633.609375,176670.25,182374.859375,160419.28125,174046.421875,690873.9375,188942.703125,0.055419921875,1.01171875,0.003173828125,-1.5563963651657104,0.1220703050494194,0.3662109076976776,86.66667175292969,232709.0,1.0
15:43:41.877341,157351.015625,177644.25,176677.5,182371.109375,160423.65625,174048.484375,690803.3125,188939.125,0.0546875,1.01220703125,0.00537109375,-1.6174315214157104,0.1220703050494194,0.2441406100988388,86.66667175292969,232710.0,1.0
15:43:41.885495,157393.84375,177656.6875,176680.625,182353.671875,160430.90625,174052.234375,691103.8125,188934.65625,0.052978515625,1.011962890625,0.004150390625,-1.5869139432907104,0.0915527269244194,0.2441406100988388,86.66667175292969,232711.0,1.0
15:43:41.885528,157329.734375,177645.328125,176669.890625,182328.1875,160420.4375,174050.890625,691292.75,188930.546875,0.054443359375,1.011474609375,0.00244140625,-1.6174315214157104,0.03051757626235485,0.2746581733226776,86.66667175292969,232712.0,1.0
15:43:41.887935,157283.515625,177624.046875,176658.890625,182364.671875,160405.78125,174040.4375,690924.125,188936.4375,0.052490234375,1.01220703125,0.00390625,-1.6174315214157104,0.0,0.2441406100988388,86.66667175292969,232713.0,1.0
15:43:41.887965,157330.890625,177633.875,176668.640625,182362.4375,160413.375,174043.921875,690790.375,188934.75,0.0537109375,1.01171875,0.006103515625,-1.6174315214157104,0.03051757626235485,0.2746581733226776,86.66667175292969,232714.0,1.0
15:43:41.914839,157395.09375,177649.796875,176680.0,182361.1875,160427.953125,174049.375,691054.1875,188934.296875,0.053466796875,1.0126953125,0.00390625,-1.4953612089157104,0.03051757626235485,0.3051757514476776,86.66667175292969,232715.0,1.0
15:43:41.914910,157344.125,177648.640625,176676.0625,182326.671875,160427.5,174053.671875,691322.4375,188928.9375,0.053466796875,1.01220703125,0.003662109375,-1.6174315214157104,0.0,0.3051757514476776,86.66667175292969,232716.0,1.0
15:43:41.914925,157292.625,177629.859375,176668.90625,182372.1875,160416.875,174045.984375,690993.125,188937.78125,0.052978515625,1.0126953125,0.0048828125,-1.6174315214157104,0.0610351525247097,0.2746581733226776,86.66667175292969,232717.0,1.0
15:43:41.929880,157324.546875,177639.421875,176676.953125,182369.140625,160422.140625,174050.453125,690783.5625,188937.515625,0.0537109375,1.01318359375,0.005615234375,-1.5869139432907104,0.03051757626235485,0.3356933295726776,86.66667175292969,232718.0,1.0
15:43:41.959160,157395.265625,177650.78125,176684.296875,182368.875,160433.046875,174049.109375,690975.75,188934.203125,0.0517578125,1.013671875,0.00537109375,-1.5869139432907104,0.0610351525247097,0.3662109076976776,86.66667175292969,232719.0,1.0
15:43:41.959192,157352.796875,177648.90625,176676.15625,182319.796875,160429.46875,174051.078125,691304.6875,188924.46875,0.05224609375,1.01220703125,0.00732421875,-1.5869139432907104,0.0,0.4882812201976776,86.66667175292969,232720.0,1.0
15:43:41.959198,157296.5625,177631.734375,176668.640625,182363.0625,160417.21875,174046.421875,691057.6875,188936.796875,0.05224609375,1.01220703125,0.006103515625,-1.5869139432907104,-0.0610351525247097,0.5798339247703552,86.66667175292969,232721.0,1.0
15:43:41.959204,157308.640625,177633.703125,176672.125,182364.671875,160417.21875,174046.875,690785.5,188936.53125,0.052978515625,1.01220703125,0.006591796875,-1.4648436307907104,0.0610351525247097,0.4577636420726776,86.66667175292969,232722.0,1.0
15:43:41.962264,157385.25,177645.140625,176680.625,182371.5625,160428.671875,174046.0625,690932.9375,188936.265625,0.051513671875,1.013671875,0.00341796875,-1.5258787870407104,-0.1220703050494194,0.5493163466453552,86.66667175292969,232723.0,1.0
