Timestamp,Fz,FC3,FCz,FC4,Cz,C3,C4
15:36:01.612142,164638.3125,187714.703125,179978.40625,197569.84375,188821.5625,187282.0625,690751.5625,198795.4375,0.047607421875,1.016357421875,-0.044189453125,-1.7395018339157104,-0.0915527269244194,0.6408690810203552,93.33334350585938,117548.0,1.0
15:36:01.619095,164596.90625,187715.5,179969.453125,197528.28125,188819.765625,187284.296875,691330.625,198788.640625,0.04638671875,1.015625,-0.041259765625,-1.9226073026657104,-0.2136230319738388,0.7324218153953552,93.33334350585938,117549.0,1.0
15:36:01.619115,164483.015625,187691.625,179950.421875,197537.390625,188799.296875,187277.5,690945.625,198789.1875,0.04833984375,1.015380859375,-0.0419921875,-2.044677495956421,-0.1525878757238388,0.7629393935203552,93.33334350585938,117550.0,1.0
15:36:01.625266,164497.578125,187692.53125,179954.53125,197531.671875,188796.34375,187275.703125,690437.8125,198786.328125,0.0478515625,1.015380859375,-0.04296875,-2.014159917831421,-0.2441406100988388,0.7019042372703552,93.33334350585938,117551.0,1.0
15:36:01.625278,164622.484375,187709.78125,179970.71875,197558.5,188812.171875,187274.546875,690651.5625,198790.796875,0.047607421875,1.01416015625,-0.045166015625,-2.014159917831421,-0.3051757514476776,0.7934569716453552,93.33334350585938,117552.0,1.0
15:36:01.631081,164613.1875,187716.03125,179967.5,197523.359375,188819.046875,187279.46875,691271.4375,198786.5,0.0498046875,1.013671875,-0.045166015625,-2.105712652206421,-0.3051757514476776,0.7629393935203552,93.33334350585938,117553.0,1.0
15:36:01.635266,164494.453125,187691.1875,179947.28125,197525.5,188801.96875,187274.546875,691067.75,198788.015625,0.048828125,1.012939453125,-0.04345703125,-2.136230230331421,-0.3967284858226776,0.7324218153953552,93.33334350585938,117554.0,1.0
15:36:01.635284,164478.71875,187685.46875,179946.578125,197525.6875,188795.71875,187275.171875,690470.375,198787.578125,0.046630859375,1.01220703125,-0.0419921875,-2.105712652206421,-0.4272460639476776,0.7019042372703552,93.33334350585938,117555.0,1.0
15:36:01.644721,164601.03125,187702.09375,179961.859375,197552.5,188807.703125,187277.234375,690564.75,198790.25,0.04736328125,1.013671875,-0.04248046875,-2.136230230331421,-0.3662109076976776,0.6713866591453552,93.33334350585938,117556.0,1.0
15:36:01.651503,164620.96875,187712.015625,179960.25,197525.59375,188811.984375,187281.4375,691179.5625,198784.0,0.047607421875,1.0126953125,-0.0439453125,-2.197265386581421,-0.3356933295726776,0.7934569716453552,93.33334350585938,117557.0,1.0
15:36:01.651518,164508.3125,187694.21875,179944.34375,197515.765625,188798.125,187280.8125,691185.375,198782.828125,0.0458984375,1.01171875,-0.04296875,-2.166747808456421,-0.3662109076976776,0.7934569716453552,93.33334350585938,117558.0,1.0
15:36:01.653431,164470.21875,187687.25,179944.96875,197523.453125,188792.5,187281.96875,690539.3125,198785.0625,0.049072265625,1.0126953125,-0.04150390625,-2.227782964706421,-0.5187987685203552,0.8239745497703552,93.33334350585938,117559.0,1.0
15:36:01.660926,164583.765625,187704.234375,179964.28125,197546.78125,188807.078125,187284.296875,690502.9375,198789.625,0.05029296875,1.01318359375,-0.040771484375,-2.288818120956421,-0.5187987685203552,0.7934569716453552,93.33334350585938,117560.0,1.0
15:36:01.705401,164636.703125,187717.015625,179967.671875,197537.75,188816.640625,187286.96875,691068.9375,198786.5,0.048583984375,1.0107421875,-0.04248046875,-2.166747808456421,-0.4577636420726776,0.7934569716453552,93.33334350585938,117561.0,1.0
15:36:01.705424,164531.375,187701.828125,179950.6875,197515.765625,188803.046875,187284.921875,691267.3125,198782.03125,0.049560546875,1.0126953125,-0.042236328125,-2.075195074081421,-0.5187987685203552,0.8544921278953552,93.33334350585938,117562.0,1.0
15:36:01.707769,164469.78125,187691.453125,179947.46875,197531.671875,188794.5625,187285.71875,690605.5625,198786.671875,0.0498046875,1.01025390625,-0.044189453125,-2.075195074081421,-0.6408690810203552,0.7324218153953552,93.33334350585938,117563.0,1.0
15:36:01.707790,164568.578125,187709.875,179967.5,197545.890625,188808.859375,187290.015625,690456.0,198789.1875,0.0498046875,1.009521484375,-0.041015625,-2.075195074081421,-0.5798339247703552,0.7324218153953552,93.33334350585938,117564.0,1.0
15:36:01.709633,164650.015625,187724.796875,179976.171875,197550.265625,188822.1875,187289.75,690953.9375,198787.125,0.049072265625,1.00927734375,-0.044189453125,-2.014159917831421,-0.5187987685203552,0.6713866591453552,93.33334350585938,117565.0,1.0
15:36:01.712248,164560.25,187713.09375,179961.859375,197516.921875,188813.78125,187287.328125,691323.6875,198779.890625,0.049072265625,1.00830078125,-0.044189453125,-1.9531248807907104,-0.6103515028953552,0.7324218153953552,93.33334350585938,117566.0,1.0
15:36:01.714636,164475.859375,187696.453125,179954.703125,197536.046875,188802.953125,187285.90625,690715.6875,198786.046875,0.049560546875,1.010009765625,-0.0439453125,-2.044677495956421,-0.6713866591453552,0.8544921278953552,93.33334350585938,117567.0,1.0
15:36:01.717385,164545.59375,187706.5625,179967.765625,197539.0,188810.015625,187287.15625,690429.125,198785.34375,0.05029296875,1.009033203125,-0.043212890625,-1.9836424589157104,-0.6713866591453552,0.8239745497703552,93.33334350585938,117568.0,1.0
15:36:01.719718,164652.078125,187725.15625,179981.265625,197557.25,188825.578125,187288.9375,690837.625,198789.09375,0.048828125,1.009765625,-0.044189453125,-2.044677495956421,-0.6713866591453552,0.8544921278953552,93.33334350585938,117569.0,1.0
15:36:01.722157,164583.953125,187722.296875,179970.078125,197517.453125,188820.9375,187290.90625,691342.0625,198783.109375,0.050048828125,1.01220703125,-0.045166015625,-2.044677495956421,-0.7019042372703552,0.7324218153953552,93.33334350585938,117570.0,1.0
15:36:01.724642,164477.546875,187697.984375,179954.96875,197530.6875,188800.90625,187283.75,690834.0,198785.15625,0.05029296875,1.01318359375,-0.044921875,-2.075195074081421,-0.5187987685203552,0.7629393935203552,93.33334350585938,117571.0,1.0
15:36:01.727144,164523.234375,187704.859375,179964.90625,197528.90625,188803.40625,187285.09375,690424.0625,198786.046875,0.0478515625,1.01220703125,-0.04638671875,-2.075195074081421,-0.7019042372703552,0.8239745497703552,93.33334350585938,117572.0,1.0
15:36:01.732160,164645.8125,187724.359375,179982.15625,197558.859375,188820.65625,187286.34375,690724.375,198793.203125,0.048828125,1.011962890625,-0.042724609375,-2.075195074081421,-0.7019042372703552,0.8850097060203552,93.33334350585938,117573.0,1.0
15:36:01.734634,164604.875,187722.5625,179972.59375,197518.984375,188818.25,187285.640625,691312.5,198785.78125,0.049072265625,1.013671875,-0.0439453125,-1.9836424589157104,-0.7019042372703552,1.0070799589157104,93.33334350585938,117574.0,1.0
15:36:01.737301,164488.640625,187696.453125,179954.4375,197528.90625,188797.421875,187278.21875,690951.3125,198786.859375,0.048828125,1.0126953125,-0.044921875,-2.075195074081421,-0.6408690810203552,0.8544921278953552,93.33334350585938,117575.0,1.0
15:36:01.740312,164498.65625,187693.953125,179957.296875,197525.59375,188793.578125,187276.609375,690429.5,198784.796875,0.048095703125,1.0126953125,-0.046875,-2.166747808456421,-0.5798339247703552,0.7629393935203552,93.33334350585938,117576.0,1.0
15:36:01.740338,164623.46875,187708.078125,179972.140625,197558.671875,188806.53125,187273.46875,690618.5,198789.359375,0.048583984375,1.013671875,-0.046142578125,-2.258300542831421,-0.6103515028953552,0.8544921278953552,93.33334350585938,117577.0,1.0
15:36:01.742171,164617.828125,187714.25,179969.640625,197529.265625,188809.84375,187277.140625,691241.125,198785.96875,0.04638671875,1.013671875,-0.044677734375,-2.166747808456421,-0.7019042372703552,0.8544921278953552,93.33334350585938,117578.0,1.0
15:36:01.744625,164500.890625,187692.171875,179952.03125,197534.265625,188793.84375,187273.65625,691064.125,198787.9375,0.046875,1.013427734375,-0.044921875,-2.105712652206421,-0.6713866591453552,0.7934569716453552,93.33334350585938,117579.0,1.0
15:36:01.747187,164483.1875,187686.625,179951.578125,197532.484375,188788.75,187273.109375,690463.1875,198785.703125,0.047119140625,1.012939453125,-0.04296875,-2.197265386581421,-0.7324218153953552,0.9155272841453552,93.33334350585938,117580.0,1.0
15:36:01.750302,164610.59375,187708.96875,179973.84375,197561.0,188809.03125,187279.28125,690558.1875,198792.9375,0.04931640625,1.01171875,-0.04345703125,-2.136230230331421,-0.7324218153953552,0.8850097060203552,93.33334350585938,117581.0,1.0
15:36:01.750330,164635.09375,187719.25,179973.75,197535.703125,188816.1875,187283.390625,691162.375,198787.21875,0.049560546875,1.01123046875,-0.043212890625,-2.197265386581421,-0.7019042372703552,0.9765624403953552,93.33334350585938,117582.0,1.0
15:36:01.752111,164520.5625,187700.125,179955.515625,197522.109375,188801.34375,187281.15625,691182.9375,198784.4375,0.051025390625,1.010986328125,-0.04296875,-2.258300542831421,-0.6408690810203552,0.9155272841453552,93.33334350585938,117583.0,1.0
15:36:01.757193,164473.984375,187689.3125,179949.609375,197524.34375,188790.703125,187278.921875,690534.1875,198782.828125,0.049560546875,1.01220703125,-0.03955078125,-2.197265386581421,-0.6713866591453552,0.9460448622703552,93.33334350585938,117584.0,1.0
15:36:01.767769,164583.328125,187706.03125,179966.0625,197541.953125,188802.953125,187281.078125,690497.1875,198785.875,0.050537109375,1.0146484375,-0.04248046875,-2.227782964706421,-0.6713866591453552,0.8850097060203552,93.33334350585938,117585.0,1.0
15:36:01.767802,164638.578125,187719.53125,179970.890625,197534.71875,188813.234375,187283.578125,691061.25,198784.796875,0.050537109375,1.012939453125,-0.041748046875,-2.227782964706421,-0.6408690810203552,0.8850097060203552,93.33334350585938,117586.0,1.0
15:36:01.795357,164539.0625,187708.703125,179958.46875,197516.828125,188803.046875,187285.984375,691278.9375,198785.515625,0.05029296875,1.013671875,-0.04150390625,-2.258300542831421,-0.5798339247703552,0.9155272841453552,93.33334350585938,117587.0,1.0
15:36:01.795376,164473.703125,187695.65625,179954.625,197534.890625,188792.671875,187285.0,690627.0,198791.0625,0.05029296875,1.011962890625,-0.039794921875,-2.258300542831421,-0.5798339247703552,1.0070799589157104,93.33334350585938,117588.0,1.0
15:36:01.797148,164570.71875,187713.359375,179973.65625,197553.671875,188806.453125,187290.109375,690455.8125,198795.171875,0.051513671875,1.01220703125,-0.0419921875,-2.288818120956421,-0.5493163466453552,1.0375975370407104,93.33334350585938,117589.0,1.0
15:36:01.799658,164656.8125,187731.0625,179983.9375,197564.03125,188821.015625,187293.59375,690944.6875,198796.96875,0.05078125,1.0126953125,-0.044921875,-2.349853277206421,-0.5493163466453552,0.8850097060203552,93.33334350585938,117590.0,1.0
15:36:01.802157,164571.703125,187722.46875,179972.953125,197532.484375,188815.03125,187293.59375,691334.5625,198793.46875,0.050537109375,1.011962890625,-0.04248046875,-2.441406011581421,-0.6103515028953552,0.9155272841453552,93.33334350585938,117591.0,1.0
15:36:01.804654,164485.15625,187705.40625,179965.4375,197550.1875,188803.140625,187290.46875,690740.75,198798.03125,0.05029296875,1.011962890625,-0.039306640625,-2.471923589706421,-0.5493163466453552,0.9460448622703552,93.33334350585938,117592.0,1.0
15:36:01.807130,164552.125,187714.25,179977.59375,197551.34375,188810.015625,187290.46875,690435.5625,198796.96875,0.05126953125,1.01318359375,-0.038330078125,-2.502441167831421,-0.5798339247703552,1.0070799589157104,93.33334350585938,117593.0,1.0
15:36:01.809638,164655.75,187727.125,179986.359375,197566.28125,188820.65625,187286.078125,690821.4375,198796.6875,0.05078125,1.015869140625,-0.0380859375,-2.471923589706421,-0.4882812201976776,0.9765624403953552,93.33334350585938,117594.0,1.0
15:36:01.812145,164592.359375,187723.453125,179975.8125,197526.3125,188816.28125,187285.984375,691332.1875,198791.0625,0.051025390625,1.016357421875,-0.04150390625,-2.563476324081421,-0.4272460639476776,0.9460448622703552,93.33334350585938,117595.0,1.0
15:36:01.815214,164482.5625,187696.375,179956.9375,197539.8125,188796.703125,187276.0625,690827.625,198794.1875,0.0498046875,1.0146484375,-0.04296875,-2.593993902206421,-0.4272460639476776,0.8239745497703552,93.33334350585938,117596.0,1.0
15:36:01.817905,164518.6875,187700.578125,179963.734375,197536.765625,188799.734375,187276.609375,690408.25,198793.65625,0.050537109375,1.0166015625,-0.03759765625,-2.563476324081421,-0.4272460639476776,0.9155272841453552,93.33334350585938,117597.0,1.0
15:36:01.817987,164639.03125,187716.9375,179979.03125,197563.5,188815.296875,187277.140625,690718.125,198798.296875,0.050537109375,1.0166015625,-0.038818359375,-2.716064214706421,-0.4272460639476776,0.8544921278953552,93.33334350585938,117598.0,1.0
15:36:01.819787,164605.765625,187720.328125,179971.25,197524.703125,188816.453125,187282.421875,691299.1875,198791.421875,0.051025390625,1.0166015625,-0.040283203125,-2.716064214706421,-0.4272460639476776,0.9155272841453552,93.33334350585938,117599.0,1.0
15:36:01.822745,164485.953125,187693.234375,179950.859375,197531.140625,188796.171875,187276.15625,690958.875,198789.265625,0.052001953125,1.015869140625,-0.038818359375,-2.777099370956421,-0.3662109076976776,0.8850097060203552,93.33334350585938,117600.0,1.0
15:36:01.822758,164494.1875,187692.703125,179955.6875,197528.90625,188795.359375,187279.46875,690436.9375,198787.84375,0.051513671875,1.016357421875,-0.041015625,-2.807616949081421,-0.3356933295726776,0.8850097060203552,93.33334350585938,117601.0,1.0
15:36:01.832161,164624.546875,187713.890625,179975.625,197562.875,188814.671875,187285.1875,690635.9375,198796.421875,0.05078125,1.015625,-0.04052734375,-2.899169683456421,-0.3662109076976776,1.0070799589157104,93.33334350585938,117602.0,1.0
15:36:01.835314,164628.734375,187728.46875,179980.375,197538.296875,188826.5625,187296.265625,691262.875,198798.75,0.049560546875,1.01318359375,-0.04248046875,-2.929687261581421,-0.3356933295726776,0.8850097060203552,93.33334350585938,117603.0,1.0
15:36:01.835330,164514.03125,187707.984375,179966.0625,197540.53125,188812.703125,187293.859375,691107.8125,198801.15625,0.050537109375,1.0146484375,-0.0400390625,-2.960204839706421,-0.3051757514476776,1.0681151151657104,93.33334350585938,117604.0,1.0
15:36:01.842731,164493.921875,187703.078125,179968.03125,197544.1875,188810.203125,187293.59375,690492.625,198802.0625,0.04931640625,1.01318359375,-0.041748046875,-2.990722417831421,-0.3662109076976776,0.9460448622703552,93.33334350585938,117605.0,1.0
15:36:01.842744,164618.90625,187724.078125,179989.046875,197573.96875,188827.28125,187297.96875,690560.125,198808.046875,0.049072265625,1.01171875,-0.040283203125,-3.021239995956421,-0.3051757514476776,0.8544921278953552,93.33334350585938,117606.0,1.0
15:36:01.852793,164647.0625,187732.9375,179987.78125,197550.265625,188832.015625,187298.328125,691172.125,198801.609375,0.04931640625,1.0107421875,-0.03857421875,-2.960204839706421,-0.3356933295726776,0.8850097060203552,93.33334350585938,117607.0,1.0
15:36:01.852819,164531.46875,187712.109375,179968.46875,197534.359375,188815.828125,187292.515625,691216.625,198797.59375,0.051025390625,1.01220703125,-0.03857421875,-2.990722417831421,-0.3662109076976776,0.9765624403953552,93.33334350585938,117608.0,1.0
15:36:01.857182,164479.875,187696.640625,179961.234375,197536.5,188802.875,187287.15625,690550.5625,198794.28125,0.0498046875,1.011962890625,-0.0400390625,-3.021239995956421,-0.5187987685203552,1.0375975370407104,93.33334350585938,117609.0,1.0
15:36:01.865319,164589.40625,187714.078125,179979.203125,197554.828125,188816.1875,187290.1875,690505.0625,198797.859375,0.05029296875,1.011962890625,-0.0419921875,-3.051757574081421,-0.4577636420726776,1.0070799589157104,93.33334350585938,117610.0,1.0
15:36:01.865334,164646.625,187726.40625,179981.703125,197547.3125,188823.609375,187291.265625,691066.375,198794.640625,0.05029296875,1.012939453125,-0.0390625,-3.112792730331421,-0.3662109076976776,0.9765624403953552,93.33334350585938,117611.0,1.0
15:36:01.871481,164543.09375,187709.6875,179964.0,197524.609375,188808.6875,187287.78125,691306.9375,198791.78125,0.050537109375,1.01318359375,-0.0380859375,-3.143310308456421,-0.3967284858226776,0.9460448622703552,93.33334350585938,117612.0,1.0
15:36:01.871498,164471.03125,187693.234375,179955.609375,197538.5625,188795.453125,187284.375,690651.9375,198794.90625,0.0517578125,1.01611328125,-0.036376953125,-3.143310308456421,-0.4882812201976776,0.8850097060203552,93.33334350585938,117613.0,1.0
15:36:01.881524,164558.375,187703.96875,179967.21875,197545.53125,188801.34375,187283.3125,690465.0,198791.859375,0.053466796875,1.0126953125,-0.036865234375,-3.021239995956421,-0.4882812201976776,0.9155272841453552,93.33334350585938,117614.0,1.0
15:36:01.881539,164644.203125,187720.0625,179976.515625,197554.921875,188815.203125,187284.203125,690944.75,198791.78125,0.052490234375,1.009765625,-0.0390625,-3.204345464706421,-0.6103515028953552,0.9765624403953552,93.33334350585938,117615.0,1.0
15:36:01.887825,164558.015625,187708.96875,179959.71875,197519.25,188805.8125,187282.421875,691349.125,198785.421875,0.049072265625,1.01025390625,-0.036865234375,-3.265380620956421,-0.4882812201976776,1.0070799589157104,93.33334350585938,117616.0,1.0
15:36:01.887842,164464.40625,187687.421875,179945.953125,197532.75,188789.640625,187275.625,690744.8125,198788.28125,0.0517578125,1.00927734375,-0.035888671875,-3.295898199081421,-0.5798339247703552,1.0375975370407104,93.33334350585938,117617.0,1.0
15:36:01.894148,164530.484375,187699.3125,179959.71875,197534.53125,188797.859375,187277.9375,690433.625,198788.734375,0.050537109375,1.011474609375,-0.035888671875,-3.356933355331421,-0.4882812201976776,0.9155272841453552,93.33334350585938,117618.0,1.0
15:36:01.894176,164641.078125,187717.921875,179974.28125,197555.71875,188813.59375,187279.109375,690831.5625,198792.9375,0.05126953125,1.010498046875,-0.037109375,-3.387450933456421,-0.5798339247703552,0.9765624403953552,93.33334350585938,117619.0,1.0
15:36:01.900338,164579.296875,187711.203125,179961.234375,197512.0,188806.71875,187276.515625,691354.125,198786.234375,0.052490234375,1.01318359375,-0.0361328125,-3.326415777206421,-0.5798339247703552,1.0070799589157104,93.33334350585938,117620.0,1.0
15:36:01.900349,164471.390625,187685.28125,179944.25,197526.671875,188788.296875,187268.375,690865.4375,198789.71875,0.052001953125,1.014892578125,-0.036865234375,-3.265380620956421,-0.5798339247703552,0.9765624403953552,93.33334350585938,117621.0,1.0
15:36:01.902122,164506.25,187688.40625,179951.046875,197524.875,188788.46875,187269.984375,690429.125,198788.734375,0.051025390625,1.01171875,-0.03662109375,-3.234863042831421,-0.5798339247703552,1.0375975370407104,93.33334350585938,117622.0,1.0
15:36:01.912154,164626.15625,187703.078125,179964.453125,197551.25,188800.359375,187269.890625,690716.4375,198791.421875,0.05224609375,1.012451171875,-0.037109375,-3.112792730331421,-0.5798339247703552,1.0070799589157104,93.33334350585938,117623.0,1.0
15:36:01.916564,164595.03125,187706.734375,179958.734375,197513.34375,188800.640625,187274.09375,691320.625,198784.171875,0.054443359375,1.00927734375,-0.036865234375,-3.082275152206421,-0.6103515028953552,0.9765624403953552,93.33334350585938,117624.0,1.0
15:36:01.916580,164482.375,187686.09375,179945.3125,197526.671875,188785.078125,187270.875,691000.5625,198786.40625,0.056396484375,1.010498046875,-0.0390625,-2.868652105331421,-0.5493163466453552,0.8544921278953552,93.33334350585938,117625.0,1.0
15:36:01.925957,164490.96875,187688.234375,179951.9375,197526.40625,188786.953125,187273.734375,690459.25,198786.328125,0.055419921875,1.008544921875,-0.037841796875,-2.807616949081421,-0.5798339247703552,0.7934569716453552,93.33334350585938,117626.0,1.0
15:36:01.932761,164620.78125,187709.328125,179973.75,197558.671875,188807.515625,187279.015625,690627.0,198794.28125,0.053955078125,1.0078125,-0.03759765625,-2.807616949081421,-0.5187987685203552,0.7934569716453552,93.33334350585938,117627.0,1.0
15:36:01.932789,164622.75,187718.8125,179973.21875,197528.453125,188815.75,187284.65625,691253.5625,198789.8125,0.053955078125,1.009765625,-0.039794921875,-2.685546636581421,-0.4882812201976776,0.7629393935203552,93.33334350585938,117628.0,1.0
15:36:01.940321,164504.203125,187694.9375,179953.453125,197525.328125,188799.109375,187277.3125,691118.9375,198788.203125,0.05126953125,1.009033203125,-0.038818359375,-2.716064214706421,-0.5493163466453552,0.6408690810203552,93.33334350585938,117629.0,1.0
15:36:01.940371,164478.8125,187685.734375,179951.046875,197525.859375,188792.046875,187274.8125,690494.25,198787.75,0.05126953125,1.00927734375,-0.0390625,-2.685546636581421,-0.5798339247703552,0.4272460639476776,93.33334350585938,117630.0,1.0
15:36:01.942882,164594.3125,187698.15625,179963.203125,197546.34375,188801.625,187272.84375,690548.5,198787.84375,0.049560546875,1.0107421875,-0.03466796875,-2.685546636581421,-0.6103515028953552,0.3051757514476776,93.33334350585938,117631.0,1.0
15:36:01.942914,164623.203125,187705.3125,179961.328125,197523.09375,188805.546875,187272.578125,691152.5625,198781.9375,0.0498046875,1.011962890625,-0.03759765625,-2.593993902206421,-0.7019042372703552,0.0915527269244194,93.33334350585938,117632.0,1.0
15:36:01.954696,164511.625,187688.140625,179945.3125,197512.09375,188792.40625,187269.890625,691224.0,198781.9375,0.048095703125,1.011962890625,-0.036376953125,-2.624511480331421,-0.7324218153953552,-0.03051757626235485,93.33334350585938,117633.0,1.0
15:36:01.959678,164463.078125,187676.78125,179942.640625,197522.28125,188782.84375,187267.75,690564.125,198785.703125,0.04833984375,1.010498046875,-0.034423828125,-2.563476324081421,-0.8239745497703552,-0.1220703050494194,93.33334350585938,117634.0,1.0
15:36:01.959701,164570.8125,187691.984375,179960.25,197538.828125,188794.828125,187268.734375,690487.8125,198788.015625,0.048095703125,1.0107421875,-0.035888671875,-2.655029058456421,-0.9460448622703552,-0.2136230319738388,93.33334350585938,117635.0,1.0
15:36:01.959710,164633.84375,187704.234375,179964.984375,197532.125,188804.390625,187267.3125,691037.75,198781.765625,0.051025390625,1.01220703125,-0.03466796875,-2.593993902206421,-1.0375975370407104,-0.2441406100988388,93.33334350585938,117636.0,1.0
15:36:01.972170,164533.96875,187692.609375,179949.796875,197504.3125,188793.484375,187265.875,691306.25,198774.515625,0.05078125,1.01416015625,-0.034423828125,-2.655029058456421,-1.0375975370407104,-0.2136230319738388,93.33334350585938,117637.0,1.0
15:36:01.975928,164458.421875,187675.0,179940.578125,197515.578125,188779.984375,187261.671875,690645.625,198774.78125,0.052001953125,1.01171875,-0.036865234375,-2.624511480331421,-1.0375975370407104,-0.2746581733226776,93.33334350585938,117638.0,1.0
15:36:01.982811,164547.203125,187688.328125,179958.734375,197526.484375,188791.875,187264.796875,690448.8125,198776.578125,0.053466796875,1.0126953125,-0.03564453125,-2.624511480331421,-1.0986326932907104,-0.2746581733226776,93.33334350585938,117639.0,1.0
15:36:01.982829,164639.921875,187704.6875,179969.90625,197539.0,188806.171875,187266.40625,690927.4375,198778.625,0.05126953125,1.013916015625,-0.037109375,-2.685546636581421,-1.0375975370407104,-0.3051757514476776,93.33334350585938,117640.0,1.0
15:36:01.995950,164555.78125,187695.390625,179954.890625,197502.078125,188798.84375,187267.03125,691353.6875,198774.515625,0.050537109375,1.015625,-0.032470703125,-2.655029058456421,-1.0070799589157104,-0.2441406100988388,93.33334350585938,117641.0,1.0
15:36:02.000343,164452.25,187667.046875,179934.953125,197510.9375,188777.296875,187256.125,690764.0625,198774.34375,0.05078125,1.01318359375,-0.036376953125,-2.746581792831421,-1.0681151151657104,-0.3051757514476776,93.33334350585938,117642.0,1.0
15:36:02.000369,164511.796875,187674.015625,179944.34375,197511.734375,188782.390625,187255.59375,690431.8125,198774.78125,0.0498046875,1.012939453125,-0.034423828125,-2.807616949081421,-1.0681151151657104,-0.2136230319738388,93.33334350585938,117643.0,1.0
15:36:02.007145,164624.1875,187691.265625,179957.921875,197535.421875,188797.5,187256.75,690808.75,198779.265625,0.050048828125,1.013427734375,-0.03271484375,-2.838134527206421,-1.2207030057907104,-0.03051757626235485,93.33334350585938,117644.0,1.0
15:36:02.007165,164567.3125,187691.453125,179949.078125,197495.90625,188796.609375,187262.390625,691351.0,198773.890625,0.048583984375,1.014404296875,-0.030029296875,-2.838134527206421,-1.1596678495407104,-0.03051757626235485,93.33334350585938,117645.0,1.0
15:36:02.007169,164463.34375,187672.671875,179937.71875,197516.109375,188784.1875,187263.1875,690890.6875,198781.9375,0.04638671875,1.013916015625,-0.03271484375,-2.899169683456421,-1.0986326932907104,0.0,93.33334350585938,117646.0,1.0
15:36:02.009643,164501.25,187680.71875,179950.859375,197518.53125,188791.6875,187270.609375,690431.5,198785.703125,0.0458984375,1.012939453125,-0.03125,-3.021239995956421,-1.1291502714157104,0.03051757626235485,93.33334350585938,117647.0,1.0
15:36:02.012752,164629.28125,187702.53125,179972.953125,197552.6875,188813.0625,187276.953125,690689.5625,198794.453125,0.047607421875,1.0126953125,-0.032470703125,-3.021239995956421,-1.1901854276657104,0.1525878757238388,93.33334350585938,117648.0,1.0
15:36:02.012784,164599.140625,187702.453125,179964.546875,197509.671875,188811.71875,187277.140625,691293.0625,198784.625,0.046630859375,1.012451171875,-0.033935546875,-2.960204839706421,-1.3427733182907104,0.1831054538488388,93.33334350585938,117649.0,1.0
15:36:02.022213,164487.125,187682.515625,179950.859375,197521.75,188796.25,187274.8125,690995.5625,198788.203125,0.04736328125,1.010986328125,-0.0341796875,-3.051757574081421,-1.5258787870407104,0.3051757514476776,93.33334350585938,117650.0,1.0
15:36:02.026517,164496.6875,187687.25,179960.875,197527.375,188798.578125,187280.265625,690446.875,198792.765625,0.04638671875,1.010498046875,-0.0361328125,-3.051757574081421,-1.4648436307907104,0.3051757514476776,93.33334350585938,117651.0,1.0
15:36:02.026529,164626.6875,187708.53125,179982.421875,197560.46875,188816.28125,187283.046875,690612.25,198801.34375,0.048095703125,1.010986328125,-0.0302734375,-3.051757574081421,-1.4953612089157104,0.3356933295726776,93.33334350585938,117652.0,1.0
15:36:02.028524,164626.78125,187714.515625,179978.125,197528.453125,188818.421875,187283.125,691236.6875,198794.09375,0.0478515625,1.011474609375,-0.031982421875,-3.112792730331421,-1.4953612089157104,0.3967284858226776,93.33334350585938,117653.0,1.0
15:36:02.067773,164510.546875,187693.953125,179960.4375,197527.203125,188800.640625,187279.734375,691136.0,198794.09375,0.048828125,1.01123046875,-0.032470703125,-3.112792730331421,-1.5258787870407104,0.4272460639476776,93.33334350585938,117654.0,1.0
15:36:02.067802,164484.796875,187688.59375,179960.875,197530.328125,188795.359375,187279.375,690510.0,198795.171875,0.05029296875,1.01220703125,-0.0322265625,-3.051757574081421,-1.5258787870407104,0.5798339247703552,93.33334350585938,117655.0,1.0
15:36:02.079639,164603.96875,187704.859375,179978.484375,197553.046875,188808.40625,187278.5625,690538.25,198797.59375,0.0498046875,1.01220703125,-0.03173828125,-3.082275152206421,-1.6174315214157104,0.6103515028953552,93.33334350585938,117656.0,1.0
15:36:02.079683,164640.1875,187714.609375,179978.40625,197532.5625,188814.3125,187280.0,691138.5625,198792.046875,0.049560546875,1.012451171875,-0.033203125,-3.082275152206421,-1.6784666776657104,0.6713866591453552,93.33334350585938,117657.0,1.0
15:36:02.079699,164530.578125,187696.640625,179961.765625,197519.515625,188799.46875,187275.4375,691237.0,198788.734375,0.050048828125,1.011962890625,-0.03173828125,-3.143310308456421,-1.6174315214157104,0.6713866591453552,93.33334350585938,117658.0,1.0
15:36:02.082171,164477.109375,187683.9375,179956.5,197528.984375,188787.140625,187270.609375,690574.4375,198787.75,0.049560546875,1.011474609375,-0.030029296875,-3.051757574081421,-1.5869139432907104,0.6103515028953552,93.33334350585938,117659.0,1.0
15:36:02.084746,164583.328125,187700.578125,179974.46875,197545.703125,188797.0625,187270.796875,690473.75,198787.75,0.049072265625,1.011474609375,-0.029541015625,-2.990722417831421,-1.6784666776657104,0.7324218153953552,93.33334350585938,117660.0,1.0
15:36:02.089670,164651.984375,187715.953125,179981.4375,197544.09375,188806.453125,187271.6875,691019.3125,198786.5,0.050537109375,1.011962890625,-0.031005859375,-2.990722417831421,-1.7089842557907104,0.7324218153953552,93.33334350585938,117661.0,1.0
15:36:02.092120,164555.078125,187705.3125,179966.953125,197518.4375,188798.046875,187271.78125,691313.1875,198784.359375,0.0498046875,1.011474609375,-0.03125,-2.960204839706421,-1.6479490995407104,0.6713866591453552,93.33334350585938,117662.0,1.0
15:36:02.094845,164478.71875,187690.46875,179958.640625,197533.546875,188787.578125,187269.984375,690666.5,198788.203125,0.048583984375,1.011962890625,-0.031005859375,-2.899169683456421,-1.6174315214157104,0.8239745497703552,93.33334350585938,117663.0,1.0
15:36:02.097223,164563.65625,187704.953125,179974.828125,197541.515625,188800.015625,187274.375,690447.9375,198789.453125,0.051025390625,1.010986328125,-0.031494140625,-2.960204839706421,-1.5563963651657104,0.8239745497703552,93.33334350585938,117664.0,1.0
15:36:02.099707,164657.625,187723.28125,179986.8125,197551.4375,188817.171875,187279.109375,690912.1875,198791.328125,0.0517578125,1.0107421875,-0.029052734375,-2.899169683456421,-1.4953612089157104,0.7324218153953552,93.33334350585938,117665.0,1.0
15:36:02.102193,164577.515625,187717.015625,179973.9375,197511.921875,188813.515625,187282.953125,691357.25,198786.953125,0.05322265625,1.010498046875,-0.032470703125,-2.777099370956421,-1.4343260526657104,0.7324218153953552,93.33334350585938,117666.0,1.0
15:36:02.104671,164478.265625,187692.875,179958.1875,197524.34375,188796.34375,187277.671875,690779.0,198788.640625,0.053955078125,1.009765625,-0.031005859375,-2.746581792831421,-1.4953612089157104,0.7934569716453552,93.33334350585938,117667.0,1.0
15:36:02.107346,164533.515625,187699.765625,179968.296875,197523.984375,188800.546875,187280.171875,690424.9375,198786.859375,0.053466796875,1.009765625,-0.030517578125,-2.655029058456421,-1.5563963651657104,0.9155272841453552,93.33334350585938,117668.0,1.0
15:36:02.109673,164644.125,187714.25,179979.109375,197546.875,188812.25,187279.640625,690787.9375,198789.265625,0.056396484375,1.01025390625,-0.030029296875,-2.777099370956421,-1.4038084745407104,0.9460448622703552,93.33334350585938,117669.0,1.0
15:36:02.112772,164586.90625,187708.53125,179965.609375,197505.484375,188806.625,187278.21875,691348.9375,198781.046875,0.0556640625,1.00927734375,-0.034423828125,-2.624511480331421,-1.3732908964157104,0.9460448622703552,93.33334350585938,117670.0,1.0
15:36:02.112860,164478.71875,187685.46875,179951.484375,197522.828125,188791.78125,187274.640625,690900.5625,198786.40625,0.053466796875,1.010009765625,-0.033935546875,-2.563476324081421,-1.3427733182907104,1.0375975370407104,93.33334350585938,117671.0,1.0
15:36:02.114710,164511.34375,187692.53125,179963.921875,197525.59375,188798.671875,187279.546875,690435.0625,198790.703125,0.05615234375,1.0087890625,-0.033203125,-2.502441167831421,-1.1901854276657104,1.0375975370407104,93.33334350585938,117672.0,1.0
15:36:02.117193,164638.046875,187712.546875,179984.296875,197557.515625,188818.25,187281.703125,690693.4375,198799.015625,0.0556640625,1.01025390625,-0.0322265625,-2.441406011581421,-1.1901854276657104,1.0986326932907104,93.33334350585938,117673.0,1.0
15:36:02.120314,164615.15625,187716.3125,179979.921875,197520.671875,188822.1875,187285.546875,691308.8125,198793.921875,0.05517578125,1.010986328125,-0.034423828125,-2.410888433456421,-1.0070799589157104,1.0986326932907104,93.33334350585938,117674.0,1.0
15:36:02.120366,164501.25,187695.296875,179965.609375,197531.578125,188807.515625,187282.953125,691030.5,198798.390625,0.053955078125,1.01025390625,-0.034423828125,-2.288818120956421,-0.9460448622703552,1.0986326932907104,93.33334350585938,117675.0,1.0
15:36:02.122266,164501.0625,187696.09375,179970.796875,197530.0625,188806.171875,187285.90625,690461.75,198798.03125,0.052001953125,1.011474609375,-0.031982421875,-2.319335699081421,-0.9460448622703552,1.0986326932907104,93.33334350585938,117676.0,1.0
15:36:02.132915,164627.578125,187717.015625,179990.296875,197558.671875,188822.265625,187288.578125,690598.0625,198802.328125,0.05517578125,1.010009765625,-0.03271484375,-2.197265386581421,-0.7324218153953552,1.1901854276657104,93.33334350585938,117677.0,1.0
15:36:02.133008,164635.625,187725.96875,179988.328125,197529.890625,188827.1875,187290.8125,691230.125,198795.890625,0.055419921875,1.010498046875,-0.03369140625,-2.136230230331421,-0.6408690810203552,1.0375975370407104,93.33334350585938,117678.0,1.0
15:36:02.135337,164522.796875,187705.75,179972.671875,197529.171875,188811.28125,187286.34375,691147.1875,198796.78125,0.052978515625,1.009765625,-0.034912109375,-2.044677495956421,-0.7629393935203552,1.0070799589157104,93.33334350585938,117679.0,1.0
15:36:02.135367,164492.03125,187697.265625,179970.890625,197533.8125,188803.5,187282.953125,690501.625,198797.40625,0.0537109375,1.01123046875,-0.03564453125,-1.9226073026657104,-0.6103515028953552,1.0070799589157104,93.33334350585938,117680.0,1.0
15:36:02.146053,164611.9375,187714.609375,179988.953125,197559.296875,188815.75,187283.125,690523.125,198801.703125,0.05419921875,1.009521484375,-0.03076171875,-1.8310545682907104,-0.6103515028953552,0.8239745497703552,93.33334350585938,117681.0,1.0
15:36:02.150353,164647.34375,187721.671875,179987.078125,197537.84375,188818.0625,187279.203125,691121.1875,198793.75,0.05419921875,1.009765625,-0.03466796875,-1.7700194120407104,-0.6103515028953552,0.8544921278953552,93.33334350585938,117682.0,1.0
15:36:02.150388,164536.828125,187704.328125,179970.796875,197522.015625,188804.390625,187275.703125,691237.375,198792.3125,0.0517578125,1.0107421875,-0.032470703125,-1.7089842557907104,-0.5798339247703552,0.9155272841453552,93.33334350585938,117683.0,1.0
15:36:02.152404,164481.9375,187691.09375,179965.4375,197531.40625,188792.59375,187272.84375,690566.375,198794.015625,0.051513671875,1.0126953125,-0.032470703125,-1.6784666776657104,-0.4577636420726776,1.0070799589157104,93.33334350585938,117684.0,1.0
15:36:02.165351,164585.5625,187706.296875,179982.25,197546.875,188804.65625,187275.625,690473.9375,198795.796875,0.050537109375,1.01171875,-0.0341796875,-1.7089842557907104,-0.4577636420726776,1.0070799589157104,93.33334350585938,117685.0,1.0
15:36:02.165382,164657.078125,187722.828125,179988.6875,197547.234375,188817.171875,187280.171875,691020.125,198796.78125,0.05126953125,1.01123046875,-0.0341796875,-1.6479490995407104,-0.3967284858226776,0.9765624403953552,93.33334350585938,117686.0,1.0
15:36:02.167821,164560.875,187712.015625,179973.390625,197519.6875,188806.625,187280.625,691318.6875,198793.75,0.05126953125,1.009521484375,-0.031494140625,-1.5258787870407104,-0.4272460639476776,0.9155272841453552,93.33334350585938,117687.0,1.0
15:36:02.167840,164479.25,187690.5625,179961.59375,197535.25,188790.265625,187274.546875,690673.75,198796.0625,0.052001953125,1.009521484375,-0.032958984375,-1.5563963651657104,-0.5798339247703552,0.8544921278953552,93.33334350585938,117688.0,1.0
15:36:02.169727,164558.921875,187701.734375,179976.34375,197543.03125,188800.90625,187277.140625,690430.0625,198798.03125,0.053466796875,1.010986328125,-0.033447265625,-1.5563963651657104,-0.5187987685203552,1.0070799589157104,93.33334350585938,117689.0,1.0
15:36:02.175950,164659.59375,187725.15625,179992.265625,197558.3125,188819.859375,187284.203125,690879.375,198803.125,0.05224609375,1.011474609375,-0.033203125,-1.4648436307907104,-0.5187987685203552,0.8850097060203552,93.33334350585938,117690.0,1.0
15:36:02.182188,164586.28125,187721.9375,179981.703125,197521.125,188816.640625,187288.9375,691340.75,198798.296875,0.05126953125,1.0107421875,-0.032958984375,-1.4038084745407104,-0.4577636420726776,0.9460448622703552,93.33334350585938,117691.0,1.0
15:36:02.189221,164490.25,187700.84375,179969.640625,197537.84375,188803.765625,187286.171875,690770.25,198802.140625,0.051025390625,1.01025390625,-0.034912109375,-1.3427733182907104,-0.4882812201976776,1.0681151151657104,93.33334350585938,117692.0,1.0
15:36:02.189309,164548.984375,187713.0,179985.28125,197542.484375,188813.59375,187292.34375,690407.625,198804.828125,0.05224609375,1.010986328125,-0.03564453125,-1.2817381620407104,-0.4272460639476776,1.0986326932907104,93.33334350585938,117693.0,1.0
15:36:02.199012,164664.953125,187732.578125,180002.265625,197567.96875,188831.921875,187294.75,690765.3125,198810.46875,0.0537109375,1.011474609375,-0.03369140625,-1.2207030057907104,-0.3662109076976776,1.1291502714157104,93.33334350585938,117694.0,1.0
15:36:02.199044,164608.796875,187725.515625,179989.21875,197522.46875,188827.546875,187291.625,691328.5,198800.265625,0.053955078125,1.009521484375,-0.033203125,-1.1596678495407104,-0.4272460639476776,1.2207030057907104,93.33334350585938,117695.0,1.0
15:36:02.200936,164500.078125,187702.453125,179976.4375,197539.546875,188812.796875,187286.078125,690901.9375,198805.359375,0.05517578125,1.010986328125,-0.0341796875,-1.1291502714157104,-0.4882812201976776,1.3122557401657104,93.33334350585938,117696.0,1.0
15:36:02.204649,164524.40625,187703.875,179983.671875,197537.484375,188812.96875,187285.09375,690420.5625,198804.734375,0.052490234375,1.00927734375,-0.033447265625,-1.0986326932907104,-0.4272460639476776,1.3427733182907104,93.33334350585938,117697.0,1.0
15:36:02.215320,164645.640625,187717.734375,179996.546875,197564.390625,188824.78125,187281.15625,690670.8125,198807.421875,0.053466796875,1.007568359375,-0.0361328125,-1.0070799589157104,-0.3356933295726776,1.4038084745407104,93.33334350585938,117698.0,1.0
15:36:02.215352,164624.453125,187721.046875,179989.390625,197528.453125,188824.6875,187282.5,691277.25,198800.71875,0.052734375,1.00732421875,-0.037109375,-0.9460448622703552,-0.2746581733226776,1.4953612089157104,93.33334350585938,117699.0,1.0
15:36:02.217761,164510.015625,187701.375,179975.0,197538.734375,188809.3125,187280.625,691019.25,198803.578125,0.053466796875,1.009033203125,-0.034912109375,-0.9155272841453552,-0.3967284858226776,1.5563963651657104,93.33334350585938,117700.0,1.0
15:36:02.217791,164504.734375,187700.296875,179977.5,197535.609375,188805.109375,187281.25,690440.75,198799.828125,0.052978515625,1.009765625,-0.036865234375,-0.9155272841453552,-0.4577636420726776,1.3732908964157104,93.33334350585938,117701.0,1.0
15:36:02.224700,164629.015625,187718.0,179993.328125,197562.25,188816.90625,187280.171875,690568.6875,198802.140625,0.0517578125,1.0107421875,-0.03466796875,-0.7629393935203552,-0.3967284858226776,1.3732908964157104,93.33334350585938,117702.0,1.0
15:36:02.228400,164641.4375,187727.296875,179991.8125,197533.28125,188822.265625,187282.0625,691193.375,198797.234375,0.05029296875,1.011962890625,-0.03466796875,-0.9155272841453552,-0.4882812201976776,1.3122557401657104,93.33334350585938,117703.0,1.0
15:36:02.238549,164526.8125,187707.8125,179976.609375,197532.296875,188808.59375,187277.046875,691132.875,198799.828125,0.051025390625,1.011962890625,-0.0341796875,-0.9765624403953552,-0.4577636420726776,1.1901854276657104,93.33334350585938,117704.0,1.0
15:36:02.242768,164486.234375,187692.796875,179969.28125,197532.03125,188795.71875,187269.0,690481.4375,198797.5,0.04931640625,1.012939453125,-0.032470703125,-1.0375975370407104,-0.5798339247703552,1.2512205839157104,93.33334350585938,117705.0,1.0
15:36:02.242793,164601.296875,187708.078125,179985.828125,197553.75,188808.859375,187269.984375,690495.9375,198801.875,0.048095703125,1.01513671875,-0.0341796875,-1.0375975370407104,-0.5798339247703552,1.0681151151657104,93.33334350585938,117706.0,1.0
15:36:02.252948,164648.59375,187722.75,179990.828125,197540.53125,188820.296875,187276.953125,691090.875,198800.359375,0.050537109375,1.01513671875,-0.035400390625,-1.0986326932907104,-0.6408690810203552,1.0681151151657104,93.33334350585938,117707.0,1.0
15:36:02.252982,164537.453125,187703.96875,179970.796875,197517.09375,188803.5,187274.09375,691225.0625,198793.109375,0.0517578125,1.01513671875,-0.035400390625,-1.2512205839157104,-0.7324218153953552,0.9765624403953552,93.33334350585938,117708.0,1.0
15:36:02.255441,164472.453125,187684.75,179958.46875,197521.296875,188786.78125,187269.09375,690559.9375,198789.8125,0.052490234375,1.0166015625,-0.03515625,-1.2207030057907104,-0.8239745497703552,0.9155272841453552,93.33334350585938,117709.0,1.0
15:36:02.255521,164572.140625,187699.5,179972.953125,197535.421875,188795.890625,187272.140625,690441.125,198790.703125,0.05322265625,1.017578125,-0.034912109375,-1.3427733182907104,-0.7934569716453552,0.9460448622703552,93.33334350585938,117710.0,1.0
15:36:02.262274,164649.484375,187718.28125,179982.15625,197538.921875,188807.34375,187277.3125,690973.4375,198790.875,0.052978515625,1.0185546875,-0.03515625,-1.5563963651657104,-0.9155272841453552,0.9460448622703552,93.33334350585938,117711.0,1.0
15:36:02.270663,164554.265625,187706.296875,179966.953125,197510.21875,188795.53125,187274.453125,691292.9375,198785.609375,0.052978515625,1.01806640625,-0.036865234375,-1.7089842557907104,-0.7629393935203552,0.9155272841453552,93.33334350585938,117712.0,1.0
15:36:02.270862,164474.328125,187690.015625,179958.828125,197528.28125,188783.828125,187271.5,690655.6875,198790.703125,0.05224609375,1.017333984375,-0.03759765625,-1.7700194120407104,-0.7629393935203552,0.8544921278953552,93.33334350585938,117713.0,1.0
15:36:02.272827,164556.046875,187704.234375,179975.265625,197536.859375,188795.1875,187275.265625,690412.875,198792.671875,0.0537109375,1.0166015625,-0.033935546875,-1.8005369901657104,-0.8239745497703552,0.8544921278953552,93.33334350585938,117714.0,1.0
15:36:02.272888,164656.90625,187722.46875,179987.34375,197553.484375,188810.5625,187278.03125,690863.6875,198795.359375,0.05322265625,1.017822265625,-0.034912109375,-1.9836424589157104,-0.8544921278953552,0.9765624403953552,93.33334350585938,117715.0,1.0
15:36:02.282269,164581.890625,187715.5,179975.1875,197513.796875,188805.640625,187278.125,691325.375,198788.015625,0.05517578125,1.016357421875,-0.035400390625,-2.014159917831421,-0.8239745497703552,1.0986326932907104,93.33334350585938,117716.0,1.0
15:36:02.294018,164480.140625,187691.984375,179959.984375,197527.375,188788.390625,187270.53125,690775.4375,198788.46875,0.05419921875,1.013671875,-0.0361328125,-2.044677495956421,-0.8544921278953552,1.0681151151657104,93.33334350585938,117717.0,1.0
15:36:02.294050,164533.796875,187699.59375,179970.71875,197524.875,188792.765625,187271.78125,690398.3125,198784.4375,0.055419921875,1.013427734375,-0.034423828125,-2.136230230331421,-0.7934569716453552,1.0070799589157104,93.33334350585938,117718.0,1.0
15:36:02.299010,164653.0625,187718.453125,179987.515625,197550.984375,188808.140625,187272.84375,690748.0,198788.734375,0.05224609375,1.013916015625,-0.032958984375,-2.197265386581421,-0.7019042372703552,1.1291502714157104,93.33334350585938,117719.0,1.0
15:36:02.299035,164601.109375,187715.328125,179973.9375,197506.640625,188802.78125,187270.796875,691310.625,198779.078125,0.0517578125,1.012451171875,-0.031005859375,-2.166747808456421,-0.8544921278953552,1.0986326932907104,93.33334350585938,117720.0,1.0
15:36:02.306736,164486.765625,187689.65625,179955.0625,197517.90625,188783.296875,187264.359375,690904.5,198781.578125,0.051513671875,1.012939453125,-0.034423828125,-2.258300542831421,-0.8850097060203552,1.0375975370407104,93.33334350585938,117721.0,1.0
15:36:02.306813,164505.359375,187689.21875,179959.53125,197515.40625,188782.21875,187263.734375,690405.8125,198780.421875,0.053466796875,1.012451171875,-0.03369140625,-2.197265386581421,-0.7934569716453552,1.0375975370407104,93.33334350585938,117722.0,1.0
15:36:02.315478,164631.515625,187708.265625,179977.859375,197547.953125,188799.921875,187266.046875,690637.4375,198787.125,0.052001953125,1.01318359375,-0.033447265625,-2.319335699081421,-0.7934569716453552,1.0986326932907104,93.33334350585938,117723.0,1.0
15:36:02.315560,164614.53125,187713.625,179973.296875,197513.53125,188803.578125,187269.984375,691257.0625,198783.1875,0.053466796875,1.01123046875,-0.03466796875,-2.410888433456421,-0.8544921278953552,1.0375975370407104,93.33334350585938,117724.0,1.0
15:36:02.325312,164497.3125,187689.3125,179956.234375,197518.890625,188786.421875,187264.359375,691024.125,198785.0625,0.052978515625,1.010986328125,-0.0361328125,-2.471923589706421,-0.8544921278953552,0.8850097060203552,93.33334350585938,117725.0,1.0
15:36:02.325366,164491.0625,187687.515625,179962.578125,197521.296875,188786.234375,187266.046875,690439.0625,198787.21875,0.05322265625,1.011962890625,-0.034912109375,-2.532958745956421,-0.9155272841453552,0.9155272841453552,93.33334350585938,117726.0,1.0
15:36:02.331605,164617.390625,187706.296875,179982.875,197551.25,188804.390625,187268.828125,690561.5625,198793.5625,0.05322265625,1.011474609375,-0.0302734375,-2.441406011581421,-0.8850097060203552,0.9460448622703552,93.33334350585938,117727.0,1.0
15:36:02.331652,164628.46875,187711.203125,179975.890625,197520.234375,188806.984375,187268.5625,691175.625,198784.71875,0.05078125,1.01025390625,-0.033203125,-2.410888433456421,-0.8850097060203552,0.7324218153953552,93.33334350585938,117728.0,1.0
15:36:02.345307,164510.453125,187686.53125,179953.546875,197509.5,188787.140625,187262.5625,691137.6875,198779.96875,0.05224609375,1.0107421875,-0.031494140625,-2.441406011581421,-0.7934569716453552,0.8239745497703552,93.33334350585938,117729.0,1.0
15:36:02.345338,164467.90625,187672.140625,179945.234375,197510.578125,188772.46875,187257.734375,690493.0625,198777.015625,0.052490234375,1.0126953125,-0.03076171875,-2.441406011581421,-0.9460448622703552,0.7934569716453552,93.33334350585938,117730.0,1.0
15:36:02.347785,164580.640625,187686.625,179959.359375,197530.328125,188783.203125,187256.75,690483.25,198779.703125,0.052978515625,1.0107421875,-0.033447265625,-2.441406011581421,-0.8850097060203552,0.7629393935203552,93.33334350585938,117731.0,1.0
15:36:02.347830,164626.234375,187699.59375,179963.015625,197515.9375,188792.3125,187259.96875,691068.25,198776.390625,0.054443359375,1.01171875,-0.033203125,-2.502441167831421,-0.9460448622703552,0.7934569716453552,93.33334350585938,117732.0,1.0
15:36:02.358983,164517.25,187682.953125,179947.015625,197495.375,188778.109375,187258.28125,691231.0625,198772.375,0.052978515625,1.0107421875,-0.031982421875,-2.410888433456421,-1.0070799589157104,0.6408690810203552,93.33334350585938,117733.0,1.0
15:36:02.359012,164452.078125,187664.453125,179934.234375,197498.953125,188759.421875,187250.765625,690570.5,198767.015625,0.05126953125,1.01123046875,-0.031494140625,-2.471923589706421,-0.9765624403953552,0.4882812201976776,93.33334350585938,117734.0,1.0
15:36:02.361495,164551.671875,187681.171875,179950.421875,197510.578125,188769.25,187254.515625,690442.8125,198765.84375,0.051513671875,1.00927734375,-0.0283203125,-2.380370855331421,-1.0986326932907104,0.4577636420726776,93.33334350585938,117735.0,1.0
15:36:02.361524,164631.328125,187699.59375,179960.96875,197515.578125,188784.0,187260.328125,690969.25,198764.78125,0.049560546875,1.01025390625,-0.02880859375,-2.380370855331421,-1.1291502714157104,0.3967284858226776,93.33334350585938,117736.0,1.0
15:36:02.367204,164542.015625,187691.984375,179951.046875,197487.78125,188778.8125,187262.75,691305.1875,198761.46875,0.05224609375,1.010009765625,-0.03076171875,-2.380370855331421,-1.0375975370407104,0.4577636420726776,93.33334350585938,117737.0,1.0
15:36:02.373957,164459.5,187673.296875,179943.265625,197505.03125,188767.734375,187258.453125,690682.875,198765.765625,0.0517578125,1.008056640625,-0.03125,-2.410888433456421,-1.1291502714157104,0.4882812201976776,93.33334350585938,117738.0,1.0
15:36:02.373976,164538.890625,187690.296875,179962.046875,197513.875,188781.953125,187263.734375,690417.625,198769.953125,0.051513671875,1.00927734375,-0.030517578125,-2.258300542831421,-1.2817381620407104,0.4272460639476776,93.33334350585938,117739.0,1.0
15:36:02.384015,164644.484375,187710.046875,179976.25,197530.25,188796.796875,187265.34375,690852.9375,198773.0,0.050537109375,1.00732421875,-0.0322265625,-2.136230230331421,-1.2512205839157104,0.2746581733226776,93.33334350585938,117740.0,1.0
15:36:02.384056,164572.421875,187702.625,179962.9375,197488.9375,188791.25,187264.796875,691333.25,198766.296875,0.0498046875,1.008056640625,-0.031494140625,-2.136230230331421,-1.1901854276657104,0.2746581733226776,93.33334350585938,117741.0,1.0
15:36:02.390737,164467.546875,187677.328125,179947.28125,197503.421875,188773.546875,187257.5625,690795.8125,198768.984375,0.051513671875,1.0068359375,-0.03125,-2.014159917831421,-1.1901854276657104,0.2746581733226776,93.33334350585938,117742.0,1.0
15:36:02.390764,164514.484375,187684.828125,179957.84375,197504.3125,188776.21875,187258.359375,690404.9375,198768.984375,0.052001953125,1.010009765625,-0.03125,-2.014159917831421,-1.1901854276657104,0.3051757514476776,93.33334350585938,117743.0,1.0
15:36:02.398954,164637.328125,187705.84375,179976.515625,197536.046875,188794.015625,187261.40625,690748.0,198776.484375,0.052490234375,1.011474609375,-0.029296875,-1.9226073026657104,-1.2512205839157104,0.3356933295726776,93.33334350585938,117744.0,1.0
15:36:02.398977,164590.390625,187704.234375,179964.90625,197494.125,188790.796875,187261.21875,691313.8125,198766.390625,0.053955078125,1.013427734375,-0.029541015625,-1.8310545682907104,-1.2512205839157104,0.2136230319738388,93.33334350585938,117745.0,1.0
15:36:02.423579,164477.375,187680.453125,179947.734375,197505.03125,188772.828125,187254.34375,690919.5625,198767.28125,0.0546875,1.01171875,-0.026611328125,-1.8005369901657104,-1.2207030057907104,0.2441406100988388,93.33334350585938,117746.0,1.0
15:36:02.451028,164494.625,187681.265625,179954.625,197501.0,188774.4375,187254.25,690414.5,198765.9375,0.05615234375,1.011962890625,-0.02783203125,-1.9226073026657104,-1.2512205839157104,0.2136230319738388,93.33334350585938,117747.0,1.0
15:36:02.472787,164618.109375,187696.90625,179969.640625,197528.1875,188789.375,187252.90625,690634.8125,198770.40625,0.054443359375,1.01220703125,-0.0283203125,-1.8310545682907104,-1.2207030057907104,0.0610351525247097,93.33334350585938,117748.0,1.0
15:36:02.472805,164601.734375,187699.3125,179961.859375,197489.921875,188790.171875,187253.0,691249.75,198763.4375,0.054931640625,1.01220703125,-0.029296875,-1.7700194120407104,-1.2512205839157104,-0.0610351525247097,93.33334350585938,117749.0,1.0
15:36:02.474705,164485.875,187676.078125,179945.765625,197497.96875,188774.609375,187248.0,691041.5625,198767.453125,0.055419921875,1.01123046875,-0.029296875,-1.7395018339157104,-1.1596678495407104,-0.2746581733226776,93.33334350585938,117750.0,1.0
15:36:02.477143,164475.59375,187672.5,179948.8125,197501.90625,188772.65625,187248.4375,690449.875,198770.859375,0.056640625,1.01171875,-0.026611328125,-1.6479490995407104,-1.1901854276657104,-0.2136230319738388,93.33334350585938,117751.0,1.0
15:36:02.479749,164599.859375,187688.859375,179966.15625,197532.75,188785.4375,187248.0,690541.0,198778.453125,0.057373046875,1.012939453125,-0.026123046875,-1.6174315214157104,-1.1596678495407104,-0.2746581733226776,93.33334350585938,117752.0,1.0
15:36:02.482275,164620.25,187697.703125,179966.0625,197510.390625,188791.34375,187249.875,691158.8125,198775.40625,0.05859375,1.01171875,-0.0263671875,-1.5869139432907104,-1.1291502714157104,-0.4577636420726776,93.33334350585938,117753.0,1.0
15:36:02.484674,164504.46875,187675.0,179945.5,197502.96875,188772.65625,187244.328125,691148.0,198774.34375,0.05859375,1.01220703125,-0.028564453125,-1.5258787870407104,-1.0986326932907104,-0.6103515028953552,93.33334350585938,117754.0,1.0
15:36:02.487378,164460.828125,187661.953125,179938.53125,197506.453125,188759.6875,187241.015625,690496.375,198773.265625,0.0595703125,1.01123046875,-0.029296875,-1.5563963651657104,-0.9155272841453552,-0.7934569716453552,93.33334350585938,117755.0,1.0
15:36:02.490333,164574.65625,187679.203125,179955.953125,197527.828125,188771.671875,187244.78125,690477.25,198776.21875,0.057861328125,1.01171875,-0.0322265625,-1.4343260526657104,-0.7934569716453552,-1.0070799589157104,93.33334350585938,117756.0,1.0
15:36:02.490352,164626.6875,187693.953125,179960.078125,197516.828125,188780.875,187249.328125,691057.25,198771.5625,0.05810546875,1.00927734375,-0.031005859375,-1.4648436307907104,-0.7934569716453552,-1.0375975370407104,93.33334350585938,117757.0,1.0
15:36:02.495981,164521.625,187679.828125,179945.046875,197495.28125,188769.078125,187250.3125,691243.0,198767.453125,0.057373046875,1.009765625,-0.02978515625,-1.4038084745407104,-0.6713866591453552,-1.0986326932907104,93.33334350585938,117758.0,1.0
15:36:02.502526,164456.453125,187666.5,179939.234375,197504.765625,188758.078125,187249.875,690585.875,198768.984375,0.05859375,1.00830078125,-0.03125,-1.4038084745407104,-0.6713866591453552,-1.1291502714157104,93.33334350585938,117759.0,1.0
15:36:02.504905,164551.671875,187681.265625,179954.625,197516.46875,188770.59375,187253.796875,690438.625,198771.65625,0.056884765625,1.008544921875,-0.0322265625,-1.3732908964157104,-0.4577636420726776,-1.3427733182907104,93.33334350585938,117760.0,1.0
15:36:02.507115,164632.046875,187697.4375,179963.109375,197521.03125,188784.453125,187257.5625,690955.3125,198772.640625,0.056884765625,1.009033203125,-0.032470703125,-1.3122557401657104,-0.2746581733226776,-1.5563963651657104,93.33334350585938,117761.0,1.0
15:36:02.509699,164544.078125,187689.65625,179951.3125,197489.46875,188778.28125,187259.890625,691303.875,198770.140625,0.0556640625,1.009033203125,-0.03173828125,-1.2817381620407104,-0.1525878757238388,-1.6784666776657104,93.33334350585938,117762.0,1.0
15:36:02.512135,164459.5,187669.015625,179941.75,197508.25,188765.59375,187254.34375,690683.0625,198776.125,0.05615234375,1.010498046875,-0.0322265625,-1.3122557401657104,-0.1831054538488388,-1.7700194120407104,93.33334350585938,117763.0,1.0
15:36:02.514715,164533.25,187681.34375,179957.84375,197516.390625,188776.046875,187256.9375,690405.75,198779.703125,0.055419921875,1.011474609375,-0.0283203125,-1.2512205839157104,-0.0610351525247097,-1.7700194120407104,93.33334350585938,117764.0,1.0
15:36:02.517130,164635.0,187697.984375,179968.75,197532.484375,188789.640625,187256.75,690827.5625,198781.5,0.055908203125,1.010498046875,-0.029296875,-1.3427733182907104,-0.03051757626235485,-1.9226073026657104,93.33334350585938,117765.0,1.0
15:36:02.519667,164568.21875,187694.140625,179955.953125,197492.609375,188783.640625,187257.828125,691318.125,198773.171875,0.0556640625,1.01025390625,-0.02978515625,-1.2512205839157104,0.0610351525247097,-2.014159917831421,93.33334350585938,117766.0,1.0
15:36:02.525599,164473.171875,187677.859375,179947.015625,197513.703125,188771.3125,187256.84375,690799.375,198778.09375,0.053955078125,1.011474609375,-0.031982421875,-1.3427733182907104,0.1525878757238388,-2.105712652206421,93.33334350585938,117767.0,1.0
15:36:02.525617,164523.0625,187691.1875,179964.09375,197516.390625,188780.78125,187262.390625,690399.75,198779.078125,0.054931640625,1.011474609375,-0.0341796875,-1.2207030057907104,0.2136230319738388,-2.105712652206421,93.33334350585938,117768.0,1.0
15:36:02.525620,164647.78125,187715.140625,179985.015625,197544.375,188800.1875,187267.3125,690734.3125,198782.484375,0.054443359375,1.01171875,-0.0322265625,-1.2207030057907104,0.3662109076976776,-2.136230230331421,93.33334350585938,117769.0,1.0
15:36:02.525623,164612.203125,187721.671875,179982.15625,197505.484375,188804.484375,187274.640625,691316.5,198776.3125,0.052978515625,1.012939453125,-0.029541015625,-1.3122557401657104,0.4577636420726776,-1.9836424589157104,93.33334350585938,117770.0,1.0
15:36:02.525626,164502.234375,187700.125,179969.453125,197520.765625,188790.703125,187270.4375,690949.5625,198780.234375,0.0537109375,1.012451171875,-0.030029296875,-1.3732908964157104,0.4577636420726776,-2.014159917831421,93.33334350585938,117771.0,1.0
15:36:02.527153,164515.734375,187696.90625,179973.9375,197519.328125,188789.375,187267.84375,690436.375,198779.796875,0.0537109375,1.014404296875,-0.02880859375,-1.3732908964157104,0.5187987685203552,-1.9531248807907104,93.33334350585938,117772.0,1.0
15:36:02.529695,164641.078125,187713.359375,179990.109375,197551.078125,188803.5,187266.59375,690652.3125,198785.25,0.05126953125,1.0146484375,-0.031982421875,-1.3427733182907104,0.5798339247703552,-1.8920897245407104,93.33334350585938,117773.0,1.0
15:36:02.532777,164629.546875,187717.828125,179984.84375,197515.765625,188805.546875,187268.375,691271.0,198778.0,0.05126953125,1.01318359375,-0.02978515625,-1.3732908964157104,0.7019042372703552,-1.9226073026657104,93.33334350585938,117774.0,1.0
15:36:02.532810,164512.78125,187695.125,179967.40625,197518.171875,188790.078125,187264.09375,691079.25,198780.875,0.049560546875,1.01513671875,-0.029541015625,-1.4648436307907104,0.6713866591453552,-1.8615721464157104,93.33334350585938,117775.0,1.0
15:36:02.534667,164497.578125,187690.828125,179968.65625,197518.0,188787.40625,187263.453125,690473.875,198781.140625,0.048828125,1.015625,-0.03076171875,-1.5869139432907104,0.7934569716453552,-1.7700194120407104,93.33334350585938,117776.0,1.0
15:36:02.537752,164620.609375,187709.15625,179989.3125,197545.53125,188805.90625,187265.0625,690555.9375,198788.734375,0.05029296875,1.0146484375,-0.031005859375,-1.5869139432907104,0.8239745497703552,-1.6479490995407104,93.33334350585938,117777.0,1.0
15:36:02.537770,164645.546875,187719.796875,179989.3125,197523.625,188811.984375,187268.015625,691171.5,198785.96875,0.050537109375,1.0146484375,-0.029052734375,-1.5869139432907104,0.7629393935203552,-1.5258787870407104,93.33334350585938,117778.0,1.0
15:36:02.539655,164531.5625,187698.25,179967.765625,197514.859375,188790.984375,187261.40625,691186.625,198783.640625,0.050537109375,1.014892578125,-0.0283203125,-1.7089842557907104,0.7934569716453552,-1.4953612089157104,93.33334350585938,117779.0,1.0
15:36:02.542760,164483.453125,187682.515625,179960.25,197519.328125,188777.921875,187254.515625,690532.5625,198782.390625,0.0458984375,1.015625,-0.027587890625,-1.8005369901657104,0.7629393935203552,-1.4343260526657104,93.33334350585938,117780.0,1.0
15:36:02.542786,164592.53125,187696.640625,179976.34375,197538.296875,188789.734375,187256.578125,690489.6875,198785.96875,0.044189453125,1.01611328125,-0.032958984375,-1.6479490995407104,0.8239745497703552,-1.3732908964157104,93.33334350585938,117781.0,1.0
15:36:02.544658,164646.265625,187709.15625,179978.3125,197527.375,188797.421875,187258.71875,691066.4375,198782.921875,0.044189453125,1.015869140625,-0.0322265625,-1.8615721464157104,0.8544921278953552,-1.2512205839157104,93.33334350585938,117782.0,1.0
15:36:02.553987,164545.953125,187697.0,179963.296875,197504.9375,188784.546875,187258.453125,691282.0625,198779.4375,0.044189453125,1.01513671875,-0.03076171875,-1.9531248807907104,0.9155272841453552,-1.1901854276657104,93.33334350585938,117783.0,1.0
15:36:02.554011,164480.328125,187683.859375,179957.21875,197516.921875,188773.359375,187257.203125,690623.4375,198781.5,0.042724609375,1.013916015625,-0.029541015625,-1.9836424589157104,0.7934569716453552,-0.9765624403953552,93.33334350585938,117784.0,1.0
15:36:02.560296,164566.609375,187691.71875,179966.59375,197523.0,188777.828125,187254.25,690454.0,198778.984375,0.04296875,1.01416015625,-0.02783203125,-2.075195074081421,0.6713866591453552,-0.8544921278953552,93.33334350585938,117785.0,1.0
15:36:02.560326,164646.625,187704.859375,179973.390625,197529.078125,188789.375,187255.6875,690950.1875,198781.046875,0.04248046875,1.01611328125,-0.030029296875,-2.044677495956421,0.6408690810203552,-0.8239745497703552,93.33334350585938,117786.0,1.0
15:36:02.566061,164557.03125,187694.578125,179959.453125,197495.90625,188782.390625,187257.203125,691333.75,198777.296875,0.043212890625,1.014892578125,-0.030029296875,-2.105712652206421,0.6408690810203552,-0.7934569716453552,93.33334350585938,117787.0,1.0
15:36:02.570317,164471.921875,187677.953125,179952.03125,197516.828125,188771.3125,187256.484375,690727.0625,198784.625,0.043212890625,1.01513671875,-0.031005859375,-2.044677495956421,0.5187987685203552,-0.6713866591453552,93.33334350585938,117788.0,1.0
15:36:02.570353,164543.171875,187691.265625,179968.03125,197520.5,188780.703125,187261.5,690429.4375,198785.96875,0.0439453125,1.015380859375,-0.0283203125,-2.044677495956421,0.4577636420726776,-0.5493163466453552,93.33334350585938,117789.0,1.0
15:36:02.582222,164646.171875,187707.28125,179980.8125,197539.0,188795.890625,187261.9375,690828.0,198787.03125,0.044189453125,1.013427734375,-0.028564453125,-2.166747808456421,0.4882812201976776,-0.4577636420726776,93.33334350585938,117790.0,1.0
15:36:02.585336,164580.90625,187703.609375,179969.375,197498.5,188792.140625,187263.015625,691340.75,198778.984375,0.044921875,1.015625,-0.028564453125,-2.258300542831421,0.3967284858226776,-0.2746581733226776,93.33334350585938,117791.0,1.0
15:36:02.585433,164479.703125,187685.28125,179958.640625,197516.03125,188777.828125,187260.15625,690836.5,198782.828125,0.044189453125,1.0146484375,-0.0283203125,-2.349853277206421,0.4882812201976776,-0.2441406100988388,93.33334350585938,117792.0,1.0
15:36:02.587235,164525.921875,187698.328125,179974.203125,197516.203125,188788.03125,187267.75,690423.1875,198784.4375,0.043212890625,1.0166015625,-0.0263671875,-2.258300542831421,0.4577636420726776,-0.0915527269244194,93.33334350585938,117793.0,1.0
15:36:02.602801,164646.71875,187715.765625,179990.203125,197544.015625,188803.9375,187267.125,690725.375,198788.015625,0.0439453125,1.017822265625,-0.02734375,-2.319335699081421,0.4577636420726776,0.0610351525247097,93.33334350585938,117794.0,1.0
15:36:02.602853,164608.890625,187715.140625,179980.375,197503.0625,188800.546875,187267.484375,691314.5625,198778.984375,0.0439453125,1.0166015625,-0.028076171875,-2.349853277206421,0.4272460639476776,0.2136230319738388,93.33334350585938,117795.0,1.0
15:36:02.604747,164495.4375,187690.203125,179962.9375,197514.328125,188782.3125,187261.046875,690962.25,198780.421875,0.045166015625,1.015625,-0.02978515625,-2.349853277206421,0.4577636420726776,0.2746581733226776,93.33334350585938,117796.0,1.0
15:36:02.607865,164504.203125,187689.21875,179966.234375,197509.765625,188779.53125,187260.328125,690439.8125,198775.6875,0.04443359375,1.014892578125,-0.029052734375,-2.380370855331421,0.3967284858226776,0.3967284858226776,93.33334350585938,117797.0,1.0
15:36:02.607891,164627.765625,187706.734375,179981.890625,197537.125,188793.921875,187260.953125,690650.0,198777.015625,0.0458984375,1.014404296875,-0.02880859375,-2.410888433456421,0.2746581733226776,0.3967284858226776,93.33334350585938,117798.0,1.0
15:36:02.613522,164620.609375,187710.859375,179974.828125,197499.84375,188793.484375,187260.78125,691268.0625,198767.09375,0.044677734375,1.013916015625,-0.028564453125,-2.441406011581421,0.3662109076976776,0.4577636420726776,93.33334350585938,117799.0,1.0
15:36:02.620345,164503.390625,187687.78125,179955.609375,197503.515625,188774.53125,187254.34375,691098.0,198767.640625,0.046630859375,1.011962890625,-0.026611328125,-2.380370855331421,0.3356933295726776,0.5493163466453552,93.33334350585938,117800.0,1.0
15:36:02.620393,164482.375,187679.734375,179954.703125,197504.84375,188766.921875,187252.109375,690484.6875,198767.28125,0.046630859375,1.011962890625,-0.02490234375,-2.319335699081421,0.4272460639476776,0.6408690810203552,93.33334350585938,117801.0,1.0
15:36:02.627192,164606.21875,187697.359375,179974.828125,197531.671875,188782.390625,187253.890625,690558.1875,198773.890625,0.046875,1.01220703125,-0.028564453125,-2.227782964706421,0.3356933295726776,0.6408690810203552,93.33334350585938,117802.0,1.0
15:36:02.637794,164636.15625,187708.4375,179978.125,197513.171875,188792.046875,187257.203125,691168.875,198775.40625,0.04736328125,1.0126953125,-0.03271484375,-2.227782964706421,0.3662109076976776,0.7019042372703552,93.33334350585938,117803.0,1.0
15:36:02.637829,164526.1875,187691.546875,179963.203125,197507.53125,188779.09375,187255.140625,691206.625,198779.4375,0.046142578125,1.013427734375,-0.027587890625,-2.227782964706421,0.3967284858226776,0.7629393935203552,93.33334350585938,117804.0,1.0
15:36:02.640325,164482.734375,187681.53125,179960.515625,197517.09375,188770.234375,187254.078125,690548.5,198782.390625,0.046142578125,1.01220703125,-0.03076171875,-2.197265386581421,0.3662109076976776,0.7934569716453552,93.33334350585938,117805.0,1.0
15:36:02.640338,164591.453125,187698.6875,179976.34375,197534.71875,188781.953125,187256.484375,690496.625,198783.90625,0.046630859375,1.009033203125,-0.024658203125,-2.075195074081421,0.3051757514476776,0.8239745497703552,93.33334350585938,117806.0,1.0
15:36:02.649719,164648.234375,187710.859375,179979.734375,197526.484375,188790.53125,187257.65625,691059.625,198780.234375,0.04736328125,1.0087890625,-0.02490234375,-2.014159917831421,0.3662109076976776,0.7934569716453552,93.33334350585938,117807.0,1.0
15:36:02.652776,164546.84375,187696.640625,179964.0,197503.328125,188778.015625,187256.21875,691292.8125,198777.015625,0.047119140625,1.0078125,-0.02783203125,-1.9226073026657104,0.4272460639476776,0.8850097060203552,93.33334350585938,117808.0,1.0
15:36:02.652800,164476.75,187680.71875,179955.421875,197515.046875,188764.875,187252.90625,690632.25,198777.109375,0.04638671875,1.0078125,-0.026123046875,-1.8615721464157104,0.4577636420726776,0.8850097060203552,93.33334350585938,117809.0,1.0
15:36:02.659711,164567.234375,187695.828125,179971.15625,197524.515625,188774.171875,187254.78125,690456.25,198778.8125,0.046630859375,1.0078125,-0.027587890625,-1.8920897245407104,0.4272460639476776,0.9765624403953552,93.33334350585938,117810.0,1.0
15:36:02.670301,164653.953125,187711.203125,179980.375,197533.640625,188786.234375,187255.59375,690941.6875,198780.59375,0.0458984375,1.0068359375,-0.02978515625,-1.8615721464157104,0.3967284858226776,1.0375975370407104,93.33334350585938,117811.0,1.0
15:36:02.670332,164566.15625,187698.328125,179964.359375,197496.359375,188775.15625,187251.125,691334.9375,198772.109375,0.048095703125,1.0078125,-0.02587890625,-1.7395018339157104,0.6103515028953552,0.9155272841453552,93.33334350585938,117812.0,1.0
15:36:02.672750,164474.328125,187675.0,179949.515625,197509.765625,188758.25,187244.953125,690735.625,198772.375,0.045654296875,1.00830078125,-0.02783203125,-1.6479490995407104,0.4882812201976776,0.9155272841453552,93.33334350585938,117813.0,1.0
15:36:02.672774,164532.0,187679.203125,179955.15625,197505.5625,188760.140625,187245.125,690423.4375,198767.8125,0.046630859375,1.00927734375,-0.0283203125,-1.5869139432907104,0.4882812201976776,0.9460448622703552,93.33334350585938,117814.0,1.0
15:36:02.678419,164636.25,187694.578125,179965.890625,197523.53125,188773.8125,187246.65625,690814.6875,198768.984375,0.047607421875,1.0078125,-0.02880859375,-1.5563963651657104,0.4272460639476776,0.8544921278953552,93.33334350585938,117815.0,1.0
15:36:02.682768,164576.171875,187693.953125,179956.9375,197483.390625,188771.046875,187250.234375,691340.3125,198762.359375,0.046875,1.00830078125,-0.02685546875,-1.4648436307907104,0.3662109076976776,0.9765624403953552,93.33334350585938,117816.0,1.0
15:36:02.682788,164477.90625,187678.3125,179948.0,197507.53125,188759.859375,187251.21875,690860.0,198769.953125,0.04736328125,1.0087890625,-0.029296875,-1.4038084745407104,0.4272460639476776,1.0375975370407104,93.33334350585938,117817.0,1.0
15:36:02.689699,164516.0,187684.921875,179958.46875,197508.34375,188765.140625,187254.96875,690427.1875,198772.546875,0.04833984375,1.009521484375,-0.029296875,-1.3732908964157104,0.3967284858226776,0.9765624403953552,93.33334350585938,117818.0,1.0
15:36:02.696563,164636.34375,187702.625,179974.46875,197537.65625,188783.375,187257.203125,690709.25,198779.703125,0.048095703125,1.01123046875,-0.029296875,-1.3122557401657104,0.3967284858226776,1.1291502714157104,93.33334350585938,117819.0,1.0
15:36:02.696576,164602.640625,187703.609375,179965.796875,197496.265625,188782.484375,187259.078125,691310.8125,198770.5,0.048828125,1.013916015625,-0.029052734375,-1.2817381620407104,0.3967284858226776,1.0070799589157104,93.33334350585938,117820.0,1.0
15:36:02.708999,164496.59375,187684.75,179953.359375,197509.234375,188767.546875,187256.578125,690981.9375,198774.34375,0.048828125,1.014892578125,-0.03076171875,-1.3732908964157104,0.3967284858226776,0.9460448622703552,93.33334350585938,117821.0,1.0
15:36:02.709027,164506.25,187689.21875,179962.75,197509.046875,188772.828125,187262.203125,690448.625,198777.46875,0.048095703125,1.0146484375,-0.029541015625,-1.4343260526657104,0.3051757514476776,0.9155272841453552,93.33334350585938,117822.0,1.0
15:36:02.710952,164626.234375,187703.34375,179975.453125,197531.21875,188785.25,187259.4375,690622.25,198779.703125,0.0478515625,1.014404296875,-0.029296875,-1.4038084745407104,0.2441406100988388,0.9460448622703552,93.33334350585938,117823.0,1.0
15:36:02.713415,164620.421875,187706.46875,179967.578125,197494.125,188783.296875,187258.359375,691245.6875,198770.859375,0.04736328125,1.0126953125,-0.03076171875,-1.4343260526657104,0.2746581733226776,0.8239745497703552,93.33334350585938,117824.0,1.0
15:36:02.717148,164504.640625,187685.015625,179947.90625,197496.453125,188764.15625,187253.0,691108.9375,198772.203125,0.047607421875,1.01416015625,-0.0322265625,-1.3732908964157104,0.2441406100988388,0.7629393935203552,93.33334350585938,117825.0,1.0
15:36:02.730285,164479.703125,187676.609375,179943.890625,197497.875,188756.015625,187250.234375,690492.8125,198771.75,0.048095703125,1.014892578125,-0.032958984375,-1.4343260526657104,0.2136230319738388,0.6713866591453552,93.33334350585938,117826.0,1.0
15:36:02.730311,164597.1875,187692.609375,179960.515625,197520.859375,188768.359375,187250.671875,690541.875,198773.796875,0.049072265625,1.01513671875,-0.031494140625,-1.5258787870407104,0.1525878757238388,0.6408690810203552,93.33334350585938,117827.0,1.0
15:36:02.732769,164630.0,187705.3125,179964.359375,197501.71875,188777.828125,187256.578125,691153.4375,198770.9375,0.046630859375,1.012939453125,-0.031005859375,-1.5258787870407104,0.1220703050494194,0.6103515028953552,93.33334350585938,117828.0,1.0
15:36:02.732792,164518.5,187686.359375,179945.859375,197486.703125,188762.90625,187253.0,691216.1875,198767.28125,0.04931640625,1.013427734375,-0.03173828125,-1.5869139432907104,0.1220703050494194,0.5187987685203552,93.33334350585938,117829.0,1.0
15:36:02.742765,164467.09375,187674.015625,179939.859375,197493.5,188752.09375,187249.609375,690555.125,198768.625,0.04931640625,1.01416015625,-0.029541015625,-1.6174315214157104,0.0915527269244194,0.5187987685203552,93.33334350585938,117830.0,1.0
15:36:02.742790,164570.1875,187685.46875,179952.828125,197507.265625,188760.40625,187247.09375,690491.8125,198768.796875,0.04931640625,1.012451171875,-0.0283203125,-1.6479490995407104,0.1831054538488388,0.4272460639476776,93.33334350585938,117831.0,1.0
15:36:02.744683,164627.484375,187695.828125,179953.1875,197497.078125,188766.84375,187245.671875,691046.125,198763.171875,0.049072265625,1.0146484375,-0.02783203125,-1.6479490995407104,0.0915527269244194,0.4882812201976776,93.33334350585938,117832.0,1.0
15:36:02.751525,164525.5625,187681.34375,179936.375,197470.875,188754.40625,187244.421875,691299.6875,198758.0625,0.0498046875,1.0146484375,-0.0302734375,-1.6784666776657104,0.0915527269244194,0.5187987685203552,93.33334350585938,117833.0,1.0
15:36:02.751548,164460.203125,187671.515625,179935.671875,197492.421875,188750.203125,187247.546875,690654.375,198767.015625,0.048095703125,1.012451171875,-0.029052734375,-1.6784666776657104,0.0610351525247097,0.3356933295726776,93.33334350585938,117834.0,1.0
15:36:02.766576,164554.0,187690.640625,179958.375,197505.75,188766.75,187254.078125,690458.3125,198772.203125,0.049072265625,1.013916015625,-0.03369140625,-1.6479490995407104,0.1220703050494194,0.1831054538488388,93.33334350585938,117835.0,1.0
15:36:02.766604,164645.28125,187709.875,179970.265625,197513.703125,188781.140625,187256.578125,690931.4375,198771.921875,0.049560546875,1.013916015625,-0.033203125,-1.6479490995407104,0.1525878757238388,0.3662109076976776,93.33334350585938,117836.0,1.0
15:36:02.812513,164567.3125,187707.546875,179962.671875,197482.40625,188779.09375,187262.65625,691348.625,198769.515625,0.049560546875,1.014404296875,-0.031494140625,-1.6784666776657104,0.03051757626235485,0.2746581733226776,93.33334350585938,117837.0,1.0
15:36:02.812535,164479.25,187690.203125,179955.421875,197503.78125,188768.625,187262.03125,690755.75,198775.140625,0.04736328125,1.014404296875,-0.0341796875,-1.8005369901657104,-0.03051757626235485,0.2441406100988388,93.33334350585938,117838.0,1.0
15:36:02.814130,164539.609375,187697.0,179965.53125,197502.96875,188773.71875,187262.5625,690437.1875,198771.5625,0.049072265625,1.0166015625,-0.0322265625,-1.9226073026657104,0.03051757626235485,0.2136230319738388,93.33334350585938,117839.0,1.0
15:36:02.814158,164647.34375,187712.734375,179977.328125,197524.703125,188787.578125,187263.640625,690825.3125,198773.890625,0.04736328125,1.01513671875,-0.031494140625,-1.9226073026657104,0.1220703050494194,0.2136230319738388,93.33334350585938,117840.0,1.0
15:36:02.817127,164588.0625,187709.328125,179965.96875,197483.84375,188783.921875,187264.171875,691356.375,198767.8125,0.04443359375,1.01513671875,-0.032958984375,-1.9836424589157104,0.0610351525247097,0.2441406100988388,93.33334350585938,117841.0,1.0
15:36:02.817152,164486.859375,187690.296875,179954.4375,197504.671875,188770.59375,187261.21875,690883.5,198776.671875,0.046875,1.01416015625,-0.0322265625,-2.044677495956421,0.0915527269244194,0.2136230319738388,93.33334350585938,117842.0,1.0
15:36:02.817163,164521.984375,187696.546875,179963.203125,197506.8125,188772.65625,187263.1875,690445.75,198778.625,0.047607421875,1.013916015625,-0.03076171875,-2.105712652206421,0.0,0.2136230319738388,93.33334350585938,117843.0,1.0
15:36:02.822342,164643.21875,187713.09375,179975.890625,197533.46875,188784.265625,187260.78125,690719.125,198780.78125,0.04833984375,1.01318359375,-0.029052734375,-2.044677495956421,0.0610351525247097,0.2441406100988388,93.33334350585938,117844.0,1.0
15:36:02.822367,164607.375,187709.421875,179963.46875,197486.34375,188778.640625,187256.84375,691327.4375,198767.1875,0.048095703125,1.01220703125,-0.029541015625,-2.044677495956421,0.0,0.1525878757238388,93.33334350585938,117845.0,1.0
15:36:02.822375,164493.203125,187683.765625,179945.953125,197495.109375,188761.03125,187249.421875,691017.1875,198767.8125,0.04638671875,1.012939453125,-0.03173828125,-2.166747808456421,0.0,0.03051757626235485,93.33334350585938,117846.0,1.0
15:36:02.823717,164497.671875,187682.59375,179949.609375,197494.125,188759.234375,187250.140625,690474.3125,198767.1875,0.049072265625,1.013916015625,-0.029541015625,-2.197265386581421,-0.03051757626235485,0.2136230319738388,93.33334350585938,117847.0,1.0
15:36:02.825925,164620.609375,187698.78125,179965.796875,197522.734375,188772.375,187249.15625,690647.5,198770.765625,0.0478515625,1.014892578125,-0.028564453125,-2.227782964706421,0.03051757626235485,0.0610351525247097,93.33334350585938,117848.0,1.0
15:36:02.828492,164620.875,187704.953125,179962.75,197491.890625,188776.40625,187252.28125,691273.25,198766.296875,0.046630859375,1.0126953125,-0.02978515625,-2.197265386581421,0.0915527269244194,-0.03051757626235485,93.33334350585938,117849.0,1.0
15:36:02.830974,164505.8125,187683.046875,179945.671875,197494.03125,188761.03125,187248.625,691153.0,198768.625,0.0478515625,1.01416015625,-0.02783203125,-2.166747808456421,0.1831054538488388,-0.0610351525247097,93.33334350585938,117850.0,1.0
15:36:02.833440,164483.453125,187680.640625,179948.0,197500.828125,188757.984375,187251.65625,690527.9375,198770.765625,0.049560546875,1.015380859375,-0.025634765625,-2.197265386581421,0.1220703050494194,0.0610351525247097,93.33334350585938,117851.0,1.0
15:36:02.836053,164602.546875,187697.078125,179966.234375,197525.953125,188773.359375,187253.0,690570.6875,198775.328125,0.049560546875,1.01318359375,-0.02734375,-2.166747808456421,0.1525878757238388,0.0610351525247097,93.33334350585938,117852.0,1.0
15:36:02.838471,164636.25,187707.546875,179967.21875,197506.1875,188780.25,187254.96875,691169.25,198770.859375,0.047119140625,1.013916015625,-0.02587890625,-2.136230230331421,0.1525878757238388,0.0,93.33334350585938,117853.0,1.0
15:36:02.841032,164529.765625,187693.328125,179952.46875,197495.546875,188767.546875,187254.515625,691255.25,198771.484375,0.047607421875,1.011962890625,-0.02880859375,-2.136230230331421,0.0915527269244194,0.0,93.33334350585938,117854.0,1.0
15:36:02.843426,164480.953125,187683.671875,179949.609375,197506.109375,188759.5,187253.359375,690592.3125,198774.609375,0.04638671875,1.012939453125,-0.0302734375,-2.075195074081421,0.1220703050494194,0.0610351525247097,93.33334350585938,117855.0,1.0
15:36:02.846514,164583.328125,187696.375,179964.09375,197517.546875,188768.8125,187251.21875,690515.6875,198772.640625,0.04736328125,1.010498046875,-0.032470703125,-2.105712652206421,0.2441406100988388,0.0610351525247097,93.33334350585938,117856.0,1.0
15:36:02.846541,164647.515625,187709.328125,179969.453125,197512.09375,188779.984375,187251.296875,691062.0,198770.234375,0.046142578125,1.00927734375,-0.031005859375,-2.075195074081421,0.2441406100988388,0.1220703050494194,93.33334350585938,117857.0,1.0
15:36:02.848420,164549.171875,187696.015625,179954.34375,197486.078125,188771.046875,187251.5625,691339.75,198766.5625,0.046142578125,1.010498046875,-0.0302734375,-1.9836424589157104,0.2136230319738388,0.0915527269244194,93.33334350585938,117858.0,1.0
15:36:02.852274,164472.640625,187676.078125,179944.609375,197500.734375,188756.734375,187245.40625,690691.375,198768.4375,0.045654296875,1.011474609375,-0.0283203125,-1.9836424589157104,0.3356933295726776,0.1525878757238388,93.33334350585938,117859.0,1.0
15:36:02.862771,164558.5625,187691.265625,179961.140625,197510.9375,188768.265625,187249.78125,690490.0625,198770.859375,0.047607421875,1.01171875,-0.028564453125,-1.9836424589157104,0.2746581733226776,0.2136230319738388,93.33334350585938,117860.0,1.0
15:36:02.862796,164649.125,187709.0625,179970.984375,197522.734375,188781.40625,187252.828125,690958.0,198772.203125,0.04541015625,1.0107421875,-0.029541015625,-1.8920897245407104,0.1525878757238388,0.1831054538488388,93.33334350585938,117861.0,1.0
15:36:02.865311,164567.9375,187698.609375,179955.609375,197485.09375,188772.921875,187251.65625,691388.75,198766.46875,0.044677734375,1.015380859375,-0.029296875,-1.8615721464157104,0.1220703050494194,0.1525878757238388,93.33334350585938,117862.0,1.0
15:36:02.865334,164475.140625,187675.625,179943.625,197503.421875,188758.34375,187247.640625,690796.6875,198771.921875,0.04541015625,1.014892578125,-0.028076171875,-1.9531248807907104,0.1831054538488388,0.1525878757238388,93.33334350585938,117863.0,1.0
15:36:02.872189,164530.65625,187684.03125,179954.890625,197504.21875,188764.15625,187251.5625,690464.125,198772.109375,0.0478515625,1.01513671875,-0.02783203125,-1.8920897245407104,0.1831054538488388,0.1831054538488388,93.33334350585938,117864.0,1.0
15:36:02.875962,164641.4375,187703.796875,179971.421875,197528.0,188782.3125,187256.21875,690836.1875,198777.5625,0.0478515625,1.013427734375,-0.02783203125,-1.8920897245407104,0.2746581733226776,0.2441406100988388,93.33334350585938,117865.0,1.0
15:36:02.886529,164591.453125,187707.640625,179967.84375,197490.1875,188784.359375,187262.125,691385.1875,198775.0625,0.049072265625,1.01220703125,-0.03076171875,-1.9226073026657104,0.2136230319738388,0.3356933295726776,93.33334350585938,117866.0,1.0
15:36:02.886556,164483.71875,187682.0625,179949.96875,197504.84375,188763.265625,187252.546875,690931.625,198776.21875,0.049560546875,1.01171875,-0.029296875,-1.9531248807907104,0.3051757514476776,0.4272460639476776,93.33334350585938,117867.0,1.0
15:36:02.888401,164513.9375,187685.015625,179957.125,197502.96875,188764.78125,187252.109375,690472.5,198775.140625,0.047607421875,1.014892578125,-0.028076171875,-1.9226073026657104,0.2441406100988388,0.4882812201976776,93.33334350585938,117868.0,1.0
15:36:02.892191,164638.75,187704.421875,179975.265625,197535.515625,188781.953125,187254.25,690734.9375,198782.125,0.047607421875,1.011962890625,-0.02880859375,-1.9226073026657104,0.3662109076976776,0.6103515028953552,93.33334350585938,117869.0,1.0
15:36:02.902786,164614.171875,187707.1875,179970.0,197498.328125,188782.21875,187255.859375,691343.625,198776.3125,0.046630859375,1.0107421875,-0.027587890625,-1.8920897245407104,0.5187987685203552,0.7019042372703552,93.33334350585938,117870.0,1.0
15:36:02.902807,164499.8125,187682.953125,179952.46875,197510.578125,188764.421875,187248.53125,691048.75,198779.609375,0.046875,1.0107421875,-0.02734375,-1.8615721464157104,0.5187987685203552,0.6713866591453552,93.33334350585938,117871.0,1.0
15:36:02.905435,164499.28125,187682.421875,179955.609375,197510.21875,188762.453125,187250.3125,690482.5,198779.34375,0.048583984375,1.01123046875,-0.02685546875,-1.9226073026657104,0.4882812201976776,0.6103515028953552,93.33334350585938,117872.0,1.0
15:36:02.905453,164624.453125,187702.625,179973.125,197538.296875,188778.1875,187254.703125,690621.0,198784.890625,0.048828125,1.010498046875,-0.030517578125,-1.8920897245407104,0.4272460639476776,0.7019042372703552,93.33334350585938,117873.0,1.0
15:36:02.914730,164628.03125,187708.078125,179968.46875,197504.671875,188781.328125,187256.125,691252.875,198777.921875,0.04931640625,1.012939453125,-0.03173828125,-1.9836424589157104,0.4577636420726776,0.7324218153953552,93.33334350585938,117874.0,1.0
15:36:02.917223,164516.171875,187690.46875,179953.546875,197504.765625,188767.109375,187255.6875,691166.5625,198779.890625,0.047607421875,1.01513671875,-0.031005859375,-1.9836424589157104,0.4882812201976776,0.6713866591453552,93.33334350585938,117875.0,1.0
15:36:02.925320,164488.546875,187684.5625,179953.015625,197509.859375,188761.109375,187255.953125,690533.8125,198781.21875,0.048583984375,1.016845703125,-0.031005859375,-1.8920897245407104,0.5187987685203552,0.7019042372703552,93.33334350585938,117876.0,1.0
15:36:02.925354,164602.71875,187697.4375,179965.796875,197528.90625,188769.25,187252.90625,690559.6875,198779.96875,0.049072265625,1.016845703125,-0.029541015625,-1.9226073026657104,0.5187987685203552,0.7629393935203552,93.33334350585938,117877.0,1.0
15:36:02.935333,164638.75,187708.265625,179966.515625,197509.046875,188776.046875,187254.34375,691153.8125,198773.984375,0.048828125,1.016357421875,-0.02685546875,-1.8615721464157104,0.6103515028953552,0.6408690810203552,93.33334350585938,117878.0,1.0
15:36:02.935390,164533.609375,187695.65625,179953.71875,197499.484375,188766.21875,187256.390625,691265.125,198775.5,0.049072265625,1.01611328125,-0.028076171875,-1.9836424589157104,0.5798339247703552,0.7019042372703552,93.33334350585938,117879.0,1.0
15:36:02.937779,164484.703125,187686.890625,179952.390625,197515.484375,188760.140625,187257.734375,690604.9375,198780.234375,0.04736328125,1.014892578125,-0.03125,-1.8920897245407104,0.5493163466453552,0.6103515028953552,93.33334350585938,117880.0,1.0
15:36:02.937804,164586.359375,187701.28125,179968.03125,197529.171875,188770.59375,187256.3125,690500.125,198779.171875,0.0458984375,1.013427734375,-0.03125,-1.7700194120407104,0.4882812201976776,0.5798339247703552,93.33334350585938,117881.0,1.0
15:36:02.946010,164655.203125,187716.3125,179973.9375,197526.125,188780.875,187258.1875,691034.0625,198775.6875,0.04443359375,1.013916015625,-0.0283203125,-1.7700194120407104,0.4882812201976776,0.5187987685203552,93.33334350585938,117882.0,1.0
15:36:02.956534,164563.109375,187708.265625,179964.0,197501.984375,188774.96875,187261.40625,691334.6875,198773.890625,0.043701171875,1.0146484375,-0.02490234375,-1.8005369901657104,0.6103515028953552,0.4577636420726776,93.33334350585938,117883.0,1.0
15:36:02.956586,164487.75,187691.90625,179957.21875,197519.328125,188763.53125,187258.71875,690690.75,198777.734375,0.044921875,1.0166015625,-0.025146484375,-1.8005369901657104,0.5798339247703552,0.3967284858226776,93.33334350585938,117884.0,1.0
15:36:02.959054,164569.46875,187703.25,179970.4375,197526.671875,188772.5625,187259.890625,690471.0,198778.984375,0.04443359375,1.015380859375,-0.025146484375,-1.9226073026657104,0.4577636420726776,0.1220703050494194,93.33334350585938,117885.0,1.0
15:36:02.959097,164659.765625,187715.40625,179977.859375,197537.65625,188782.9375,187257.828125,690924.1875,198779.96875,0.042724609375,1.01513671875,-0.025390625,-1.9226073026657104,0.3662109076976776,0.03051757626235485,93.33334350585938,117886.0,1.0
15:36:02.961084,164584.21875,187710.234375,179967.671875,197501.1875,188779.359375,187260.515625,691371.75,198775.953125,0.04248046875,1.015625,-0.026611328125,-1.8920897245407104,0.2136230319738388,0.03051757626235485,93.33334350585938,117887.0,1.0
15:36:02.973433,164490.875,187691.8125,179959.984375,197521.65625,188766.84375,187258.359375,690802.0,198782.5625,0.04248046875,1.015869140625,-0.027099609375,-2.014159917831421,0.2746581733226776,-0.03051757626235485,93.33334350585938,117888.0,1.0
15:36:02.978357,164550.25,187704.6875,179974.828125,197525.140625,188775.328125,187263.1875,690453.125,198785.609375,0.043212890625,1.015625,-0.0263671875,-2.166747808456421,0.2136230319738388,0.03051757626235485,93.33334350585938,117889.0,1.0
15:36:02.978412,164659.3125,187716.21875,179983.3125,197545.265625,188784.984375,187258.09375,690804.75,198787.125,0.04443359375,1.0146484375,-0.02978515625,-2.288818120956421,0.0610351525247097,0.0,93.33334350585938,117890.0,1.0
15:36:02.978436,164603.625,187709.78125,179970.171875,197500.734375,188776.5,187256.125,691369.5,198778.0,0.045654296875,1.014404296875,-0.030029296875,-2.288818120956421,0.0915527269244194,-0.1525878757238388,93.33334350585938,117891.0,1.0
15:36:02.980936,164494.453125,187685.734375,179952.46875,197518.171875,188758.078125,187250.9375,690935.875,198783.015625,0.045654296875,1.01416015625,-0.02734375,-2.319335699081421,0.03051757626235485,-0.1525878757238388,93.33334350585938,117892.0,1.0
15:36:02.988496,164519.046875,187689.390625,179958.28125,197514.953125,188760.21875,187254.4375,690465.875,198783.8125,0.04638671875,1.015380859375,-0.02978515625,-2.380370855331421,0.03051757626235485,-0.0610351525247097,93.33334350585938,117893.0,1.0
15:36:02.995347,164640.453125,187706.03125,179971.875,197537.65625,188775.515625,187255.859375,690703.6875,198787.03125,0.045654296875,1.01513671875,-0.029052734375,-2.410888433456421,0.03051757626235485,0.03051757626235485,93.33334350585938,117894.0,1.0
15:36:02.995411,164617.125,187711.203125,179966.234375,197497.078125,188777.203125,187260.328125,691328.3125,198780.234375,0.048583984375,1.014404296875,-0.028076171875,-2.502441167831421,0.03051757626235485,0.0610351525247097,93.33334350585938,117895.0,1.0
15:36:03.009742,164498.828125,187682.953125,179944.515625,197501.0,188752.71875,187249.78125,691056.0,198777.5625,0.047119140625,1.013671875,-0.02587890625,-2.410888433456421,-0.03051757626235485,0.1525878757238388,93.33334350585938,117896.0,1.0
15:36:03.014648,164499.734375,187685.375,179950.78125,197505.03125,188751.8125,187253.984375,690486.4375,198778.90625,0.046875,1.013427734375,-0.026611328125,-2.441406011581421,-0.03051757626235485,0.1525878757238388,93.33334350585938,117897.0,1.0
15:36:03.014682,164624.984375,187703.515625,179971.15625,197535.609375,188769.25,187255.953125,690617.375,198784.625,0.045166015625,1.0146484375,-0.024658203125,-2.532958745956421,0.03051757626235485,0.3051757514476776,93.33334350585938,117898.0,1.0
15:36:03.014694,164636.96875,187714.078125,179970.984375,197507.0,188777.5625,187260.328125,691244.8125,198779.609375,0.043701171875,1.013916015625,-0.024658203125,-2.563476324081421,0.0,0.3662109076976776,93.33334350585938,117899.0,1.0
15:36:03.020276,164527.71875,187697.53125,179957.75,197507.171875,188763.4375,187258.8125,691182.25,198780.59375,0.045654296875,1.017333984375,-0.024169921875,-2.593993902206421,-0.0610351525247097,0.4577636420726776,93.33334350585938,117900.0,1.0
15:36:03.020300,164498.5625,187691.984375,179958.46875,197513.34375,188757.265625,187260.234375,690542.25,198781.5,0.0439453125,1.015869140625,-0.0234375,-2.655029058456421,-0.0610351525247097,0.4272460639476776,93.33334350585938,117901.0,1.0
15:36:03.022523,164615.15625,187710.3125,179977.0625,197535.078125,188772.109375,187263.90625,690569.0625,198784.625,0.042236328125,1.015380859375,-0.020751953125,-2.807616949081421,-0.1220703050494194,0.4577636420726776,93.33334350585938,117902.0,1.0
15:36:03.029734,164658.0625,187723.015625,179980.640625,197522.015625,188782.484375,187266.765625,691162.5625,198783.109375,0.040771484375,1.014404296875,-0.02197265625,-2.807616949081421,-0.1831054538488388,0.4272460639476776,93.33334350585938,117903.0,1.0
15:36:03.037784,164553.90625,187710.046875,179968.296875,197511.109375,188773.453125,187267.390625,691294.3125,198786.046875,0.042724609375,1.015380859375,-0.026123046875,-2.807616949081421,-0.2441406100988388,0.4272460639476776,93.33334350585938,117904.0,1.0
15:36:03.037820,164498.203125,187697.703125,179964.984375,197525.328125,188765.671875,187266.671875,690621.375,198790.875,0.0439453125,1.013671875,-0.025634765625,-2.868652105331421,-0.3051757514476776,0.4272460639476776,93.33334350585938,117905.0,1.0
15:36:03.040304,164603.890625,187717.921875,179987.515625,197543.75,188783.375,187274.015625,690517.1875,198796.515625,0.043212890625,1.01318359375,-0.0234375,-2.929687261581421,-0.3051757514476776,0.4577636420726776,93.33334350585938,117906.0,1.0
15:36:03.040336,164678.0,187735.34375,179997.09375,197545.703125,188797.234375,187278.484375,691049.4375,198796.15625,0.043212890625,1.012451171875,-0.023681640625,-2.929687261581421,-0.2441406100988388,0.4272460639476776,93.33334350585938,117907.0,1.0
15:36:03.073419,164581.625,187720.15625,179980.546875,197514.15625,188785.34375,187274.015625,691364.375,198788.46875,0.042236328125,1.012451171875,-0.0244140625,-2.960204839706421,-0.2441406100988388,0.3967284858226776,93.33334350585938,117908.0,1.0
15:36:03.077685,164504.5625,187705.21875,179975.359375,197533.109375,188775.25,187273.46875,690713.1875,198792.21875,0.043212890625,1.014404296875,-0.025390625,-2.990722417831421,-0.2136230319738388,0.3662109076976776,93.33334350585938,117909.0,1.0
15:36:03.077708,164582.78125,187717.828125,179990.375,197536.140625,188785.4375,187277.3125,690480.125,198792.578125,0.04638671875,1.01220703125,-0.022216796875,-2.929687261581421,-0.1831054538488388,0.4882812201976776,93.33334350585938,117910.0,1.0
15:36:03.077714,164679.53125,187734.71875,180000.578125,197548.84375,188800.09375,187278.84375,690927.9375,198795.625,0.046630859375,1.01171875,-0.0205078125,-2.807616949081421,-0.2136230319738388,0.3662109076976776,93.33334350585938,117911.0,1.0
15:36:03.077719,164601.65625,187724.890625,179984.5625,197506.90625,188790.703125,187276.25,691392.9375,198788.640625,0.047119140625,1.01025390625,-0.017822265625,-2.807616949081421,-0.1831054538488388,0.3967284858226776,93.33334350585938,117912.0,1.0
15:36:03.080858,164505.890625,187705.125,179973.484375,197528.640625,188777.03125,187272.84375,690831.5,198796.0625,0.0458984375,1.010986328125,-0.024169921875,-2.838134527206421,-0.2441406100988388,0.4272460639476776,93.33334350585938,117913.0,1.0
15:36:03.080874,164556.140625,187713.890625,179983.9375,197530.328125,188783.375,187276.609375,690467.75,198798.125,0.04638671875,1.0107421875,-0.02294921875,-2.807616949081421,-0.1831054538488388,0.3662109076976776,93.33334350585938,117914.0,1.0
15:36:03.080881,164672.28125,187734.8125,179999.40625,197555.359375,188799.296875,187281.078125,690814.9375,198802.765625,0.04931640625,1.010986328125,-0.023681640625,-2.716064214706421,-0.0610351525247097,0.3051757514476776,93.33334350585938,117915.0,1.0
15:36:03.083408,164620.78125,187731.78125,179986.8125,197512.546875,188793.125,187280.265625,691383.75,198792.765625,0.04931640625,1.0107421875,-0.0224609375,-2.716064214706421,-0.03051757626235485,0.3356933295726776,93.33334350585938,117916.0,1.0
15:36:03.086117,164517.15625,187713.71875,179976.609375,197534.171875,188781.40625,187280.265625,690960.125,198801.875,0.049560546875,1.011474609375,-0.02392578125,-2.685546636581421,0.0915527269244194,0.3051757514476776,93.33334350585938,117917.0,1.0
15:36:03.088402,164538.53125,187715.328125,179982.421875,197530.328125,188781.140625,187280.984375,690475.5625,198800.984375,0.048583984375,1.011474609375,-0.022216796875,-2.655029058456421,0.1831054538488388,0.2746581733226776,93.33334350585938,117918.0,1.0
15:36:03.090933,164656.453125,187728.015625,179995.03125,197554.390625,188791.15625,187277.671875,690718.0,198801.78125,0.048583984375,1.011474609375,-0.02294921875,-2.471923589706421,0.2441406100988388,0.3356933295726776,93.33334350585938,117919.0,1.0
15:36:03.101051,164634.734375,187728.109375,179985.734375,197513.796875,188790.4375,187277.046875,691340.375,198793.203125,0.047607421875,1.010009765625,-0.0263671875,-2.441406011581421,0.3356933295726776,0.3356933295726776,93.33334350585938,117920.0,1.0
15:36:03.105354,164520.46875,187703.875,179967.9375,197522.734375,188773.640625,187269.265625,691092.25,198797.671875,0.049560546875,1.010986328125,-0.02392578125,-2.441406011581421,0.3967284858226776,0.3662109076976776,93.33334350585938,117921.0,1.0
15:36:03.105373,164516.09375,187702.625,179972.859375,197527.109375,188772.203125,187269.71875,690507.625,198801.25,0.047607421875,1.012939453125,-0.022705078125,-2.380370855331421,0.5493163466453552,0.3967284858226776,93.33334350585938,117922.0,1.0
15:36:03.111061,164642.875,187721.40625,179994.140625,197557.328125,188789.453125,187271.859375,690634.5,198808.046875,0.04833984375,1.01123046875,-0.024169921875,-2.319335699081421,0.5493163466453552,0.4577636420726776,93.33334350585938,117923.0,1.0
15:36:03.117919,164657.53125,187731.234375,179995.203125,197530.953125,188797.140625,187275.0,691262.0625,198804.5625,0.04833984375,1.01220703125,-0.025390625,-2.197265386581421,0.6103515028953552,0.4577636420726776,93.33334350585938,117924.0,1.0
15:36:03.117934,164545.140625,187714.078125,179982.25,197529.171875,188785.609375,187273.828125,691217.6875,198805.0,0.04736328125,1.013671875,-0.0224609375,-2.197265386581421,0.6713866591453552,0.3967284858226776,93.33334350585938,117925.0,1.0
15:36:03.126564,164509.828125,187704.765625,179981.265625,197531.3125,188780.421875,187272.765625,690564.0,198803.046875,0.048583984375,1.01171875,-0.021484375,-2.136230230331421,0.7019042372703552,0.3662109076976776,93.33334350585938,117926.0,1.0
15:36:03.126582,164624.71875,187720.234375,179998.703125,197550.359375,188793.65625,187274.640625,690558.8125,198803.9375,0.048828125,1.01318359375,-0.02490234375,-2.105712652206421,0.8544921278953552,0.2136230319738388,93.33334350585938,117927.0,1.0
15:36:03.128465,164667.09375,187729.53125,179996.28125,197530.421875,188797.78125,187273.296875,691150.5,198795.4375,0.050048828125,1.011962890625,-0.027099609375,-1.9836424589157104,0.9155272841453552,0.2746581733226776,93.33334350585938,117928.0,1.0
15:36:03.132651,164559.453125,187712.734375,179979.03125,197511.734375,188783.921875,187270.34375,691311.3125,198791.59375,0.04931640625,1.0126953125,-0.023193359375,-1.8920897245407104,0.9765624403953552,0.2136230319738388,93.33334350585938,117929.0,1.0
15:36:03.175437,164501.78125,187701.109375,179974.734375,197528.546875,188774.4375,187269.890625,690635.125,198795.4375,0.048828125,1.011474609375,-0.024169921875,-1.8005369901657104,1.0986326932907104,0.1525878757238388,93.33334350585938,117930.0,1.0
15:36:03.175527,164601.203125,187718.28125,179992.265625,197544.09375,188788.296875,187275.34375,690517.6875,198798.125,0.047119140625,1.01220703125,-0.021728515625,-1.7700194120407104,1.0375975370407104,0.2441406100988388,93.33334350585938,117931.0,1.0
15:36:03.177415,164674.34375,187731.0625,179998.0625,197542.84375,188797.953125,187275.796875,691042.5625,198795.265625,0.04736328125,1.011962890625,-0.020263671875,-1.7700194120407104,1.0986326932907104,0.2136230319738388,93.33334350585938,117932.0,1.0
15:36:03.179735,164581.0,187720.78125,179981.984375,197510.75,188788.75,187275.703125,691385.8125,198791.0625,0.046630859375,1.0126953125,-0.02294921875,-1.7700194120407104,1.1291502714157104,0.2441406100988388,93.33334350585938,117933.0,1.0
15:36:03.182235,164497.3125,187699.671875,179971.34375,197527.734375,188775.515625,187270.4375,690742.9375,198796.515625,0.04638671875,1.01220703125,-0.0224609375,-1.6784666776657104,1.1596678495407104,0.2136230319738388,93.33334350585938,117934.0,1.0
15:36:03.184751,164568.484375,187707.8125,179982.421875,197529.34375,188783.5625,187271.6875,690485.375,198796.328125,0.04638671875,1.0126953125,-0.020751953125,-1.4953612089157104,1.1596678495407104,0.1831054538488388,93.33334350585938,117935.0,1.0
15:36:03.187174,164664.328125,187721.765625,179991.09375,197540.171875,188795.71875,187272.578125,690916.75,198796.6875,0.044677734375,1.01318359375,-0.017822265625,-1.5258787870407104,1.2207030057907104,0.1831054538488388,93.33334350585938,117936.0,1.0
15:36:03.189736,164588.953125,187713.625,179975.453125,197496.0,188787.21875,187271.59375,691405.5,198789.359375,0.04541015625,1.0126953125,-0.019775390625,-1.4648436307907104,1.2512205839157104,0.1831054538488388,93.33334350585938,117937.0,1.0
15:36:03.192235,164488.46875,187691.0,179960.4375,197512.625,188768.71875,187264.359375,690852.125,198792.140625,0.044189453125,1.012939453125,-0.025634765625,-1.3732908964157104,1.2207030057907104,0.2136230319738388,93.33334350585938,117938.0,1.0
15:36:03.194746,164536.46875,187696.90625,179969.375,197513.078125,188770.859375,187264.09375,690466.3125,198792.21875,0.045654296875,1.013427734375,-0.0234375,-1.4038084745407104,1.2512205839157104,0.0610351525247097,93.33334350585938,117939.0,1.0
15:36:03.197232,164654.3125,187714.25,179985.46875,197541.0625,188786.515625,187265.0625,690804.9375,198797.59375,0.044189453125,1.0126953125,-0.024658203125,-1.3427733182907104,1.2512205839157104,0.1220703050494194,93.33334350585938,117940.0,1.0
15:36:03.199764,164608.890625,187713.71875,179976.703125,197500.109375,188784.90625,187265.515625,691385.8125,198788.921875,0.0439453125,1.012939453125,-0.02294921875,-1.3122557401657104,1.1901854276657104,0.1220703050494194,93.33334350585938,117941.0,1.0
15:36:03.202240,164500.078125,187693.0625,179963.828125,197514.6875,188770.6875,187261.84375,690981.3125,198791.953125,0.04345703125,1.0146484375,-0.023681640625,-1.2817381620407104,1.1901854276657104,0.0610351525247097,93.33334350585938,117942.0,1.0
15:36:03.204659,164522.34375,187698.96875,179974.5625,197515.578125,188775.328125,187267.125,690482.25,198793.203125,0.0439453125,1.012451171875,-0.025146484375,-1.2817381620407104,1.2207030057907104,0.2136230319738388,93.33334350585938,117943.0,1.0
15:36:03.207765,164646.53125,187716.3125,179990.46875,197545.0,188789.90625,187268.828125,690704.3125,198797.59375,0.0439453125,1.0107421875,-0.021240234375,-1.2817381620407104,1.0375975370407104,0.1831054538488388,93.33334350585938,117944.0,1.0
15:36:03.207797,164633.484375,187724.078125,179987.609375,197510.484375,188793.390625,187274.640625,691338.0625,198793.65625,0.042724609375,1.0107421875,-0.022216796875,-1.2817381620407104,1.0375975370407104,0.2136230319738388,93.33334350585938,117945.0,1.0
15:36:03.209657,164520.375,187703.96875,179972.59375,197518.0,188777.5625,187271.859375,691120.25,198797.40625,0.043701171875,1.01123046875,-0.021484375,-1.2817381620407104,0.9460448622703552,0.3662109076976776,93.33334350585938,117946.0,1.0
15:36:03.212719,164510.546875,187700.296875,179974.46875,197521.03125,188774.796875,187271.953125,690523.1875,198799.640625,0.045654296875,1.0107421875,-0.021484375,-1.2817381620407104,1.0681151151657104,0.3051757514476776,93.33334350585938,117947.0,1.0
15:36:03.212740,164634.734375,187717.640625,179991.09375,197548.84375,188788.75,187271.328125,690617.8125,198804.03125,0.044921875,1.012451171875,-0.02294921875,-1.1596678495407104,1.0986326932907104,0.3662109076976776,93.33334350585938,117948.0,1.0
15:36:03.214636,164652.25,187725.0625,179989.84375,197523.53125,188793.484375,187271.0625,691246.0,198798.296875,0.04638671875,1.013427734375,-0.024169921875,-1.1901854276657104,1.0986326932907104,0.5187987685203552,93.33334350585938,117949.0,1.0
15:36:03.225316,164538.171875,187701.109375,179972.40625,197518.703125,188777.484375,187263.734375,691225.875,198797.5,0.045654296875,1.013671875,-0.023681640625,-1.2512205839157104,1.0681151151657104,0.5187987685203552,93.33334350585938,117950.0,1.0
15:36:03.225348,164501.34375,187691.453125,179972.328125,197526.40625,188770.765625,187261.3125,690563.625,198798.125,0.0458984375,1.013427734375,-0.025634765625,-1.1901854276657104,0.9460448622703552,0.7324218153953552,93.33334350585938,117951.0,1.0
15:36:03.227797,164616.40625,187709.953125,179991.8125,197548.21875,188783.640625,187263.8125,690548.25,198800.1875,0.045654296875,1.0107421875,-0.027099609375,-1.0986326932907104,0.9460448622703552,0.7629393935203552,93.33334350585938,117952.0,1.0
15:36:03.227823,164666.5625,187723.015625,179994.40625,197535.96875,188792.59375,187265.703125,691132.875,198795.53125,0.0439453125,1.012451171875,-0.0234375,-1.0681151151657104,1.0986326932907104,0.8544921278953552,93.33334350585938,117953.0,1.0
15:36:03.234884,164564.546875,187710.765625,179981.078125,197518.53125,188784.984375,187267.75,691321.0,198794.546875,0.044189453125,1.011474609375,-0.022705078125,-0.9765624403953552,1.0681151151657104,0.9155272841453552,93.33334350585938,117954.0,1.0
15:36:03.241505,164502.046875,187696.640625,179976.96875,197532.484375,188774.609375,187266.859375,690650.25,198797.59375,0.041015625,1.0126953125,-0.021728515625,-1.0070799589157104,1.0375975370407104,0.9155272841453552,93.33334350585938,117955.0,1.0
15:36:03.241535,164597.359375,187712.90625,179994.84375,197544.90625,188786.859375,187272.484375,690505.25,198800.890625,0.041259765625,1.013427734375,-0.022705078125,-0.9765624403953552,0.9155272841453552,0.9155272841453552,93.33334350585938,117956.0,1.0
15:36:03.249087,164677.734375,187732.40625,180003.4375,197548.65625,188800.71875,187278.484375,691018.1875,198803.484375,0.04248046875,1.0146484375,-0.02490234375,-1.0070799589157104,0.7934569716453552,0.9460448622703552,93.33334350585938,117957.0,1.0
15:36:03.249308,164587.53125,187724.171875,179987.78125,197515.765625,188791.15625,187280.265625,691385.0,198798.75,0.039306640625,1.01318359375,-0.0244140625,-1.0070799589157104,0.6408690810203552,0.8239745497703552,93.33334350585938,117958.0,1.0
15:36:03.251492,164502.40625,187705.21875,179975.984375,197531.765625,188774.96875,187277.140625,690752.8125,198802.140625,0.038330078125,1.013427734375,-0.024169921875,-0.9765624403953552,0.6713866591453552,0.7934569716453552,93.33334350585938,117959.0,1.0
15:36:03.251515,164570.8125,187713.890625,179985.90625,197532.75,188780.34375,187277.59375,690482.25,198799.828125,0.038818359375,1.0126953125,-0.025390625,-1.0070799589157104,0.5798339247703552,0.6408690810203552,93.33334350585938,117960.0,1.0
15:36:03.262187,164671.484375,187728.828125,179995.75,197548.578125,188793.84375,187278.296875,690904.625,198800.8125,0.0380859375,1.012939453125,-0.02587890625,-1.0681151151657104,0.4577636420726776,0.5798339247703552,93.33334350585938,117961.0,1.0
15:36:03.266492,164602.8125,187723.015625,179983.671875,197510.03125,188786.953125,187278.65625,691405.1875,198794.8125,0.039794921875,1.013671875,-0.026123046875,-0.9460448622703552,0.3356933295726776,0.5187987685203552,93.33334350585938,117962.0,1.0
15:36:03.266526,164500.265625,187698.25,179968.125,197529.4375,188769.703125,187271.234375,690871.6875,198799.015625,0.040771484375,1.013427734375,-0.02783203125,-0.9765624403953552,0.2136230319738388,0.4882812201976776,93.33334350585938,117963.0,1.0
15:36:03.272264,164543.171875,187703.875,179977.5,197526.484375,188773.09375,187271.5,690469.5625,198798.03125,0.043212890625,1.015380859375,-0.025146484375,-1.0070799589157104,0.03051757626235485,0.4272460639476776,93.33334350585938,117964.0,1.0
15:36:03.280402,164661.546875,187722.5625,179993.515625,197550.984375,188789.640625,187271.859375,690782.8125,198801.515625,0.043212890625,1.01708984375,-0.02734375,-0.8850097060203552,-0.03051757626235485,0.3662109076976776,93.33334350585938,117965.0,1.0
15:36:03.280432,164623.203125,187724.171875,179986.53125,197510.390625,188790.625,187274.8125,691375.0625,198794.28125,0.0439453125,1.015380859375,-0.025634765625,-1.0681151151657104,-0.03051757626235485,0.3967284858226776,93.33334350585938,117966.0,1.0
15:36:03.290389,164514.03125,187702.890625,179972.59375,197525.140625,188776.046875,187271.0625,690992.5,198799.375,0.043701171875,1.021484375,-0.02587890625,-1.1291502714157104,-0.1220703050494194,0.4577636420726776,93.33334350585938,117967.0,1.0
15:36:03.290436,164529.953125,187706.109375,179980.8125,197523.0,188778.90625,187273.03125,690477.4375,198800.53125,0.046630859375,1.020263671875,-0.02783203125,-1.2207030057907104,-0.1525878757238388,0.5493163466453552,93.33334350585938,117968.0,1.0
15:36:03.292201,164658.25,187729.359375,180001.46875,197555.984375,188798.125,187278.484375,690685.5625,198808.3125,0.04931640625,1.015625,-0.022705078125,-1.3122557401657104,-0.0915527269244194,0.4882812201976776,93.33334350585938,117969.0,1.0
15:36:03.295963,164653.78125,187741.515625,180003.34375,197523.1875,188806.890625,187287.328125,691317.75,198805.546875,0.048583984375,1.017822265625,-0.023681640625,-1.3427733182907104,0.0,0.5798339247703552,93.33334350585938,117970.0,1.0
15:36:03.309058,164540.859375,187724.53125,179990.65625,197528.546875,188793.65625,187285.984375,691126.25,198808.140625,0.04931640625,1.018310546875,-0.024169921875,-1.4343260526657104,0.03051757626235485,0.7629393935203552,93.33334350585938,117971.0,1.0
15:36:03.309102,164526.1875,187719.96875,179992.796875,197528.0,188790.171875,187285.640625,690515.6875,198807.78125,0.0498046875,1.015869140625,-0.02197265625,-1.4953612089157104,-0.03051757626235485,0.8544921278953552,93.33334350585938,117972.0,1.0
15:36:03.311531,164650.375,187737.765625,180010.859375,197556.265625,188805.90625,187287.59375,690599.3125,198813.046875,0.04833984375,1.013427734375,-0.0224609375,-1.4343260526657104,-0.0610351525247097,0.8239745497703552,93.33334350585938,117973.0,1.0
15:36:03.311567,164670.578125,187743.84375,180007.1875,197531.671875,188809.21875,187287.421875,691221.375,198806.265625,0.048828125,1.015380859375,-0.02197265625,-1.5258787870407104,-0.0610351525247097,0.8544921278953552,93.33334350585938,117974.0,1.0
15:36:03.317210,164555.875,187721.84375,179988.234375,197524.078125,188792.046875,187283.671875,691238.0,198804.828125,0.04638671875,1.013916015625,-0.0205078125,-1.5869139432907104,-0.0610351525247097,0.8544921278953552,93.33334350585938,117975.0,1.0
15:36:03.325271,164512.515625,187712.28125,179985.203125,197530.78125,188784.546875,187282.59375,690579.8125,198807.25,0.0439453125,1.01513671875,-0.021240234375,-1.4953612089157104,-0.1525878757238388,0.8544921278953552,93.33334350585938,117976.0,1.0
15:36:03.325283,164616.9375,187723.546875,179996.109375,197542.3125,188790.53125,187278.65625,690530.0,198804.109375,0.045166015625,1.013671875,-0.020751953125,-1.5869139432907104,-0.0915527269244194,0.8544921278953552,93.33334350585938,117977.0,1.0
15:36:03.331528,164671.65625,187736.25,179997.796875,197532.203125,188798.578125,187280.359375,691102.5625,198800.890625,0.04345703125,1.01171875,-0.0224609375,-1.5869139432907104,-0.0610351525247097,0.8239745497703552,93.33334350585938,117978.0,1.0
15:36:03.331583,164566.328125,187718.8125,179980.8125,197509.328125,188784.0,187275.984375,691311.25,198796.0625,0.043212890625,1.010986328125,-0.022216796875,-1.5869139432907104,-0.1525878757238388,0.8544921278953552,93.33334350585938,117979.0,1.0
15:36:03.346112,164499.375,187702.09375,179973.9375,197522.015625,188772.734375,187270.796875,690648.75,198799.28125,0.044189453125,1.00927734375,-0.02392578125,-1.4953612089157104,-0.1220703050494194,0.7629393935203552,93.33334350585938,117980.0,1.0
15:36:03.350122,164595.921875,187718.90625,179993.515625,197535.609375,188787.765625,187276.78125,690492.0,198803.484375,0.044677734375,1.01123046875,-0.0234375,-1.5563963651657104,-0.0915527269244194,0.7629393935203552,93.33334350585938,117981.0,1.0
15:36:03.350199,164681.046875,187737.140625,180005.484375,197545.796875,188803.046875,187281.15625,690991.625,198806.53125,0.04541015625,1.0107421875,-0.022216796875,-1.5869139432907104,-0.0915527269244194,0.7934569716453552,93.33334350585938,117982.0,1.0
15:36:03.350978,164591.28125,187724.359375,179989.484375,197512.8125,188792.046875,187278.125,691367.5,198800.71875,0.045166015625,1.009765625,-0.02587890625,-1.5869139432907104,-0.0915527269244194,0.8239745497703552,93.33334350585938,117983.0,1.0
15:36:03.353749,164504.015625,187702.1875,179976.609375,197531.578125,188775.421875,187271.59375,690751.125,198803.21875,0.045654296875,1.011962890625,-0.026611328125,-1.5563963651657104,-0.0610351525247097,0.8239745497703552,93.33334350585938,117984.0,1.0
15:36:03.355955,164570.984375,187711.203125,179988.953125,197532.921875,188780.78125,187272.21875,690456.9375,198800.53125,0.04541015625,1.009033203125,-0.024658203125,-1.5258787870407104,-0.0915527269244194,0.8239745497703552,93.33334350585938,117985.0,1.0
15:36:03.362286,164674.421875,187726.140625,179999.40625,197550.53125,188790.984375,187269.8125,690857.0625,198800.53125,0.04833984375,1.01123046875,-0.025146484375,-1.5869139432907104,-0.1220703050494194,0.7019042372703552,93.33334350585938,117986.0,1.0
15:36:03.369079,164608.890625,187722.125,179986.8125,197509.953125,188784.1875,187269.8125,691375.5,198792.140625,0.048095703125,1.012939453125,-0.022705078125,-1.4343260526657104,-0.1220703050494194,0.7934569716453552,93.33334350585938,117987.0,1.0
15:36:03.369129,164506.796875,187700.390625,179973.21875,197527.203125,188765.765625,187265.0625,690861.0,198795.53125,0.046630859375,1.0126953125,-0.02734375,-1.4648436307907104,-0.1220703050494194,0.7629393935203552,93.33334350585938,117988.0,1.0
15:36:03.376575,164549.34375,187708.53125,179984.21875,197525.6875,188772.65625,187269.0,690446.125,198795.890625,0.047119140625,1.01513671875,-0.029296875,-1.4953612089157104,-0.1220703050494194,0.7934569716453552,93.33334350585938,117989.0,1.0
15:36:03.376638,164671.203125,187730.25,180002.1875,197552.859375,188792.40625,187274.1875,690750.625,198800.890625,0.048583984375,1.013916015625,-0.027099609375,-1.4953612089157104,0.0610351525247097,0.8544921278953552,93.33334350585938,117990.0,1.0
15:36:03.378472,164634.28125,187734.015625,179995.75,197512.09375,188792.59375,187279.375,691348.6875,198794.28125,0.048583984375,1.013916015625,-0.022705078125,-1.5563963651657104,0.0,0.7629393935203552,93.33334350585938,117991.0,1.0
15:36:03.388452,164520.203125,187709.78125,179977.234375,197525.328125,188774.171875,187273.921875,690996.875,198797.765625,0.048095703125,1.01708984375,-0.0263671875,-1.4648436307907104,0.0610351525247097,0.7629393935203552,93.33334350585938,117992.0,1.0
15:36:03.392746,164528.875,187708.4375,179981.265625,197524.515625,188772.03125,187274.8125,690476.25,198797.40625,0.047119140625,1.01416015625,-0.023681640625,-1.5258787870407104,0.1220703050494194,0.7629393935203552,93.33334350585938,117993.0,1.0
15:36:03.392781,164652.078125,187725.515625,179997.171875,197553.046875,188787.140625,187276.25,690663.0625,198801.4375,0.048095703125,1.014404296875,-0.024169921875,-1.6174315214157104,0.1525878757238388,0.7629393935203552,93.33334350585938,117994.0,1.0
15:36:03.410350,164646.796875,187732.578125,179992.96875,197518.796875,188789.90625,187280.265625,691291.9375,198795.171875,0.0478515625,1.015625,-0.02294921875,-1.6479490995407104,0.1525878757238388,0.7934569716453552,93.33334350585938,117995.0,1.0
15:36:03.410392,164532.71875,187710.671875,179976.25,197522.46875,188773.359375,187275.53125,691120.6875,198797.140625,0.04833984375,1.013916015625,-0.024169921875,-1.7700194120407104,0.1831054538488388,0.6713866591453552,93.33334350585938,117996.0,1.0
15:36:03.412347,164514.75,187706.203125,179979.03125,197524.25,188769.34375,187274.640625,690502.4375,198797.671875,0.048583984375,1.012451171875,-0.023681640625,-1.7700194120407104,0.1525878757238388,0.5798339247703552,93.33334350585938,117997.0,1.0
15:36:03.415307,164636.609375,187722.921875,179998.875,197549.5625,188786.0625,187275.078125,690575.0,198802.59375,0.04931640625,1.01513671875,-0.0205078125,-1.7700194120407104,0.1525878757238388,0.7019042372703552,93.33334350585938,117998.0,1.0
15:36:03.415348,164664.328125,187732.046875,179998.421875,197525.5,188793.84375,187276.328125,691192.4375,198797.859375,0.0478515625,1.014404296875,-0.021484375,-1.8005369901657104,0.1831054538488388,0.7019042372703552,93.33334350585938,117999.0,1.0
15:36:03.417464,164550.0625,187711.203125,179979.46875,197513.4375,188778.734375,187271.5,691231.9375,198795.359375,0.046875,1.01220703125,-0.021240234375,-1.8615721464157104,0.3356933295726776,0.7934569716453552,93.33334350585938,118000.0,1.0
15:36:03.426514,164505.8125,187704.234375,179978.125,197522.640625,188772.828125,187273.46875,690571.9375,198798.484375,0.04833984375,1.01513671875,-0.024169921875,-1.8920897245407104,0.2746581733226776,0.7324218153953552,93.33334350585938,118001.0,1.0
15:36:03.426545,164614.890625,187720.953125,179994.5,197536.765625,188785.34375,187276.328125,690519.375,198799.015625,0.046875,1.016845703125,-0.02294921875,-1.8310545682907104,0.2441406100988388,0.7934569716453552,93.33334350585938,118002.0,1.0
15:36:03.429049,164671.5625,187733.734375,179995.828125,197525.6875,188792.859375,187279.28125,691087.4375,198793.65625,0.047607421875,1.0166015625,-0.02294921875,-1.8920897245407104,0.3356933295726776,0.7019042372703552,93.33334350585938,118003.0,1.0
15:36:03.429074,164566.609375,187716.484375,179976.515625,197501.1875,188778.1875,187275.265625,691320.8125,198788.46875,0.046630859375,1.01806640625,-0.024658203125,-1.8920897245407104,0.3356933295726776,0.7629393935203552,93.33334350585938,118004.0,1.0
15:36:03.438540,164494.546875,187696.015625,179966.234375,197513.96875,188766.65625,187269.1875,690660.5625,198790.078125,0.045166015625,1.016845703125,-0.02490234375,-1.9531248807907104,0.2441406100988388,0.7629393935203552,93.33334350585938,118005.0,1.0
15:36:03.440959,164590.03125,187715.234375,179989.046875,197528.984375,188784.09375,187276.421875,690494.875,198795.984375,0.04541015625,1.015380859375,-0.022705078125,-1.8920897245407104,0.3662109076976776,0.7324218153953552,93.33334350585938,118006.0,1.0
15:36:03.451508,164681.484375,187734.90625,180004.59375,197541.234375,188802.0625,187280.453125,690983.125,198801.875,0.046630859375,1.017822265625,-0.021240234375,-1.9226073026657104,0.3662109076976776,0.6408690810203552,93.33334350585938,118007.0,1.0
15:36:03.451523,164597.625,187726.40625,179992.890625,197508.96875,188796.609375,187280.171875,691377.75,198798.484375,0.048095703125,1.018310546875,-0.022216796875,-1.9226073026657104,0.3662109076976776,0.7019042372703552,93.33334350585938,118008.0,1.0
15:36:03.454095,164507.328125,187706.5625,179982.78125,197528.453125,188782.484375,187275.265625,690769.4375,198802.765625,0.0478515625,1.015380859375,-0.02099609375,-1.9531248807907104,0.2746581733226776,0.6713866591453552,93.33334350585938,118009.0,1.0
15:36:03.457231,164572.140625,187716.3125,179993.515625,197528.546875,188786.953125,187275.703125,690460.625,198800.53125,0.0458984375,1.015869140625,-0.02001953125,-1.9531248807907104,0.2441406100988388,0.6713866591453552,93.33334350585938,118010.0,1.0
15:36:03.464174,164676.21875,187732.21875,180002.359375,197546.0625,188798.3125,187273.921875,690852.875,198800.53125,0.045654296875,1.013427734375,-0.02197265625,-1.9226073026657104,0.4577636420726776,0.6408690810203552,93.33334350585938,118011.0,1.0
15:36:03.464219,164609.875,187725.0625,179987.515625,197501.09375,188791.15625,187271.234375,691381.625,198790.53125,0.0458984375,1.0126953125,-0.021240234375,-1.9531248807907104,0.3967284858226776,0.6408690810203552,93.33334350585938,118012.0,1.0
15:36:03.472870,164503.84375,187699.40625,179971.25,197515.3125,188773.09375,187264.359375,690888.875,198792.84375,0.046630859375,1.0107421875,-0.02197265625,-1.8920897245407104,0.3051757514476776,0.6408690810203552,93.33334350585938,118013.0,1.0
15:36:03.472924,164540.3125,187704.0625,179978.484375,197514.421875,188775.25,187267.3125,690455.8125,198791.78125,0.047607421875,1.010498046875,-0.02490234375,-1.8310545682907104,0.2746581733226776,0.7934569716453552,93.33334350585938,118014.0,1.0
15:36:03.474670,164662.359375,187724.0,179992.703125,197544.1875,188789.1875,187270.796875,690737.125,198797.234375,0.04931640625,1.0087890625,-0.0244140625,-1.8005369901657104,0.2136230319738388,0.7019042372703552,93.33334350585938,118015.0,1.0
15:36:03.480896,164629.375,187728.5625,179985.015625,197503.875,188788.75,187276.875,691347.25,198791.5,0.046875,1.01025390625,-0.0234375,-1.7395018339157104,0.3051757514476776,0.6713866591453552,93.33334350585938,118016.0,1.0
15:36:03.497188,164519.9375,187706.921875,179971.0625,197517.71875,188775.515625,187274.015625,691011.375,198796.328125,0.047119140625,1.00634765625,-0.022216796875,-1.6174315214157104,0.3967284858226776,0.6713866591453552,93.33334350585938,118017.0,1.0
15:36:03.497247,164526.28125,187704.59375,179975.0,197516.46875,188773.71875,187272.9375,690464.75,198794.015625,0.0478515625,1.005859375,-0.022705078125,-1.5258787870407104,0.2441406100988388,0.7019042372703552,93.33334350585938,118018.0,1.0
15:36:03.497262,164653.6875,187724.078125,179993.78125,197548.125,188789.546875,187274.8125,690637.75,198798.75,0.04638671875,1.0068359375,-0.023193359375,-1.4343260526657104,0.1831054538488388,0.6408690810203552,93.33334350585938,118019.0,1.0
15:36:03.500338,164649.9375,187729.359375,179989.125,197513.078125,188792.59375,187276.953125,691272.4375,198790.25,0.046875,1.007080078125,-0.023193359375,-1.3122557401657104,0.2136230319738388,0.7019042372703552,93.33334350585938,118020.0,1.0
15:36:03.500373,164530.390625,187702.1875,179967.5,197509.59375,188772.828125,187267.65625,691128.5625,198788.828125,0.047607421875,1.006591796875,-0.024169921875,-1.2512205839157104,0.3051757514476776,0.6408690810203552,93.33334350585938,118021.0,1.0
15:36:03.531124,164508.9375,187694.671875,179968.921875,197513.96875,188768.265625,187265.609375,690506.75,198791.59375,0.048828125,1.007080078125,-0.0224609375,-1.2817381620407104,0.3662109076976776,0.6713866591453552,93.33334350585938,118022.0,1.0
15:36:03.548442,164633.03125,187714.96875,179991.1875,197543.296875,188784.453125,187268.5625,690556.75,198799.375,0.047119140625,1.00732421875,-0.023681640625,-1.2817381620407104,0.3967284858226776,0.7019042372703552,93.33334350585938,118023.0,1.0
15:36:03.550925,164661.640625,187723.90625,179989.578125,197520.5,188788.5625,187267.9375,691169.875,198791.59375,0.0458984375,1.00732421875,-0.024169921875,-1.0986326932907104,0.2441406100988388,0.7324218153953552,93.33334350585938,118024.0,1.0
15:36:03.555947,164551.765625,187706.296875,179973.21875,197508.703125,188775.6875,187265.703125,691235.0,198790.4375,0.04541015625,1.00830078125,-0.025634765625,-0.9765624403953552,0.2746581733226776,0.6713866591453552,93.33334350585938,118025.0,1.0
15:36:03.558451,164506.609375,187700.390625,179973.484375,197519.0625,188771.9375,187269.09375,690575.3125,198795.265625,0.047119140625,1.007568359375,-0.026123046875,-0.8544921278953552,0.3051757514476776,0.5798339247703552,93.33334350585938,118026.0,1.0
