Timestamp,Fz,FC3,FCz,FC4,Cz,C3,C4
15:02:49.946611,177641.03125,181559.5625,195544.953125,173746.375,169846.796875,193375.671875,688727.125,174060.375,0.07763671875,0.976806640625,-0.2177734375,-1.8310545682907104,-0.2746581733226776,0.03051757626235485,100.0,189970.0,1.0
15:02:49.946679,177596.515625,181544.09375,195534.140625,173747.53125,169843.140625,193344.296875,688665.875,174058.671875,0.0791015625,0.977783203125,-0.21875,-1.7700194120407104,-0.2441406100988388,-0.0915527269244194,100.0,189971.0,1.0
15:02:49.952849,177571.390625,181537.296875,195527.609375,173749.59375,169838.671875,193302.90625,688644.6875,174058.5,0.079345703125,0.97900390625,-0.216552734375,-1.6784666776657104,0.0,0.0,100.0,189972.0,1.0
15:02:49.952915,177607.0625,181551.25,195539.59375,173749.59375,169842.15625,193327.3125,688609.1875,174058.140625,0.07958984375,0.978515625,-0.2197265625,-1.4648436307907104,0.03051757626235485,0.0610351525247097,100.0,189973.0,1.0
15:02:49.964710,177652.03125,181564.03125,195551.9375,173746.90625,169849.125,193372.015625,688712.8125,174056.96875,0.07763671875,0.977783203125,-0.21875,-1.3732908964157104,0.1220703050494194,0.0915527269244194,100.0,189974.0,1.0
15:02:49.967172,177602.328125,181552.765625,195539.0625,173744.046875,169846.09375,193354.125,688674.0625,174052.859375,0.078125,0.97705078125,-0.218017578125,-1.1901854276657104,0.2746581733226776,0.0,100.0,189975.0,1.0
15:02:49.969678,177561.1875,181532.390625,195519.125,173740.65625,169833.21875,193298.4375,688640.75,174049.5625,0.076416015625,0.980224609375,-0.218017578125,-0.9155272841453552,0.3662109076976776,0.03051757626235485,100.0,189976.0,1.0
15:02:49.972202,177579.078125,181535.421875,195526.71875,173746.015625,169838.046875,193305.765625,688590.125,174056.0,0.075439453125,0.97998046875,-0.220947265625,-0.8239745497703552,0.4577636420726776,0.1525878757238388,100.0,189977.0,1.0
15:02:49.975274,177639.15625,181543.015625,195540.9375,173745.65625,169843.3125,193348.234375,688705.125,174058.578125,0.07470703125,0.979736328125,-0.219482421875,-0.6713866591453552,0.5187987685203552,0.1220703050494194,100.0,189978.0,1.0
15:02:49.975284,177601.609375,181537.75,195534.671875,173748.875,169845.375,193345.453125,688680.5,174061.09375,0.07421875,0.981201171875,-0.22216796875,-0.5798339247703552,0.5187987685203552,0.1220703050494194,100.0,189979.0,1.0
15:02:49.977184,177561.28125,181516.5625,195514.828125,173745.65625,169833.125,193289.3125,688648.9375,174058.234375,0.072021484375,0.98046875,-0.223876953125,-0.3967284858226776,0.5798339247703552,0.0,100.0,189980.0,1.0
15:02:49.987190,177572.015625,181529.4375,195522.78125,173750.75,169838.046875,193296.375,688594.875,174061.53125,0.0693359375,0.9814453125,-0.22216796875,-0.2441406100988388,0.6103515028953552,0.0610351525247097,100.0,189981.0,1.0
15:02:49.991745,177642.203125,181543.375,195537.890625,173746.90625,169840.453125,193341.25,688689.75,174058.5,0.0693359375,0.980712890625,-0.21875,-0.0610351525247097,0.5187987685203552,0.1525878757238388,100.0,189982.0,1.0
15:02:49.991752,177619.046875,181550.171875,195535.578125,173746.109375,169843.140625,193356.09375,688694.3125,174054.921875,0.06787109375,0.9814453125,-0.220458984375,-0.03051757626235485,0.4577636420726776,0.1831054538488388,100.0,189983.0,1.0
15:02:49.993572,177573.796875,181527.203125,195515.546875,173742.625,169831.609375,193303.171875,688649.0625,174052.953125,0.06591796875,0.9833984375,-0.2177734375,0.1220703050494194,0.4272460639476776,0.1220703050494194,100.0,189984.0,1.0
15:02:50.021111,177558.59375,181526.03125,195511.703125,173740.828125,169830.171875,193288.78125,688605.9375,174054.46875,0.06787109375,0.98486328125,-0.22021484375,0.1525878757238388,0.3967284858226776,0.0,100.0,189985.0,1.0
15:02:50.057116,177626.640625,181541.859375,195530.484375,173740.65625,169837.765625,193334.546875,688652.375,174059.125,0.067626953125,0.9833984375,-0.222900390625,0.1525878757238388,0.3356933295726776,0.03051757626235485,100.0,189986.0,1.0
15:02:50.057130,177623.15625,181555.71875,195540.9375,173747.09375,169852.609375,193368.796875,688695.8125,174066.984375,0.068359375,0.9853515625,-0.222900390625,0.2746581733226776,0.2441406100988388,0.1831054538488388,100.0,189987.0,1.0
15:02:50.057132,177583.09375,181544.546875,195532.09375,173749.59375,169851.71875,193330.4375,688650.9375,174071.28125,0.068359375,0.989990234375,-0.223388671875,0.3051757514476776,0.1220703050494194,0.2136230319738388,100.0,189988.0,1.0
15:02:50.059663,177558.15625,181533.1875,195524.84375,173748.078125,169846.171875,193304.0625,688617.375,174068.328125,0.068115234375,0.989990234375,-0.22509765625,0.3356933295726776,0.03051757626235485,0.1831054538488388,100.0,189989.0,1.0
15:02:50.062217,177621.8125,181544.09375,195540.140625,173747.453125,169846.4375,193333.921875,688620.4375,174067.96875,0.069091796875,0.98974609375,-0.223876953125,0.3051757514476776,-0.0610351525247097,0.2441406100988388,100.0,189990.0,1.0
15:02:50.064874,177637.90625,181560.375,195551.671875,173751.5625,169855.390625,193372.375,688691.625,174069.40625,0.069091796875,0.99072265625,-0.22119140625,0.2136230319738388,-0.0610351525247097,0.2746581733226776,100.0,189991.0,1.0
15:02:50.067160,177594.546875,181547.140625,195539.6875,173754.953125,169849.484375,193336.34375,688640.1875,174068.515625,0.068359375,0.992919921875,-0.22314453125,0.1831054538488388,-0.0610351525247097,0.2441406100988388,100.0,189992.0,1.0
15:02:50.069767,177565.390625,181532.65625,195527.4375,173755.046875,169839.109375,193292.625,688624.9375,174065.5625,0.068603515625,0.9921875,-0.22265625,0.03051757626235485,-0.0610351525247097,0.1525878757238388,100.0,189993.0,1.0
15:02:50.072258,177623.78125,181553.03125,195547.734375,173761.75,169849.84375,193331.421875,688609.375,174072.625,0.06884765625,0.99169921875,-0.22509765625,0.0,-0.1525878757238388,0.1831054538488388,100.0,189994.0,1.0
15:02:50.074904,177658.921875,181568.140625,195562.390625,173763.28125,169860.65625,193374.34375,688708.625,174076.109375,0.06787109375,0.989013671875,-0.225341796875,-0.1525878757238388,-0.2441406100988388,0.3662109076976776,100.0,189995.0,1.0
15:02:50.077256,177609.734375,181552.40625,195548.171875,173762.375,169855.921875,193344.46875,688647.6875,174074.140625,0.06884765625,0.98876953125,-0.223388671875,-0.3051757514476776,-0.2441406100988388,0.2746581733226776,100.0,189996.0,1.0
15:02:50.079792,177575.859375,181534.890625,195535.03125,173763.546875,169848.765625,193293.96875,688629.8125,174075.296875,0.0693359375,0.987060546875,-0.22314453125,-0.4272460639476776,-0.3051757514476776,0.3662109076976776,100.0,189997.0,1.0
15:02:50.082259,177615.546875,181549.90625,195550.421875,173765.421875,169857.4375,193317.75,688579.375,174078.34375,0.071044921875,0.98583984375,-0.225341796875,-0.5187987685203552,-0.3356933295726776,0.5187987685203552,100.0,189998.0,1.0
15:02:50.087277,177668.578125,181567.15625,195566.78125,173762.828125,169867.8125,193365.9375,688683.3125,174079.59375,0.073486328125,0.986083984375,-0.224853515625,-0.5187987685203552,-0.3356933295726776,0.4577636420726776,100.0,189999.0,1.0
15:02:50.089699,177623.78125,181564.484375,195555.953125,173759.609375,169866.46875,193358.15625,688650.9375,174075.03125,0.072509765625,0.986328125,-0.22607421875,-0.5493163466453552,-0.3356933295726776,0.5187987685203552,100.0,190000.0,1.0
15:02:50.092199,177577.5625,181539.453125,195528.515625,173745.84375,169845.28125,193302.28125,688646.9375,174059.84375,0.072509765625,0.986328125,-0.223876953125,-0.7324218153953552,-0.2746581733226776,0.5798339247703552,100.0,190001.0,1.0
15:02:50.094708,177588.109375,181545.171875,195528.0625,173738.6875,169839.5625,193310.765625,688581.375,174050.984375,0.075439453125,0.98779296875,-0.224853515625,-0.7324218153953552,-0.2746581733226776,0.5493163466453552,100.0,190002.0,1.0
15:02:50.098392,177647.46875,181562.953125,195540.84375,173734.578125,169841.796875,193363.4375,688684.0,174047.046875,0.07373046875,0.98388671875,-0.227783203125,-0.7934569716453552,-0.2136230319738388,0.6713866591453552,100.0,190003.0,1.0
15:02:50.098402,177612.15625,181568.859375,195537.1875,173738.421875,169843.9375,193371.125,688673.375,174047.234375,0.073486328125,0.9833984375,-0.228759765625,-0.8850097060203552,-0.2136230319738388,0.6408690810203552,100.0,190004.0,1.0
15:02:50.098404,177566.5625,181522.8125,195512.15625,173733.765625,169825.078125,193293.328125,688636.1875,174044.015625,0.073974609375,0.9814453125,-0.23095703125,-0.9460448622703552,-0.0915527269244194,0.6713866591453552,100.0,190005.0,1.0
15:02:50.100977,177565.390625,181531.484375,195513.671875,173735.203125,169825.078125,193294.671875,688583.5,174045.265625,0.072998046875,0.97900390625,-0.23046875,-1.0070799589157104,-0.0610351525247097,0.5798339247703552,100.0,190006.0,1.0
15:02:50.103593,177636.828125,181549.90625,195533.0625,173735.109375,169833.65625,193346.359375,688677.5625,174051.609375,0.07275390625,0.982177734375,-0.2275390625,-1.0070799589157104,-0.0915527269244194,0.6103515028953552,100.0,190007.0,1.0
15:02:50.105965,177611.34375,181554.5625,195532.984375,173736.8125,169839.828125,193360.65625,688685.8125,174052.78125,0.070068359375,0.983642578125,-0.22509765625,-1.0070799589157104,-0.0915527269244194,0.5493163466453552,100.0,190008.0,1.0
15:02:50.108984,177566.375,181533.546875,195513.484375,173734.671875,169828.828125,193307.546875,688639.3125,174050.8125,0.0703125,0.9853515625,-0.226806640625,-1.1291502714157104,-0.2136230319738388,0.3051757514476776,100.0,190009.0,1.0
15:02:50.108987,177555.03125,181533.546875,195511.609375,173737.703125,169828.03125,193293.328125,688602.0,174052.953125,0.070068359375,0.98486328125,-0.22802734375,-1.2512205839157104,-0.2136230319738388,0.2441406100988388,100.0,190010.0,1.0
15:02:50.110990,177622.078125,181543.015625,195524.84375,173731.359375,169830.625,193335.890625,688642.25,174050.453125,0.069580078125,0.985107421875,-0.2265625,-1.4038084745407104,-0.2441406100988388,0.03051757626235485,100.0,190011.0,1.0
15:02:50.113393,177616.890625,181551.703125,195530.828125,173734.390625,169839.734375,193363.703125,688689.75,174051.609375,0.06884765625,0.983642578125,-0.22900390625,-1.4648436307907104,-0.1831054538488388,-0.0610351525247097,100.0,190012.0,1.0
15:02:50.115901,177577.5625,181540.078125,195522.078125,173738.6875,169837.40625,193322.84375,688640.3125,174053.3125,0.07177734375,0.984130859375,-0.227294921875,-1.4038084745407104,-0.2136230319738388,-0.0915527269244194,100.0,190013.0,1.0
15:02:50.120246,177559.046875,181536.5,195521.171875,173742.265625,169835.453125,193294.5,688618.9375,174055.8125,0.07373046875,0.984619140625,-0.228515625,-1.3427733182907104,-0.2136230319738388,-0.2136230319738388,100.0,190014.0,1.0
15:02:50.120254,177622.703125,181546.421875,195537.984375,173745.03125,169840.453125,193326.6875,688634.5,174060.734375,0.0732421875,0.983154296875,-0.227294921875,-1.4038084745407104,-0.2136230319738388,-0.0915527269244194,100.0,190015.0,1.0
15:02:50.144758,177636.03125,181556.609375,195545.234375,173746.90625,169846.265625,193359.859375,688708.3125,174060.734375,0.07275390625,0.985595703125,-0.228271484375,-1.4953612089157104,-0.2441406100988388,-0.0610351525247097,100.0,190016.0,1.0
15:02:50.162003,177587.75,181543.375,195527.96875,173744.046875,169837.234375,193322.296875,688650.0625,174057.421875,0.0732421875,0.9853515625,-0.228271484375,-1.5258787870407104,-0.1525878757238388,-0.0915527269244194,100.0,190017.0,1.0
15:02:50.162018,177554.125,181528.453125,195512.0625,173739.046875,169825.4375,193281.890625,688629.5,174052.859375,0.072509765625,0.986328125,-0.229248046875,-1.5258787870407104,-0.2136230319738388,0.03051757626235485,100.0,190018.0,1.0
15:02:50.162019,177606.34375,181547.40625,195529.046875,173741.734375,169834.015625,193324.984375,688600.875,174058.578125,0.073974609375,0.986328125,-0.227294921875,-1.4953612089157104,-0.2441406100988388,0.0610351525247097,100.0,190019.0,1.0
15:02:50.163439,177637.1875,181549.1875,195536.921875,173740.65625,169838.3125,193351.71875,688696.375,174057.328125,0.072021484375,0.986083984375,-0.225341796875,-1.5869139432907104,-0.1525878757238388,0.0610351525247097,100.0,190020.0,1.0
15:02:50.166389,177589.09375,181538.015625,195525.109375,173742.890625,169833.84375,193325.703125,688649.3125,174055.546875,0.0693359375,0.98876953125,-0.22509765625,-1.5869139432907104,-0.1220703050494194,0.2441406100988388,100.0,190021.0,1.0
15:02:50.168396,177555.828125,181521.65625,195510.890625,173740.46875,169824.09375,193278.765625,688630.75,174050.890625,0.0693359375,0.984375,-0.225341796875,-1.6174315214157104,-0.1525878757238388,0.2746581733226776,100.0,190022.0,1.0
15:02:50.170898,177587.390625,181529.25,195520.46875,173739.484375,169827.3125,193296.46875,688588.5,174049.375,0.0693359375,0.984375,-0.224365234375,-1.6479490995407104,-0.0915527269244194,0.3356933295726776,100.0,190023.0,1.0
15:02:50.173432,177640.046875,181544.984375,195536.109375,173740.390625,169835.171875,193344.75,688697.5,174048.484375,0.0703125,0.985107421875,-0.22607421875,-1.7700194120407104,-0.1220703050494194,0.3051757514476776,100.0,190024.0,1.0
15:02:50.176575,177596.15625,181537.390625,195527.265625,173742.359375,169835.09375,193336.34375,688657.625,174046.609375,0.06787109375,0.9853515625,-0.22705078125,-1.8005369901657104,-0.1220703050494194,0.3356933295726776,100.0,190025.0,1.0
15:02:50.176583,177557.96875,181517.71875,195507.859375,173736.09375,169820.78125,193277.953125,688637.1875,174041.859375,0.068359375,0.98779296875,-0.225341796875,-1.7395018339157104,-0.0915527269244194,0.3662109076976776,100.0,190026.0,1.0
15:02:50.178388,177577.28125,181534.796875,195518.40625,173739.140625,169827.84375,193296.734375,688583.25,174044.546875,0.068115234375,0.987060546875,-0.224853515625,-1.8615721464157104,-0.1525878757238388,0.3051757514476776,100.0,190027.0,1.0
15:02:50.181621,177640.140625,181558.84375,195534.234375,173734.75,169834.1875,193354.21875,688678.375,174040.34375,0.0693359375,0.988037109375,-0.225341796875,-1.9226073026657104,-0.1220703050494194,0.3356933295726776,100.0,190028.0,1.0
15:02:50.181636,177599.1875,181544.984375,195524.046875,173730.015625,169828.46875,193341.078125,688661.9375,174032.921875,0.06787109375,0.98779296875,-0.226318359375,-1.8920897245407104,-0.1220703050494194,0.3356933295726776,100.0,190029.0,1.0
15:02:50.183437,177561.546875,181523.265625,195510.546875,173730.46875,169819.078125,193286.984375,688638.25,174034.53125,0.0673828125,0.987548828125,-0.22705078125,-1.9836424589157104,-0.0610351525247097,0.3356933295726776,100.0,190030.0,1.0
15:02:50.190286,177564.859375,181535.875,195515.546875,173733.140625,169822.75,193293.96875,688588.0625,174037.3125,0.068603515625,0.986328125,-0.224365234375,-2.075195074081421,-0.1525878757238388,0.3356933295726776,100.0,190031.0,1.0
15:02:50.190292,177628.421875,181543.5625,195526.1875,173725.015625,169822.125,193335.71875,688674.0625,174033.734375,0.06982421875,0.985107421875,-0.2236328125,-2.136230230331421,-0.1220703050494194,0.3356933295726776,100.0,190032.0,1.0
15:02:50.200300,177603.75,181545.96875,195524.75,173727.328125,169824.8125,193351.8125,688686.0,174033.1875,0.069580078125,0.9873046875,-0.222900390625,-2.044677495956421,-0.2441406100988388,0.3662109076976776,100.0,190033.0,1.0
15:02:50.200312,177558.328125,181520.40625,195504.28125,173726.53125,169813.0,193294.234375,688636.625,174034.53125,0.072021484375,0.98681640625,-0.220458984375,-2.075195074081421,-0.2136230319738388,0.3356933295726776,100.0,190034.0,1.0
15:02:50.202831,177543.140625,181516.734375,195501.59375,173729.296875,169812.5625,193275.0,688595.0625,174036.59375,0.071044921875,0.986572265625,-0.220947265625,-2.197265386581421,-0.1831054538488388,0.3662109076976776,100.0,190035.0,1.0
15:02:50.202839,177608.671875,181529.4375,195517.953125,173726.625,169819.4375,193319.265625,688637.0,174038.5625,0.072998046875,0.986328125,-0.22314453125,-2.227782964706421,-0.1525878757238388,0.3967284858226776,100.0,190036.0,1.0
15:02:50.213605,177602.40625,181537.03125,195523.5,173728.046875,169826.859375,193347.34375,688685.6875,174039.546875,0.071044921875,0.987548828125,-0.225830078125,-2.227782964706421,-0.03051757626235485,0.3662109076976776,100.0,190037.0,1.0
15:02:50.220289,177559.9375,181522.8125,195512.59375,173729.03125,169822.578125,193307.8125,688638.5,174041.328125,0.07373046875,0.986572265625,-0.225341796875,-2.258300542831421,-0.1220703050494194,0.3051757514476776,100.0,190038.0,1.0
15:02:50.220301,177540.1875,181518.4375,195511.25,173731.625,169823.28125,193281.625,688609.6875,174044.015625,0.07275390625,0.98828125,-0.2265625,-2.258300542831421,0.03051757626235485,0.2746581733226776,100.0,190039.0,1.0
15:02:50.223300,177603.390625,181534.0,195530.65625,173732.609375,169832.40625,193320.609375,688612.0625,174047.59375,0.07421875,0.9853515625,-0.222412109375,-2.197265386581421,0.0915527269244194,0.3051757514476776,100.0,190040.0,1.0
15:02:50.223369,177621.546875,181544.71875,195541.65625,173735.109375,169842.15625,193354.125,688691.0625,174050.1875,0.072998046875,0.985107421875,-0.22216796875,-2.288818120956421,0.2746581733226776,0.3967284858226776,100.0,190041.0,1.0
15:02:50.241616,177583.359375,181536.046875,195532.984375,173740.921875,169838.671875,193322.921875,688636.8125,174053.125,0.07275390625,0.984619140625,-0.222900390625,-2.410888433456421,0.1831054538488388,0.4882812201976776,100.0,190042.0,1.0
15:02:50.241682,177557.265625,181524.875,195520.375,173739.3125,169828.203125,193283.328125,688610.875,174048.03125,0.072509765625,0.985107421875,-0.221923828125,-2.410888433456421,0.2441406100988388,0.4272460639476776,100.0,190043.0,1.0
15:02:50.244696,177607.421875,181537.5625,195533.78125,173738.15625,169831.328125,193311.390625,688586.9375,174050.265625,0.07080078125,0.98291015625,-0.223388671875,-2.410888433456421,0.3662109076976776,0.4272460639476776,100.0,190044.0,1.0
15:02:50.244765,177643.890625,181552.59375,195546.125,173739.484375,169840.1875,193356.28125,688690.375,174052.59375,0.072509765625,0.98095703125,-0.221923828125,-2.349853277206421,0.3662109076976776,0.3662109076976776,100.0,190045.0,1.0
15:02:50.244792,177591.953125,181536.3125,195531.546875,173737.53125,169834.640625,193328.296875,688643.6875,174045.625,0.070068359375,0.981201171875,-0.22021484375,-2.319335699081421,0.4272460639476776,0.3051757514476776,100.0,190046.0,1.0
15:02:50.247205,177558.0625,181522.640625,195519.390625,173737.703125,169826.859375,193282.96875,688629.3125,174042.140625,0.069580078125,0.982666015625,-0.21875,-2.258300542831421,0.3967284858226776,0.3051757514476776,100.0,190047.0,1.0
15:02:50.262825,177592.125,181537.125,195533.875,173743.25,169833.75,193305.9375,688581.75,174047.046875,0.070556640625,0.9814453125,-0.22021484375,-2.166747808456421,0.4577636420726776,0.2441406100988388,100.0,190048.0,1.0
15:02:50.262844,177638.53125,181547.5,195544.328125,173740.03125,169835.171875,193348.859375,688685.375,174044.28125,0.0693359375,0.98193359375,-0.21923828125,-2.136230230331421,0.4577636420726776,0.3662109076976776,100.0,190049.0,1.0
15:02:50.265299,177599.109375,181548.75,195540.21875,173745.296875,169839.65625,193346.53125,688654.75,174047.140625,0.069580078125,0.9833984375,-0.21923828125,-2.105712652206421,0.4272460639476776,0.2746581733226776,100.0,190050.0,1.0
15:02:50.265303,177563.421875,181532.46875,195524.3125,173740.390625,169829.546875,193296.46875,688644.25,174043.03125,0.067138671875,0.983154296875,-0.219970703125,-2.014159917831421,0.4577636420726776,0.2441406100988388,100.0,190051.0,1.0
15:02:50.275344,177573.359375,181536.40625,195525.296875,173736.625,169827.3125,193302.28125,688589.625,174040.4375,0.06689453125,0.9814453125,-0.220458984375,-1.9531248807907104,0.4272460639476776,0.2136230319738388,100.0,190052.0,1.0
15:02:50.275370,177630.21875,181546.234375,195534.140625,173727.421875,169826.78125,193344.75,688702.1875,174035.609375,0.067626953125,0.9833984375,-0.21923828125,-1.9226073026657104,0.3662109076976776,0.2746581733226776,100.0,190053.0,1.0
15:02:50.282825,177599.734375,181550.53125,195532.890625,173732.421875,169831.6875,193350.90625,688685.5625,174038.828125,0.0693359375,0.983154296875,-0.2197265625,-1.8615721464157104,0.3662109076976776,0.3051757514476776,100.0,190054.0,1.0
15:02:50.282845,177558.0625,181524.875,195511.171875,173728.578125,169815.421875,193289.484375,688662.75,174036.140625,0.06884765625,0.98193359375,-0.219482421875,-1.8615721464157104,0.3051757514476776,0.3662109076976776,100.0,190055.0,1.0
15:02:50.285310,177555.828125,181527.46875,195512.859375,173732.515625,169816.765625,193284.578125,688609.25,174038.640625,0.06787109375,0.983154296875,-0.217529296875,-1.8920897245407104,0.3051757514476776,0.4272460639476776,100.0,190056.0,1.0
15:02:50.285337,177628.609375,181545.890625,195534.328125,173735.296875,169827.125,193334.46875,688679.125,174044.1875,0.069580078125,0.982666015625,-0.22021484375,-1.8005369901657104,0.2746581733226776,0.2441406100988388,100.0,190057.0,1.0
15:02:50.291029,177615.640625,181559.296875,195543.359375,173744.3125,169841.4375,193359.859375,688703.0625,174050.8125,0.067138671875,0.984375,-0.220458984375,-1.6784666776657104,0.2746581733226776,0.3967284858226776,100.0,190058.0,1.0
15:02:50.297145,177573.53125,181535.0625,195525.734375,173743.421875,169832.234375,193304.6875,688651.3125,174051.171875,0.06640625,0.984375,-0.220458984375,-1.5869139432907104,0.3051757514476776,0.4577636420726776,100.0,190059.0,1.0
15:02:50.307856,177557.4375,181530.328125,195521.53125,173745.75,169829.71875,193285.109375,688606.125,174052.421875,0.068603515625,0.982421875,-0.218994140625,-1.5563963651657104,0.2136230319738388,0.5187987685203552,100.0,190060.0,1.0
15:02:50.307877,177620.015625,181533.546875,195533.34375,173743.25,169829.8125,193320.609375,688648.1875,174052.328125,0.06787109375,0.984130859375,-0.215087890625,-1.5258787870407104,0.3356933295726776,0.5187987685203552,100.0,190061.0,1.0
15:02:50.310260,177613.046875,181542.046875,195535.125,173743.0625,169833.5625,193349.84375,688697.3125,174050.0,0.06640625,0.983642578125,-0.217529296875,-1.5563963651657104,0.1831054538488388,0.5187987685203552,100.0,190062.0,1.0
15:02:50.310271,177563.421875,181523.890625,195515.09375,173737.25,169822.03125,193304.421875,688639.6875,174042.84375,0.0673828125,0.9833984375,-0.215576171875,-1.4953612089157104,0.1220703050494194,0.5493163466453552,100.0,190063.0,1.0
15:02:50.324852,177538.03125,181505.46875,195503.921875,173735.015625,169814.609375,193261.953125,688614.625,174040.796875,0.06787109375,0.986328125,-0.220703125,-1.4648436307907104,0.03051757626235485,0.6408690810203552,100.0,190064.0,1.0
15:02:50.327997,177597.84375,181524.421875,195520.109375,173734.21875,169820.34375,193304.25,688618.1875,174042.578125,0.06787109375,0.98681640625,-0.221435546875,-1.4953612089157104,0.0,0.6408690810203552,100.0,190065.0,1.0
15:02:50.328032,177623.328125,181540.15625,195535.125,173742.0,169833.84375,193347.78125,688701.1875,174048.65625,0.068115234375,0.986572265625,-0.221923828125,-1.3122557401657104,0.03051757626235485,0.5798339247703552,100.0,190066.0,1.0
15:02:50.330300,177584.890625,181532.921875,195526.453125,173746.5625,169833.84375,193318.640625,688651.5625,174051.796875,0.068359375,0.98681640625,-0.222900390625,-1.3427733182907104,0.0,0.7324218153953552,100.0,190067.0,1.0
15:02:50.330327,177556.984375,181522.734375,195515.546875,173745.484375,169826.59375,193278.84375,688635.4375,174050.1875,0.0703125,0.986572265625,-0.22216796875,-1.3122557401657104,-0.0610351525247097,0.7324218153953552,100.0,190068.0,1.0
15:02:50.345278,177605.71875,181532.203125,195528.78125,173745.125,169830.265625,193307.109375,688605.9375,174051.96875,0.069091796875,0.986328125,-0.222412109375,-1.3427733182907104,-0.1220703050494194,0.7324218153953552,100.0,190069.0,1.0
15:02:50.345297,177642.109375,181545.171875,195541.203125,173742.890625,169837.328125,193350.203125,688702.8125,174051.078125,0.069580078125,0.985107421875,-0.223388671875,-1.3122557401657104,-0.0610351525247097,0.7629393935203552,100.0,190070.0,1.0
15:02:50.347866,177599.015625,181540.609375,195531.734375,173745.84375,169837.328125,193333.5625,688656.5,174052.859375,0.07177734375,0.98388671875,-0.218505859375,-1.3427733182907104,-0.0610351525247097,0.8544921278953552,100.0,190071.0,1.0
15:02:50.347875,177566.828125,181526.484375,195517.25,173743.34375,169825.796875,193285.640625,688626.25,174050.625,0.070068359375,0.985595703125,-0.21923828125,-1.3427733182907104,0.0,0.9155272841453552,100.0,190072.0,1.0
15:02:50.353547,177591.953125,181533.09375,195523.765625,173738.421875,169825.34375,193301.109375,688577.4375,174046.421875,0.069091796875,0.9833984375,-0.218017578125,-1.3732908964157104,-0.0915527269244194,0.9155272841453552,100.0,190073.0,1.0
15:02:50.364087,177642.640625,181543.203125,195540.484375,173739.046875,169833.84375,193344.65625,688679.25,174048.65625,0.0703125,0.984619140625,-0.22119140625,-1.3427733182907104,0.0,0.7629393935203552,100.0,190074.0,1.0
15:02:50.364103,177603.484375,181542.671875,195537.546875,173745.75,169839.203125,193341.703125,688653.5,174054.390625,0.0703125,0.983642578125,-0.224609375,-1.3122557401657104,0.03051757626235485,0.7629393935203552,100.0,190075.0,1.0
15:02:50.366477,177572.375,181528.09375,195523.5,173745.578125,169829.8125,193291.015625,688637.4375,174052.953125,0.070556640625,0.985107421875,-0.223388671875,-1.3122557401657104,-0.03051757626235485,0.7019042372703552,100.0,190076.0,1.0
15:02:50.366479,177584.703125,181532.921875,195528.953125,173745.390625,169830.265625,193295.75,688582.625,174052.140625,0.0732421875,0.9833984375,-0.221923828125,-1.2207030057907104,0.0,0.7019042372703552,100.0,190077.0,1.0
15:02:50.392217,177643.984375,181540.96875,195539.59375,173738.59375,169829.359375,193337.0625,688676.5625,174047.59375,0.072998046875,0.98388671875,-0.218505859375,-1.2817381620407104,0.0915527269244194,0.8850097060203552,100.0,190078.0,1.0
15:02:50.421542,177605.09375,181538.828125,195532.625,173736.453125,169828.921875,193339.203125,688671.375,174044.90625,0.0732421875,0.983154296875,-0.222900390625,-1.1901854276657104,0.03051757626235485,0.8850097060203552,100.0,190079.0,1.0
15:02:50.421591,177559.21875,181516.109375,195510.359375,173731.71875,169813.09375,193282.0625,688636.625,174041.234375,0.07275390625,0.98388671875,-0.223388671875,-1.1901854276657104,0.0,0.9155272841453552,100.0,190080.0,1.0
15:02:50.423394,177554.125,181517.28125,195510.8125,173732.15625,169811.9375,193275.90625,688582.0625,174040.171875,0.07177734375,0.983642578125,-0.22021484375,-1.1596678495407104,0.03051757626235485,0.8239745497703552,100.0,190081.0,1.0
15:02:50.425997,177628.96875,181536.671875,195534.328125,173734.3125,169822.21875,193327.21875,688671.6875,174046.25,0.0732421875,0.983642578125,-0.220458984375,-1.1291502714157104,0.0610351525247097,0.7324218153953552,100.0,190082.0,1.0
15:02:50.428530,177610.453125,181541.234375,195537.0,173739.484375,169828.109375,193341.96875,688695.5625,174047.3125,0.07275390625,0.9814453125,-0.220458984375,-1.1901854276657104,0.0915527269244194,0.7934569716453552,100.0,190083.0,1.0
15:02:50.430982,177569.328125,181522.453125,195518.578125,173737.796875,169817.296875,193293.421875,688647.6875,174044.28125,0.07373046875,0.982177734375,-0.21826171875,-1.0986326932907104,0.1220703050494194,0.8544921278953552,100.0,190084.0,1.0
15:02:50.433396,177554.9375,181522.28125,195517.25,173739.3125,169818.453125,193279.03125,688611.75,174045.0,0.072265625,0.981201171875,-0.217041015625,-1.1596678495407104,0.0915527269244194,0.7324218153953552,100.0,190085.0,1.0
15:02:50.436030,177622.53125,181540.078125,195536.109375,173736.8125,169825.25,193324.890625,688648.1875,174046.609375,0.072998046875,0.982421875,-0.21923828125,-0.9765624403953552,0.2136230319738388,0.7629393935203552,100.0,190086.0,1.0
15:02:50.438417,177627.796875,181558.3125,195549.515625,173742.078125,169838.75,193363.515625,688708.3125,174051.171875,0.07080078125,0.985595703125,-0.22021484375,-1.0986326932907104,0.1220703050494194,0.7934569716453552,100.0,190087.0,1.0
15:02:50.440906,177578.890625,181534.171875,195529.5,173737.53125,169826.953125,193317.203125,688651.3125,174048.84375,0.072509765625,0.986083984375,-0.22119140625,-1.1291502714157104,0.2136230319738388,0.8239745497703552,100.0,190088.0,1.0
15:02:50.443397,177554.3125,181526.125,195520.46875,173736.8125,169821.234375,193284.125,688624.75,174047.140625,0.0732421875,0.98388671875,-0.223876953125,-1.0681151151657104,0.2441406100988388,0.7324218153953552,100.0,190089.0,1.0
15:02:50.445983,177614.390625,181538.640625,195535.578125,173736.90625,169825.34375,193319.890625,688621.6875,174047.5,0.07275390625,0.982421875,-0.223388671875,-1.0681151151657104,0.3356933295726776,0.7934569716453552,100.0,190090.0,1.0
15:02:50.450960,177630.75,181550.09375,195543.625,173736.1875,169830.890625,193358.78125,688701.625,174044.453125,0.072021484375,0.98388671875,-0.223388671875,-1.0375975370407104,0.3967284858226776,0.7019042372703552,100.0,190091.0,1.0
15:02:50.454186,177581.125,181534.4375,195528.15625,173735.734375,169823.109375,193324.53125,688645.3125,174043.03125,0.072265625,0.983154296875,-0.22265625,-1.0070799589157104,0.3967284858226776,0.7324218153953552,100.0,190092.0,1.0
15:02:50.454253,177552.15625,181521.296875,195516.0,173733.328125,169813.453125,193279.75,688611.5,174039.71875,0.0703125,0.984375,-0.224365234375,-1.0375975370407104,0.4577636420726776,0.7019042372703552,100.0,190093.0,1.0
15:02:50.456592,177598.390625,181535.421875,195530.75,173734.3125,169820.78125,193310.140625,688597.4375,174043.03125,0.0703125,0.983154296875,-0.223388671875,-1.1596678495407104,0.4577636420726776,0.5798339247703552,100.0,190094.0,1.0
15:02:50.456648,177640.3125,181545.96875,195546.125,173737.25,169830.890625,193353.234375,688711.625,174046.25,0.070068359375,0.985595703125,-0.22265625,-1.1291502714157104,0.5187987685203552,0.6408690810203552,100.0,190095.0,1.0
15:02:50.458436,177596.328125,181537.390625,195537.359375,173742.890625,169831.6875,193332.40625,688659.1875,174048.84375,0.071044921875,0.98583984375,-0.224853515625,-1.0681151151657104,0.5187987685203552,0.7019042372703552,100.0,190096.0,1.0
15:02:50.461534,177567.71875,181525.859375,195526.28125,173746.203125,169827.3125,193283.40625,688641.125,174048.84375,0.072021484375,0.98681640625,-0.22314453125,-1.0986326932907104,0.4577636420726776,0.5798339247703552,100.0,190097.0,1.0
15:02:50.461589,177596.515625,181540.078125,195537.984375,173746.640625,169832.9375,193304.953125,688591.1875,174050.625,0.072509765625,0.9853515625,-0.222900390625,-1.0681151151657104,0.5187987685203552,0.5493163466453552,100.0,190098.0,1.0
15:02:50.463445,177648.90625,181552.046875,195551.578125,173743.0625,169837.0625,193350.90625,688697.125,174049.46875,0.070068359375,0.986083984375,-0.223388671875,-1.0375975370407104,0.3967284858226776,0.5798339247703552,100.0,190099.0,1.0
15:02:50.467155,177602.765625,181546.78125,195541.296875,173742.359375,169834.828125,193343.140625,688665.9375,174049.5625,0.07080078125,0.985107421875,-0.2236328125,-1.1901854276657104,0.3967284858226776,0.7629393935203552,100.0,190100.0,1.0
15:02:50.467213,177569.953125,181543.375,195530.484375,173745.578125,169829.359375,193304.515625,688639.0625,174054.03125,0.072998046875,0.98681640625,-0.22216796875,-1.3122557401657104,0.2441406100988388,0.6408690810203552,100.0,190101.0,1.0
15:02:50.468385,177575.5,181527.28125,195527.078125,173742.625,169823.46875,193292.171875,688582.25,174051.875,0.073486328125,0.98583984375,-0.224365234375,-1.2207030057907104,0.3662109076976776,0.7019042372703552,100.0,190102.0,1.0
15:02:50.479091,177636.03125,181539.625,195538.53125,173738.59375,169824.8125,193336.609375,688676.4375,174050.0,0.07373046875,0.984375,-0.222412109375,-1.0986326932907104,0.3662109076976776,0.6408690810203552,100.0,190103.0,1.0
15:02:50.479109,177600.796875,181538.28125,195533.78125,173739.484375,169826.15625,193343.21875,688670.9375,174048.484375,0.072265625,0.987060546875,-0.219482421875,-1.1291502714157104,0.3967284858226776,0.7629393935203552,100.0,190104.0,1.0
15:02:50.480956,177562.09375,181517.546875,195516.34375,173736.90625,169815.953125,193289.84375,688635.5625,174045.625,0.07080078125,0.98486328125,-0.221435546875,-1.2207030057907104,0.3662109076976776,0.6103515028953552,100.0,190105.0,1.0
15:02:50.488449,177557.703125,181519.328125,195517.15625,173735.46875,169814.609375,193281.09375,688585.8125,174041.78125,0.07080078125,0.982421875,-0.22265625,-1.1596678495407104,0.3967284858226776,0.6408690810203552,100.0,190106.0,1.0
15:02:50.504650,177625.5625,181533.8125,195534.59375,173731.71875,169820.25,193328.203125,688653.875,174040.796875,0.069091796875,0.983642578125,-0.222412109375,-1.2817381620407104,0.3051757514476776,0.6103515028953552,100.0,190107.0,1.0
15:02:50.504659,177609.5625,181540.609375,195539.953125,173737.171875,169829.8125,193348.234375,688681.9375,174044.1875,0.069580078125,0.9833984375,-0.2236328125,-1.2512205839157104,0.2746581733226776,0.6408690810203552,100.0,190108.0,1.0
15:02:50.504660,177566.5625,181521.203125,195522.4375,173733.140625,169820.421875,193295.75,688632.125,174042.84375,0.071044921875,0.982666015625,-0.222900390625,-1.1901854276657104,0.2746581733226776,0.5798339247703552,100.0,190109.0,1.0
15:02:50.507266,177546.984375,181517.09375,195515.453125,173729.921875,169815.59375,193275.453125,688593.4375,174038.203125,0.071533203125,0.982421875,-0.224609375,-1.1596678495407104,0.2441406100988388,0.5493163466453552,100.0,190110.0,1.0
15:02:50.512198,177620.296875,181536.3125,195540.046875,173737.25,169828.828125,193324.8125,688625.8125,174048.21875,0.0712890625,0.984375,-0.22265625,-1.2512205839157104,0.2746581733226776,0.6103515028953552,100.0,190111.0,1.0
15:02:50.512214,177631.375,181555.09375,195555.25,173747.625,169844.125,193364.328125,688693.125,174057.421875,0.070068359375,0.985107421875,-0.22412109375,-1.2512205839157104,0.1831054538488388,0.6408690810203552,100.0,190112.0,1.0
15:02:50.512215,177589.984375,181541.40625,195541.65625,173749.78125,169838.9375,193325.875,688649.75,174057.875,0.069580078125,0.98388671875,-0.22021484375,-1.2512205839157104,0.2136230319738388,0.6713866591453552,100.0,190113.0,1.0
15:02:50.515926,177564.859375,181533.453125,195531.8125,173746.90625,169831.15625,193292.890625,688628.9375,174052.5,0.0693359375,0.9833984375,-0.222412109375,-1.2817381620407104,0.1831054538488388,0.5798339247703552,100.0,190114.0,1.0
15:02:50.522230,177615.109375,181537.65625,195538.25,173738.6875,169826.421875,193320.15625,688606.4375,174048.125,0.072265625,0.984130859375,-0.223388671875,-1.2207030057907104,0.03051757626235485,0.4882812201976776,100.0,190115.0,1.0
15:02:50.530399,177630.75,181547.765625,195541.46875,173733.234375,169828.203125,193356.015625,688687.5625,174043.5625,0.070556640625,0.984130859375,-0.226806640625,-1.2512205839157104,0.0,0.5493163466453552,100.0,190116.0,1.0
15:02:50.530470,177580.234375,181534.96875,195525.109375,173733.5,169822.484375,193323.828125,688640.9375,174041.78125,0.07177734375,0.984130859375,-0.22509765625,-1.2207030057907104,0.0,0.4882812201976776,100.0,190117.0,1.0
15:02:50.532788,177547.78125,181516.734375,195510.984375,173733.234375,169814.4375,193281.71875,688626.6875,174040.25,0.07080078125,0.9853515625,-0.223876953125,-1.2512205839157104,0.0915527269244194,0.6408690810203552,100.0,190118.0,1.0
15:02:50.532845,177589.171875,181525.765625,195523.5,173732.78125,169818.546875,193307.640625,688596.125,174042.21875,0.0703125,0.98681640625,-0.223876953125,-1.2207030057907104,0.1220703050494194,0.6713866591453552,100.0,190119.0,1.0
15:02:50.543540,177628.703125,181530.953125,195536.203125,173733.59375,169825.515625,193341.53125,688709.9375,174044.28125,0.072265625,0.98681640625,-0.224609375,-1.2512205839157104,0.03051757626235485,0.6713866591453552,100.0,190120.0,1.0
15:02:50.550439,177589.265625,181533.453125,195532.4375,173741.28125,169830.265625,193331.25,688659.0,174050.0,0.070556640625,0.984619140625,-0.223876953125,-1.2817381620407104,0.03051757626235485,0.5493163466453552,100.0,190121.0,1.0
15:02:50.550501,177552.703125,181517.28125,195516.4375,173736.453125,169819.078125,193281.0,688641.75,174045.984375,0.0712890625,0.984619140625,-0.22607421875,-1.3122557401657104,0.0,0.5187987685203552,100.0,190122.0,1.0
15:02:50.555844,177578.453125,181528.359375,195527.265625,173734.84375,169823.109375,193298.96875,688588.0625,174046.25,0.07080078125,0.985107421875,-0.223388671875,-1.3122557401657104,-0.03051757626235485,0.5493163466453552,100.0,190123.0,1.0
15:02:50.555916,177632.09375,181541.859375,195541.921875,173735.109375,169828.65625,193344.203125,688686.25,174047.234375,0.070068359375,0.9853515625,-0.2236328125,-1.2207030057907104,-0.0915527269244194,0.4882812201976776,100.0,190124.0,1.0
15:02:50.563764,177588.8125,181535.0625,195531.015625,173734.671875,169826.421875,193335.171875,688661.1875,174044.734375,0.0693359375,0.98388671875,-0.224853515625,-1.3122557401657104,-0.0610351525247097,0.4272460639476776,100.0,190125.0,1.0
15:02:50.579843,177549.21875,181512.890625,195512.859375,173732.34375,169814.53125,193280.109375,688634.375,174042.21875,0.06982421875,0.983154296875,-0.223876953125,-1.3122557401657104,-0.1220703050494194,0.4577636420726776,100.0,190126.0,1.0
15:02:50.579922,177561.90625,181524.421875,195520.46875,173735.109375,169818.375,193290.109375,688575.125,174042.765625,0.07080078125,0.983154296875,-0.222900390625,-1.3122557401657104,-0.1525878757238388,0.3662109076976776,100.0,190127.0,1.0
15:02:50.579949,177631.375,181541.140625,195540.84375,173734.9375,169828.109375,193340.1875,688674.625,174044.453125,0.072509765625,0.982177734375,-0.22314453125,-1.2512205839157104,-0.1220703050494194,0.3356933295726776,100.0,190128.0,1.0
15:02:50.587983,177603.296875,181545.703125,195539.859375,173738.953125,169834.28125,193352.96875,688679.75,174045.0,0.072021484375,0.98291015625,-0.224609375,-1.3427733182907104,-0.1220703050494194,0.2746581733226776,100.0,190129.0,1.0
15:02:50.588058,177559.9375,181523.625,195518.046875,173730.640625,169818.640625,193299.0625,688637.875,174040.796875,0.07177734375,0.983642578125,-0.222900390625,-1.3427733182907104,-0.1220703050494194,0.3967284858226776,100.0,190130.0,1.0
15:02:50.595886,177549.578125,181523.796875,195514.203125,173728.859375,169814.703125,193289.3125,688590.5625,174040.890625,0.07470703125,0.9853515625,-0.224365234375,-1.3427733182907104,-0.0915527269244194,0.4577636420726776,100.0,190131.0,1.0
15:02:50.595952,177615.28125,181536.9375,195527.609375,173724.921875,169818.1875,193334.1875,688662.375,174040.96875,0.0732421875,0.985107421875,-0.220458984375,-1.3732908964157104,-0.1525878757238388,0.3662109076976776,100.0,190132.0,1.0
15:02:50.595982,177599.734375,181540.078125,195531.1875,173729.84375,169824.71875,193352.703125,688691.1875,174044.1875,0.072998046875,0.986083984375,-0.220703125,-1.4953612089157104,-0.0610351525247097,0.3356933295726776,100.0,190133.0,1.0
15:02:50.599078,177554.3125,181514.59375,195510.625,173726.171875,169809.875,193294.234375,688632.9375,174039.1875,0.072509765625,0.984619140625,-0.223876953125,-1.4343260526657104,-0.1525878757238388,0.2746581733226776,100.0,190134.0,1.0
15:02:50.599148,177540.71875,181513.421875,195509.640625,173729.296875,169807.90625,193273.84375,688600.25,174038.921875,0.073486328125,0.987060546875,-0.22216796875,-1.4953612089157104,-0.1525878757238388,0.2441406100988388,100.0,190135.0,1.0
15:02:50.601060,177611.4375,181532.203125,195530.75,173732.703125,169816.9375,193319.703125,688634.75,174042.578125,0.071044921875,0.98486328125,-0.222900390625,-1.4953612089157104,-0.1220703050494194,0.3051757514476776,100.0,190136.0,1.0
15:02:50.611102,177613.140625,181539.453125,195536.921875,173732.78125,169823.46875,193346.890625,688698.0625,174040.25,0.069091796875,0.98486328125,-0.220947265625,-1.4953612089157104,-0.1220703050494194,0.2746581733226776,100.0,190137.0,1.0
15:02:50.615367,177568.796875,181526.84375,195524.21875,173732.609375,169819.265625,193308.265625,688643.0,174040.96875,0.0703125,0.984375,-0.221923828125,-1.4953612089157104,-0.1220703050494194,0.3356933295726776,100.0,190138.0,1.0
15:02:50.615428,177549.578125,181525.765625,195521.359375,173737.53125,169819.171875,193279.828125,688619.625,174043.125,0.071533203125,0.9853515625,-0.22412109375,-1.5563963651657104,-0.1220703050494194,0.3051757514476776,100.0,190139.0,1.0
15:02:50.627376,177601.875,181535.78125,195533.421875,173733.0625,169820.609375,193308.4375,688616.625,174040.890625,0.072021484375,0.9853515625,-0.223876953125,-1.5258787870407104,-0.0915527269244194,0.3967284858226776,100.0,190140.0,1.0
15:02:50.632128,177620.734375,181546.15625,195540.140625,173729.75,169827.21875,193349.21875,688707.875,174038.921875,0.07177734375,0.98583984375,-0.22412109375,-1.5563963651657104,-0.1831054538488388,0.4272460639476776,100.0,190141.0,1.0
15:02:50.632188,177571.828125,181530.0625,195524.75,173730.28125,169820.96875,193317.65625,688650.1875,174038.640625,0.069580078125,0.98583984375,-0.225341796875,-1.6479490995407104,-0.2136230319738388,0.3662109076976776,100.0,190142.0,1.0
15:02:50.637861,177538.9375,181504.671875,195509.203125,173730.640625,169809.703125,193260.609375,688641.875,174037.125,0.069580078125,0.987060546875,-0.22314453125,-1.6479490995407104,-0.1525878757238388,0.3356933295726776,100.0,190143.0,1.0
15:02:50.637871,177588.734375,181525.59375,195528.421875,173735.296875,169819.265625,193299.0625,688609.875,174043.125,0.07177734375,0.984619140625,-0.22216796875,-1.6479490995407104,-0.1831054538488388,0.3356933295726776,100.0,190144.0,1.0
15:02:50.639647,177637.09375,181547.21875,195548.09375,173741.8125,169833.390625,193351.546875,688718.875,174049.5625,0.0693359375,0.98583984375,-0.2265625,-1.7089842557907104,-0.1831054538488388,0.2746581733226776,100.0,190145.0,1.0
15:02:50.652826,177597.3125,181548.203125,195544.421875,173749.0625,169840.28125,193343.84375,688685.0625,174055.640625,0.070556640625,0.985595703125,-0.22216796875,-1.7700194120407104,-0.1831054538488388,0.3356933295726776,100.0,190146.0,1.0
15:02:50.652893,177573.4375,181542.578125,195540.9375,173756.484375,169844.75,193306.296875,688651.375,174066.09375,0.0693359375,0.984130859375,-0.222412109375,-1.7700194120407104,-0.2136230319738388,0.5187987685203552,100.0,190147.0,1.0
15:02:50.662893,177595.25,181549.546875,195547.828125,173752.546875,169848.140625,193320.515625,688612.0625,174065.203125,0.07080078125,0.984375,-0.2236328125,-1.7089842557907104,-0.2136230319738388,0.4577636420726776,100.0,190148.0,1.0
15:02:50.662914,177641.03125,181548.75,195550.328125,173735.828125,169843.140625,193352.4375,688718.8125,174051.4375,0.071044921875,0.983642578125,-0.224853515625,-1.7089842557907104,-0.2136230319738388,0.5187987685203552,100.0,190149.0,1.0
15:02:50.665301,177602.234375,181546.59375,195542.90625,173734.21875,169841.890625,193350.28125,688678.1875,174047.59375,0.068603515625,0.985595703125,-0.221923828125,-1.6784666776657104,-0.2441406100988388,0.4577636420726776,100.0,190150.0,1.0
15:02:50.665313,177564.140625,181526.65625,195524.125,173731.265625,169827.40625,193294.859375,688634.375,174041.6875,0.068115234375,0.98681640625,-0.22216796875,-1.6784666776657104,-0.1831054538488388,0.3051757514476776,100.0,190151.0,1.0
15:02:50.675414,177570.3125,181530.140625,195526.71875,173728.234375,169826.0625,193295.65625,688570.75,174038.375,0.06787109375,0.9853515625,-0.222412109375,-1.6479490995407104,-0.1525878757238388,0.5187987685203552,100.0,190152.0,1.0
15:02:50.675421,177637.8125,181541.6875,195543.625,173726.96875,169830.0,193337.234375,688671.125,174041.15625,0.0693359375,0.983642578125,-0.22265625,-1.7089842557907104,-0.1831054538488388,0.4577636420726776,100.0,190153.0,1.0
15:02:50.677752,177608.21875,181541.859375,195539.6875,173728.859375,169830.890625,193345.1875,688671.125,174040.4375,0.07080078125,0.98388671875,-0.224365234375,-1.7395018339157104,-0.2746581733226776,0.3662109076976776,100.0,190154.0,1.0
15:02:50.677759,177564.40625,181519.515625,195516.703125,173724.734375,169814.171875,193287.875,688635.1875,174037.21875,0.070068359375,0.98291015625,-0.219482421875,-1.6174315214157104,-0.2136230319738388,0.4577636420726776,100.0,190155.0,1.0
15:02:50.688544,177554.484375,181517.71875,195513.046875,173726.53125,169812.203125,193276.796875,688584.75,174039.28125,0.06982421875,0.982177734375,-0.220947265625,-1.6784666776657104,-0.2441406100988388,0.3967284858226776,100.0,190156.0,1.0
15:02:50.695360,177621.546875,181530.953125,195527.53125,173725.015625,169815.15625,193320.15625,688649.5625,174039.625,0.0712890625,0.98388671875,-0.2236328125,-1.6174315214157104,-0.1525878757238388,0.3662109076976776,100.0,190157.0,1.0
15:02:50.695390,177608.3125,181535.515625,195531.1875,173729.484375,169820.875,193339.375,688682.875,174041.6875,0.072509765625,0.98388671875,-0.220458984375,-1.5869139432907104,-0.2441406100988388,0.4272460639476776,100.0,190158.0,1.0
15:02:50.701719,177566.5625,181520.671875,195516.796875,173728.046875,169813.1875,193294.234375,688636.0625,174040.703125,0.071533203125,0.98583984375,-0.220703125,-1.6174315214157104,-0.1831054538488388,0.3967284858226776,100.0,190159.0,1.0
15:02:50.701729,177551.8125,181526.390625,195515.546875,173726.96875,169813.0,193278.046875,688605.9375,174040.171875,0.070556640625,0.985107421875,-0.22021484375,-1.5563963651657104,-0.3051757514476776,0.4272460639476776,100.0,190160.0,1.0
15:02:50.709050,177625.390625,181541.234375,195539.59375,173735.203125,169826.421875,193318.28125,688634.8125,174051.171875,0.070556640625,0.984130859375,-0.22216796875,-1.5869139432907104,-0.3051757514476776,0.4272460639476776,100.0,190161.0,1.0
15:02:50.709061,177634.59375,181555.0,195551.3125,173742.625,169838.9375,193353.421875,688701.625,174057.78125,0.0712890625,0.983154296875,-0.224609375,-1.6174315214157104,-0.1220703050494194,0.4272460639476776,100.0,190162.0,1.0
15:02:50.714707,177586.3125,181534.265625,195530.75,173733.140625,169827.046875,193308.796875,688648.875,174047.140625,0.071044921875,0.982177734375,-0.22216796875,-1.5258787870407104,-0.1525878757238388,0.5187987685203552,100.0,190163.0,1.0
15:02:50.721520,177562.171875,181525.40625,195522.609375,173732.515625,169822.578125,193276.4375,688631.6875,174046.15625,0.06982421875,0.982421875,-0.222412109375,-1.4953612089157104,-0.1220703050494194,0.3967284858226776,100.0,190164.0,1.0
15:02:50.721527,177615.546875,181539.890625,195537.09375,173732.515625,169827.484375,193314.703125,688630.5625,174048.03125,0.069580078125,0.982177734375,-0.2216796875,-1.4953612089157104,-0.1525878757238388,0.3051757514476776,100.0,190165.0,1.0
15:02:50.727765,177638.171875,181555.0,195546.484375,173734.3125,169834.640625,193359.5,688725.6875,174048.484375,0.070068359375,0.982421875,-0.2216796875,-1.4343260526657104,-0.1831054538488388,0.3662109076976776,100.0,190166.0,1.0
15:02:50.727778,177583.359375,181521.296875,195526.625,173729.296875,169824.8125,193309.078125,688667.0,174043.5625,0.072021484375,0.981201171875,-0.22119140625,-1.3427733182907104,-0.0610351525247097,0.3662109076976776,100.0,190167.0,1.0
15:02:50.729677,177549.921875,181508.78125,195513.671875,173727.0625,169815.234375,193263.65625,688634.125,174041.0625,0.072021484375,0.98046875,-0.22314453125,-1.2512205839157104,0.03051757626235485,0.3662109076976776,100.0,190168.0,1.0
15:02:50.758487,177592.671875,181524.875,195528.234375,173732.34375,169822.65625,193295.484375,688597.8125,174047.765625,0.07275390625,0.98046875,-0.2236328125,-1.3122557401657104,0.0915527269244194,0.4577636420726776,100.0,190169.0,1.0
15:02:50.794045,177630.65625,181534.34375,195536.734375,173731.09375,169826.15625,193338.578125,688697.0,174047.765625,0.07080078125,0.98193359375,-0.22509765625,-1.1291502714157104,0.1220703050494194,0.4272460639476776,100.0,190170.0,1.0
15:02:50.794058,177582.46875,181525.5,195523.234375,173728.578125,169821.953125,193323.28125,688662.625,174043.5625,0.0732421875,0.9814453125,-0.22607421875,-1.0681151151657104,0.1831054538488388,0.5187987685203552,100.0,190171.0,1.0
15:02:50.821521,177549.84375,181511.46875,195507.046875,173722.859375,169812.109375,193275.71875,688649.9375,174035.703125,0.073486328125,0.981689453125,-0.22607421875,-0.9155272841453552,0.1525878757238388,0.5187987685203552,100.0,190172.0,1.0
15:02:50.821540,177578.625,181529.34375,195522.34375,173728.40625,169822.65625,193301.03125,688601.25,174040.609375,0.072265625,0.979736328125,-0.22314453125,-0.9765624403953552,0.2441406100988388,0.4882812201976776,100.0,190173.0,1.0
15:02:50.823507,177631.921875,181541.40625,195535.65625,173723.40625,169826.59375,193346.078125,688718.375,174038.734375,0.0703125,0.9794921875,-0.225830078125,-0.9155272841453552,0.2136230319738388,0.4272460639476776,100.0,190174.0,1.0
15:02:50.825925,177590.703125,181537.65625,195529.765625,173724.375,169827.484375,193342.234375,688688.75,174038.5625,0.070068359375,0.978515625,-0.226318359375,-0.8850097060203552,0.2441406100988388,0.5187987685203552,100.0,190175.0,1.0
15:02:50.828438,177554.21875,181517.90625,195515.28125,173726.796875,169817.921875,193289.765625,688648.25,174040.171875,0.0712890625,0.9814453125,-0.2236328125,-0.8239745497703552,0.2136230319738388,0.4272460639476776,100.0,190176.0,1.0
15:02:50.830966,177567.0,181527.015625,195524.21875,173735.921875,169822.390625,193293.96875,688593.4375,174047.859375,0.070068359375,0.9833984375,-0.22509765625,-0.7324218153953552,0.2746581733226776,0.4882812201976776,100.0,190177.0,1.0
15:02:50.833446,177639.6875,181545.53125,195545.3125,173741.734375,169828.828125,193343.140625,688698.5,174055.546875,0.07177734375,0.985595703125,-0.224609375,-0.7324218153953552,0.2746581733226776,0.5798339247703552,100.0,190178.0,1.0
15:02:50.835934,177612.6875,181548.125,195543.171875,173742.625,169830.96875,193352.171875,688700.5625,174055.71875,0.072509765625,0.986572265625,-0.22705078125,-0.7629393935203552,0.2746581733226776,0.6103515028953552,100.0,190179.0,1.0
15:02:50.838412,177568.4375,181523.171875,195520.28125,173737.703125,169813.71875,193291.453125,688640.375,174050.453125,0.072998046875,0.98681640625,-0.226806640625,-0.7934569716453552,0.3051757514476776,0.4882812201976776,100.0,190180.0,1.0
15:02:50.840981,177561.734375,181527.109375,195517.515625,173737.796875,169811.3125,193282.96875,688587.1875,174047.59375,0.07275390625,0.986328125,-0.226318359375,-0.7934569716453552,0.2441406100988388,0.5493163466453552,100.0,190181.0,1.0
15:02:50.843455,177636.5625,181544.0,195539.78125,173740.828125,169820.515625,193330.0,688672.75,174052.6875,0.072509765625,0.986572265625,-0.22607421875,-0.8239745497703552,0.2441406100988388,0.6103515028953552,100.0,190182.0,1.0
15:02:50.846013,177634.328125,181561.0,195552.375,173753.34375,169835.796875,193361.109375,688712.25,174060.734375,0.0703125,0.984130859375,-0.225341796875,-0.7934569716453552,0.2746581733226776,0.5187987685203552,100.0,190183.0,1.0
15:02:50.848562,177594.90625,181547.140625,195537.71875,173752.71875,169828.203125,193313.625,688656.1875,174057.0625,0.06884765625,0.984130859375,-0.22509765625,-0.8544921278953552,0.2746581733226776,0.4577636420726776,100.0,190184.0,1.0
15:02:50.850969,177583.1875,181550.4375,195536.109375,173755.9375,169828.828125,193293.875,688619.625,174058.859375,0.0693359375,0.98486328125,-0.22607421875,-0.9155272841453552,0.3051757514476776,0.3662109076976776,100.0,190185.0,1.0
15:02:50.853571,177653.109375,181568.859375,195557.5625,173759.4375,169837.328125,193338.21875,688642.6875,174063.5,0.067626953125,0.985595703125,-0.2236328125,-0.9460448622703552,0.2441406100988388,0.1831054538488388,100.0,190186.0,1.0
15:02:50.855890,177664.09375,181584.234375,195571.15625,173765.234375,169851.265625,193377.015625,688710.8125,174070.296875,0.06591796875,0.987548828125,-0.218994140625,-0.8850097060203552,0.1831054538488388,0.1220703050494194,100.0,190187.0,1.0
15:02:50.858444,177621.8125,181566.171875,195558.90625,173768.1875,169846.359375,193331.421875,688654.9375,174073.703125,0.06591796875,0.992431640625,-0.220947265625,-1.0375975370407104,0.0,0.1220703050494194,100.0,190188.0,1.0
15:02:50.861018,177596.515625,181562.515625,195549.703125,173766.578125,169839.828125,193299.6875,688623.0625,174070.125,0.066162109375,0.992919921875,-0.22265625,-1.2207030057907104,-0.0610351525247097,0.0,100.0,190189.0,1.0
15:02:50.863510,177644.78125,181566.09375,195556.765625,173760.765625,169837.140625,193327.40625,688616.0,174068.59375,0.06689453125,0.99462890625,-0.22216796875,-1.4953612089157104,-0.0610351525247097,-0.03051757626235485,100.0,190190.0,1.0
15:02:50.869763,177671.875,181575.484375,195566.953125,173765.328125,169843.40625,193366.734375,688709.25,174070.484375,0.068359375,0.99365234375,-0.2255859375,-1.6174315214157104,-0.0915527269244194,0.03051757626235485,100.0,190191.0,1.0
15:02:50.872396,177629.953125,181568.953125,195557.203125,173772.125,169842.953125,193345.1875,688656.5,174071.640625,0.070068359375,0.992919921875,-0.222412109375,-1.7395018339157104,-0.2136230319738388,0.1220703050494194,100.0,190192.0,1.0
15:02:50.875828,177597.046875,181557.953125,195545.046875,173772.03125,169835.890625,193304.875,688638.3125,174070.296875,0.072509765625,0.993896484375,-0.22021484375,-1.8310545682907104,-0.2441406100988388,0.1525878757238388,100.0,190193.0,1.0
15:02:50.875837,177631.46875,181559.46875,195552.5625,173767.03125,169835.0,193321.5,688596.8125,174065.46875,0.072509765625,0.99072265625,-0.218017578125,-1.9226073026657104,-0.2441406100988388,0.2441406100988388,100.0,190194.0,1.0
15:02:50.875839,177672.953125,181570.203125,195562.75,173761.21875,169839.5625,193365.484375,688699.6875,174063.328125,0.072998046875,0.9912109375,-0.21826171875,-1.9531248807907104,-0.1831054538488388,0.3051757514476776,100.0,190195.0,1.0
15:02:50.879740,177633.25,181571.90625,195557.484375,173762.375,169843.84375,193358.78125,688665.25,174067.265625,0.072021484375,0.98828125,-0.221435546875,-1.9836424589157104,-0.0610351525247097,0.5187987685203552,100.0,190196.0,1.0
15:02:50.879755,177598.125,181556.875,195542.375,173756.921875,169834.828125,193309.515625,688649.5,174065.5625,0.07275390625,0.984130859375,-0.21826171875,-2.075195074081421,-0.03051757626235485,0.4882812201976776,100.0,190197.0,1.0
15:02:50.879758,177615.203125,181567.875,195549.875,173757.734375,169838.21875,193325.515625,688593.375,174067.96875,0.071044921875,0.984130859375,-0.219482421875,-2.075195074081421,-0.03051757626235485,0.6103515028953552,100.0,190198.0,1.0
15:02:50.882795,177675.453125,181595.859375,195569.734375,173757.828125,169849.65625,193385.875,688700.75,174071.1875,0.066650390625,0.984375,-0.220703125,-2.166747808456421,0.0,0.7019042372703552,100.0,190199.0,1.0
15:02:50.882807,177642.015625,181586.75,195567.84375,173765.859375,169855.46875,193379.96875,688688.1875,174075.84375,0.066162109375,0.982421875,-0.221923828125,-2.136230230331421,0.03051757626235485,0.6713866591453552,100.0,190200.0,1.0
15:02:50.885370,177604.734375,181557.234375,195548.265625,173763.28125,169841.609375,193316.9375,688653.25,174072.09375,0.066650390625,0.981201171875,-0.219970703125,-2.105712652206421,-0.03051757626235485,0.7324218153953552,100.0,190201.0,1.0
15:02:50.885377,177605.546875,181556.875,195546.390625,173760.6875,169839.65625,193313.0,688593.0,174068.59375,0.06591796875,0.9794921875,-0.2177734375,-2.166747808456421,0.03051757626235485,0.7629393935203552,100.0,190202.0,1.0
15:02:50.887325,177671.703125,181570.03125,195561.234375,173754.6875,169844.125,193358.609375,688692.25,174068.328125,0.064208984375,0.982177734375,-0.219970703125,-2.044677495956421,-0.0610351525247097,0.7629393935203552,100.0,190203.0,1.0
15:02:50.890490,177646.3125,181571.8125,195560.15625,173756.484375,169851.0,193371.03125,688708.0625,174070.203125,0.065673828125,0.981201171875,-0.2216796875,-2.044677495956421,-0.1525878757238388,0.7324218153953552,100.0,190204.0,1.0
15:02:50.890508,177609.03125,181555.625,195545.671875,173756.484375,169843.9375,193319.0,688657.75,174072.71875,0.06689453125,0.9814453125,-0.22119140625,-1.8920897245407104,-0.2136230319738388,0.6408690810203552,100.0,190205.0,1.0
15:02:50.892232,177596.78125,181555.09375,195541.109375,173755.578125,169838.9375,193304.875,688607.3125,174069.84375,0.06884765625,0.978271484375,-0.22265625,-1.9226073026657104,-0.2746581733226776,0.7019042372703552,100.0,190206.0,1.0
15:02:50.894697,177653.734375,181557.0625,195547.015625,173742.890625,169832.671875,193336.421875,688668.8125,174058.234375,0.070556640625,0.979248046875,-0.219970703125,-1.8920897245407104,-0.3662109076976776,0.7324218153953552,100.0,190207.0,1.0
15:02:50.897233,177645.5,181569.3125,195553.546875,173750.21875,169842.421875,193363.4375,688715.5625,174062.25,0.0703125,0.978271484375,-0.2197265625,-1.7700194120407104,-0.3356933295726776,0.6103515028953552,100.0,190208.0,1.0
15:02:50.899704,177605.890625,181556.609375,195539.15625,173751.921875,169835.71875,193320.96875,688665.0625,174062.515625,0.072021484375,0.979736328125,-0.22119140625,-1.7089842557907104,-0.3051757514476776,0.5798339247703552,100.0,190209.0,1.0
15:02:50.903999,177587.203125,181556.25,195532.984375,173751.109375,169831.328125,193300.046875,688628.125,174060.28125,0.07373046875,0.98095703125,-0.2236328125,-1.6174315214157104,-0.2746581733226776,0.5187987685203552,100.0,190210.0,1.0
15:02:50.904005,177650.59375,181569.484375,195548.0,173749.6875,169835.984375,193339.109375,688662.0,174059.03125,0.072509765625,0.980712890625,-0.221923828125,-1.5869139432907104,-0.2441406100988388,0.4577636420726776,100.0,190211.0,1.0
15:02:50.919068,177658.734375,181577.265625,195555.15625,173749.5,169843.84375,193371.203125,688738.5625,174057.25,0.0751953125,0.980712890625,-0.220947265625,-1.4648436307907104,-0.1831054538488388,0.4882812201976776,100.0,190212.0,1.0
15:02:50.919080,177616.09375,181563.234375,195544.15625,173750.9375,169840.453125,193334.46875,688678.625,174058.765625,0.07421875,0.97998046875,-0.221923828125,-1.3427733182907104,-0.1525878757238388,0.5187987685203552,100.0,190213.0,1.0
15:02:50.921571,177592.578125,181554.5625,195539.234375,173755.859375,169838.75,193298.703125,688645.5625,174061.984375,0.075439453125,0.9794921875,-0.2236328125,-1.1901854276657104,-0.1220703050494194,0.3967284858226776,100.0,190214.0,1.0
15:02:50.921643,177646.125,181568.5,195554.265625,173756.5625,169843.578125,193332.578125,688634.8125,174065.65625,0.07568359375,0.98095703125,-0.221435546875,-1.1291502714157104,0.03051757626235485,0.3967284858226776,100.0,190215.0,1.0
15:02:50.927351,177673.578125,181577.984375,195565.703125,173761.125,169850.28125,193369.234375,688727.375,174068.953125,0.07666015625,0.98291015625,-0.219482421875,-1.0070799589157104,0.03051757626235485,0.3967284858226776,100.0,190216.0,1.0
15:02:50.937851,177629.140625,181567.96875,195556.140625,173765.59375,169847.609375,193343.5,688681.3125,174070.828125,0.07666015625,0.9814453125,-0.220703125,-1.0375975370407104,0.1525878757238388,0.3967284858226776,100.0,190217.0,1.0
15:02:50.937923,177597.765625,181554.90625,195543.984375,173765.953125,169839.734375,193295.75,688654.125,174070.296875,0.076416015625,0.982666015625,-0.2236328125,-0.9765624403953552,0.1525878757238388,0.3356933295726776,100.0,190218.0,1.0
15:02:50.940319,177631.015625,181569.3125,195551.484375,173759.875,169840.453125,193324.359375,688601.9375,174067.96875,0.072998046875,0.98193359375,-0.222900390625,-0.8850097060203552,0.1525878757238388,0.3967284858226776,100.0,190219.0,1.0
15:02:50.940373,177670.265625,181567.703125,195559.796875,173755.578125,169843.9375,193359.59375,688699.1875,174064.9375,0.07470703125,0.982177734375,-0.224853515625,-0.9155272841453552,0.2441406100988388,0.4272460639476776,100.0,190220.0,1.0
15:02:50.949683,177623.234375,181553.65625,195548.984375,173758.359375,169841.796875,193335.265625,688668.25,174065.828125,0.07470703125,0.98291015625,-0.224365234375,-0.8239745497703552,0.3662109076976776,0.3967284858226776,100.0,190221.0,1.0
15:02:50.952753,177586.046875,181538.28125,195531.734375,173754.0625,169829.640625,193286.265625,688649.5625,174063.765625,0.073486328125,0.982666015625,-0.22509765625,-0.8239745497703552,0.3356933295726776,0.4272460639476776,100.0,190222.0,1.0
15:02:50.952763,177600.53125,181542.390625,195536.734375,173750.578125,169829.09375,193297.09375,688583.3125,174060.828125,0.07177734375,0.982666015625,-0.225341796875,-0.8544921278953552,0.4272460639476776,0.3967284858226776,100.0,190223.0,1.0
15:02:50.964677,177661.78125,181560.8125,195554.609375,173748.875,169836.96875,193348.234375,688684.8125,174063.40625,0.069580078125,0.984375,-0.226318359375,-0.8239745497703552,0.3967284858226776,0.3662109076976776,100.0,190224.0,1.0
15:02:50.975849,177624.765625,181558.578125,195547.015625,173749.859375,169837.0625,193348.046875,688674.0,174062.515625,0.0703125,0.984130859375,-0.2275390625,-0.7934569716453552,0.4272460639476776,0.3356933295726776,100.0,190225.0,1.0
15:02:50.975864,177587.84375,181538.90625,195529.046875,173747.265625,169825.171875,193291.90625,688652.4375,174061.359375,0.069580078125,0.9853515625,-0.226806640625,-0.8239745497703552,0.4272460639476776,0.2746581733226776,100.0,190226.0,1.0
15:02:50.975866,177587.484375,181543.296875,195525.828125,173740.828125,169822.296875,193289.3125,688583.625,174055.1875,0.068115234375,0.98486328125,-0.2255859375,-0.7324218153953552,0.3356933295726776,0.3356933295726776,100.0,190227.0,1.0
15:02:50.986518,177655.96875,181554.375,195542.28125,173739.3125,169829.015625,193334.375,688674.875,174056.171875,0.0693359375,0.986083984375,-0.22607421875,-0.7629393935203552,0.3356933295726776,0.3356933295726776,100.0,190228.0,1.0
15:02:50.986527,177636.03125,181558.578125,195546.03125,173748.515625,169840.28125,193349.484375,688684.0,174062.34375,0.07080078125,0.986328125,-0.225830078125,-0.7629393935203552,0.2746581733226776,0.2746581733226776,100.0,190229.0,1.0
15:02:50.986529,177596.421875,181539.171875,195530.296875,173750.125,169832.9375,193298.609375,688642.5,174064.9375,0.0712890625,0.9873046875,-0.2255859375,-0.7324218153953552,0.3051757514476776,0.3967284858226776,100.0,190230.0,1.0
15:02:50.989690,177587.296875,181539.625,195529.21875,173748.515625,169831.515625,193286.984375,688596.5,174060.90625,0.0693359375,0.988037109375,-0.225830078125,-0.7629393935203552,0.1525878757238388,0.3051757514476776,100.0,190231.0,1.0
15:02:50.994036,177653.109375,181552.859375,195542.8125,173741.28125,169832.234375,193330.171875,688666.5625,174054.921875,0.069091796875,0.989013671875,-0.221435546875,-0.8544921278953552,0.3051757514476776,0.2136230319738388,100.0,190232.0,1.0
15:02:50.994044,177642.109375,181560.640625,195545.140625,173741.90625,169836.25,193353.15625,688704.5625,174052.59375,0.067626953125,0.988525390625,-0.225341796875,-0.8239745497703552,0.1831054538488388,0.1220703050494194,100.0,190233.0,1.0
15:02:51.000364,177601.25,181546.6875,195530.5625,173741.28125,169828.390625,193310.6875,688645.5625,174052.421875,0.067138671875,0.988525390625,-0.22412109375,-0.8850097060203552,0.1525878757238388,0.1525878757238388,100.0,190234.0,1.0
15:02:51.000372,177576.75,181536.5,195519.484375,173738.421875,169822.390625,193282.15625,688608.125,174048.65625,0.066162109375,0.989013671875,-0.227294921875,-0.9765624403953552,0.03051757626235485,0.2136230319738388,100.0,190235.0,1.0
15:02:51.010312,177634.78125,181544.359375,195527.890625,173731.359375,169821.5,193314.703125,688640.75,174044.640625,0.068359375,0.98681640625,-0.224853515625,-1.1291502714157104,0.1220703050494194,0.3356933295726776,100.0,190236.0,1.0
15:02:51.010326,177636.296875,181547.84375,195528.515625,173728.578125,169822.84375,193343.671875,688711.9375,174041.328125,0.066162109375,0.984619140625,-0.224365234375,-1.1901854276657104,0.0610351525247097,0.3967284858226776,100.0,190237.0,1.0
15:02:51.012294,177588.109375,181532.296875,195511.34375,173727.25,169813.453125,193305.5,688656.125,174041.328125,0.068115234375,0.983642578125,-0.22412109375,-1.2207030057907104,0.0610351525247097,0.3662109076976776,100.0,190238.0,1.0
15:02:51.015968,177564.328125,181524.25,195505.171875,173733.328125,169809.875,193268.921875,688634.75,174045.984375,0.069580078125,0.986328125,-0.226806640625,-1.2207030057907104,-0.03051757626235485,0.3967284858226776,100.0,190239.0,1.0
15:02:51.031582,177615.828125,181538.734375,195518.578125,173731.796875,169812.921875,193301.828125,688610.625,174047.40625,0.071044921875,0.986328125,-0.228759765625,-1.2512205839157104,-0.1831054538488388,0.5493163466453552,100.0,190240.0,1.0
15:02:51.031599,177647.5625,181549.90625,195534.328125,173735.109375,169823.015625,193341.171875,688698.5625,174050.53125,0.07421875,0.987548828125,-0.226318359375,-1.3122557401657104,-0.0610351525247097,0.7324218153953552,100.0,190241.0,1.0
15:02:51.037777,177605.359375,181531.75,195526.09375,173740.296875,169821.59375,193306.65625,688652.8125,174055.1875,0.07470703125,0.9892578125,-0.22607421875,-1.3732908964157104,0.0610351525247097,0.8239745497703552,100.0,190242.0,1.0
15:02:51.037798,177578.1875,181526.390625,195516.703125,173745.296875,169816.84375,193266.15625,688641.0,174060.28125,0.074462890625,0.986572265625,-0.225830078125,-1.5258787870407104,0.0915527269244194,0.8850097060203552,100.0,190243.0,1.0
15:02:51.037800,177618.328125,181542.484375,195531.90625,173751.734375,169824.453125,193293.6875,688601.75,174066.09375,0.07275390625,0.986328125,-0.224609375,-1.6479490995407104,0.03051757626235485,0.8850097060203552,100.0,190244.0,1.0
15:02:51.041519,177659.984375,181548.828125,195541.203125,173747.09375,169826.234375,193333.65625,688713.6875,174060.828125,0.071044921875,0.98388671875,-0.224365234375,-1.6479490995407104,0.0915527269244194,0.9765624403953552,100.0,190245.0,1.0
15:02:51.041538,177613.40625,181543.109375,195530.203125,173743.96875,169824.1875,193320.609375,688662.1875,174056.265625,0.07080078125,0.982666015625,-0.221923828125,-1.6479490995407104,0.1831054538488388,0.9155272841453552,100.0,190246.0,1.0
15:02:51.055973,177577.015625,181518.34375,195511.25,173742.53125,169811.390625,193262.046875,688651.0,174053.40625,0.06884765625,0.982666015625,-0.223388671875,-1.6479490995407104,0.1831054538488388,1.0070799589157104,100.0,190247.0,1.0
15:02:51.060303,177596.328125,181526.921875,195520.640625,173747.453125,169816.765625,193276.34375,688597.375,174058.234375,0.067626953125,0.984375,-0.224365234375,-1.7089842557907104,0.1831054538488388,0.9155272841453552,100.0,190248.0,1.0
15:02:51.060322,177661.328125,181544.625,195541.65625,173748.4375,169828.390625,193327.40625,688709.375,174061.71875,0.068115234375,0.9853515625,-0.2216796875,-1.7700194120407104,0.1831054538488388,0.7629393935203552,100.0,190249.0,1.0
15:02:51.060324,177626.015625,181545.609375,195540.21875,173753.703125,169834.375,193331.328125,688690.1875,174062.875,0.06884765625,0.9853515625,-0.223876953125,-1.9531248807907104,0.0915527269244194,0.6408690810203552,100.0,190250.0,1.0
15:02:51.075525,177587.5625,181527.5625,195523.953125,173752.09375,169824.890625,193279.390625,688655.6875,174061.796875,0.0693359375,0.983154296875,-0.223876953125,-1.9531248807907104,0.0610351525247097,0.4882812201976776,100.0,190251.0,1.0
15:02:51.075541,177587.5625,181530.0625,195524.671875,173749.5,169824.8125,193278.765625,688605.3125,174059.84375,0.0693359375,0.981689453125,-0.225341796875,-1.9226073026657104,-0.0610351525247097,0.5187987685203552,100.0,190252.0,1.0
15:02:51.080320,177648.359375,181539.625,195532.890625,173739.3125,169823.5625,193323.28125,688695.125,174052.234375,0.069091796875,0.980712890625,-0.22705078125,-1.9226073026657104,-0.0915527269244194,0.3967284858226776,100.0,190253.0,1.0
15:02:51.080384,177621.0,181541.859375,195530.5625,173740.75,169827.75,193339.015625,688710.125,174050.1875,0.073486328125,0.982666015625,-0.224365234375,-1.9531248807907104,-0.03051757626235485,0.3356933295726776,100.0,190254.0,1.0
15:02:51.087265,177575.140625,181519.6875,195509.28125,173734.390625,169813.71875,193286.1875,688662.375,174043.75,0.074951171875,0.984130859375,-0.228515625,-2.075195074081421,0.03051757626235485,0.2441406100988388,100.0,190255.0,1.0
15:02:51.093523,177568.875,181525.5,195513.9375,173741.546875,169817.46875,193274.734375,688619.1875,174048.84375,0.07568359375,0.98291015625,-0.22412109375,-2.136230230331421,-0.03051757626235485,0.3356933295726776,100.0,190256.0,1.0
15:02:51.095922,177641.03125,181540.78125,195532.984375,173740.203125,169822.84375,193319.171875,688673.9375,174052.6875,0.075927734375,0.98193359375,-0.225830078125,-2.075195074081421,0.03051757626235485,0.4577636420726776,100.0,190257.0,1.0
15:02:51.098996,177631.734375,181543.734375,195534.671875,173742.171875,169826.78125,193341.34375,688716.8125,174055.640625,0.076171875,0.98486328125,-0.223876953125,-1.9836424589157104,0.1525878757238388,0.5187987685203552,100.0,190258.0,1.0
15:02:51.099013,177584.078125,181521.03125,195514.109375,173739.9375,169814.53125,193292.890625,688657.875,174053.125,0.07666015625,0.984375,-0.2255859375,-1.9531248807907104,0.2441406100988388,0.4272460639476776,100.0,190259.0,1.0
15:02:51.100916,177562.984375,181512.984375,195507.140625,173739.765625,169810.234375,193261.78125,688628.5625,174052.6875,0.072998046875,0.984375,-0.224853515625,-2.014159917831421,0.3356933295726776,0.5187987685203552,100.0,190260.0,1.0
15:02:51.103525,177630.75,181528.984375,195527.890625,173740.46875,169818.90625,193300.671875,688640.125,174057.78125,0.072265625,0.9853515625,-0.225341796875,-2.044677495956421,0.2441406100988388,0.4882812201976776,100.0,190261.0,1.0
15:02:51.107176,177644.609375,181545.34375,195540.140625,173744.234375,169830.625,193340.359375,688715.1875,174060.734375,0.072021484375,0.985107421875,-0.227294921875,-2.075195074081421,0.3356933295726776,0.4577636420726776,100.0,190262.0,1.0
15:02:51.136620,177596.6875,181537.125,195524.671875,173742.078125,169823.015625,193307.8125,688661.0625,174058.046875,0.070556640625,0.985107421875,-0.228515625,-1.9531248807907104,0.3662109076976776,0.3051757514476776,100.0,190263.0,1.0
15:02:51.136635,177565.484375,181522.640625,195510.1875,173737.171875,169812.375,193265.34375,688633.4375,174050.265625,0.0703125,0.986083984375,-0.225341796875,-1.9226073026657104,0.2136230319738388,0.3356933295726776,100.0,190264.0,1.0
15:02:51.155947,177615.734375,181522.8125,195522.96875,173738.0625,169815.953125,193286.625,688622.125,174054.03125,0.0693359375,0.986083984375,-0.224609375,-2.044677495956421,0.3051757514476776,0.3051757514476776,100.0,190265.0,1.0
15:02:51.158498,177644.703125,181538.734375,195532.53125,173737.25,169822.125,193330.890625,688721.0,174051.96875,0.069580078125,0.987060546875,-0.223876953125,-1.9836424589157104,0.1525878757238388,0.4272460639476776,100.0,190266.0,1.0
15:02:51.160881,177594.09375,181526.390625,195518.671875,173736.453125,169816.671875,193303.34375,688668.125,174050.265625,0.0712890625,0.987548828125,-0.22314453125,-2.044677495956421,0.1220703050494194,0.4882812201976776,100.0,190267.0,1.0
15:02:51.163453,177560.03125,181509.40625,195502.578125,173731.265625,169805.234375,193255.15625,688637.875,174045.0,0.071044921875,0.9873046875,-0.223388671875,-2.044677495956421,0.1220703050494194,0.4272460639476776,100.0,190268.0,1.0
15:02:51.165915,177597.9375,181523.4375,195516.171875,173731.984375,169812.46875,193282.0625,688604.0,174047.3125,0.068359375,0.988525390625,-0.221435546875,-2.105712652206421,0.0915527269244194,0.4272460639476776,100.0,190269.0,1.0
15:02:51.168458,177649.078125,181541.328125,195534.40625,173734.578125,169822.578125,193330.890625,688721.5625,174050.71875,0.06884765625,0.988037109375,-0.219970703125,-2.227782964706421,0.0915527269244194,0.3662109076976776,100.0,190270.0,1.0
15:02:51.171482,177609.203125,181540.515625,195529.578125,173738.859375,169824.1875,193321.953125,688682.5625,174053.40625,0.06982421875,0.986328125,-0.220703125,-2.197265386581421,0.0610351525247097,0.2746581733226776,100.0,190271.0,1.0
15:02:51.171488,177572.015625,181522.8125,195512.0625,173737.703125,169810.859375,193267.5,688653.625,174050.0,0.06982421875,0.987060546875,-0.220703125,-2.166747808456421,0.1831054538488388,0.2746581733226776,100.0,190272.0,1.0
15:02:51.173533,177588.46875,181531.84375,195517.421875,173735.296875,169810.953125,193281.53125,688597.8125,174046.25,0.069580078125,0.98779296875,-0.22119140625,-2.166747808456421,0.0610351525247097,0.3051757514476776,100.0,190273.0,1.0
15:02:51.175922,177645.421875,181535.25,195527.796875,173731.453125,169811.671875,193323.734375,688705.9375,174043.125,0.069580078125,0.98583984375,-0.220947265625,-2.166747808456421,0.0,0.2746581733226776,100.0,190274.0,1.0
15:02:51.178403,177614.484375,181549.90625,195527.96875,173738.859375,169820.609375,193337.234375,688690.6875,174048.296875,0.069580078125,0.9833984375,-0.221435546875,-2.166747808456421,-0.03051757626235485,0.1831054538488388,100.0,190275.0,1.0
15:02:51.180945,177571.75,181520.046875,195506.421875,173733.328125,169807.109375,193278.140625,688648.1875,174045.0,0.07080078125,0.9833984375,-0.220703125,-2.288818120956421,0.0,0.1831054538488388,100.0,190276.0,1.0
15:02:51.185897,177573.796875,181518.609375,195512.59375,173737.703125,169811.484375,193273.578125,688598.625,174050.53125,0.069580078125,0.983642578125,-0.220947265625,-2.227782964706421,0.0,0.1220703050494194,100.0,190277.0,1.0
15:02:51.188981,177647.46875,181540.78125,195538.703125,173741.015625,169825.96875,193328.921875,688672.75,174057.0625,0.06982421875,0.98583984375,-0.220703125,-2.197265386581421,-0.0610351525247097,0.1220703050494194,100.0,190278.0,1.0
15:02:51.188987,177632.453125,181554.28125,195546.75,173748.4375,169837.765625,193351.625,688691.1875,174061.359375,0.070556640625,0.984130859375,-0.220458984375,-2.136230230331421,-0.0610351525247097,0.1525878757238388,100.0,190279.0,1.0
15:02:51.190914,177593.828125,181531.578125,195529.765625,173745.484375,169825.875,193296.828125,688650.75,174057.328125,0.070068359375,0.98486328125,-0.218017578125,-2.197265386581421,-0.1831054538488388,0.2136230319738388,100.0,190280.0,1.0
15:02:51.193979,177581.3125,181530.421875,195527.796875,173745.65625,169824.453125,193281.71875,688610.875,174056.96875,0.07080078125,0.98388671875,-0.2197265625,-2.227782964706421,-0.0610351525247097,0.2136230319738388,100.0,190281.0,1.0
15:02:51.193983,177646.671875,181547.140625,195541.65625,173739.578125,169824.625,193326.0625,688651.5625,174053.578125,0.0693359375,0.983642578125,-0.222412109375,-2.197265386581421,-0.1525878757238388,0.1831054538488388,100.0,190282.0,1.0
15:02:51.200284,177639.515625,181553.75,195544.515625,173738.78125,169829.09375,193351.453125,688702.25,174053.3125,0.071044921875,0.983154296875,-0.220458984375,-2.197265386581421,-0.0915527269244194,0.1525878757238388,100.0,190283.0,1.0
15:02:51.200303,177591.859375,181522.28125,195524.3125,173736.453125,169817.75,193293.875,688647.0,174054.46875,0.07080078125,0.982666015625,-0.21875,-2.227782964706421,0.0,0.2441406100988388,100.0,190284.0,1.0
15:02:51.206647,177567.1875,181516.375,195514.65625,173736.453125,169812.296875,193265.984375,688616.625,174053.75,0.07177734375,0.982421875,-0.22021484375,-2.197265386581421,-0.0915527269244194,0.1220703050494194,100.0,190285.0,1.0
15:02:51.206654,177622.34375,181526.84375,195526.09375,173733.765625,169814.796875,193300.40625,688627.75,174053.9375,0.0703125,0.984130859375,-0.2197265625,-2.105712652206421,-0.1525878757238388,0.0,100.0,190286.0,1.0
15:02:51.209013,177629.5,181532.65625,195532.0,173732.875,169820.15625,193332.40625,688702.8125,174053.3125,0.0703125,0.98486328125,-0.221435546875,-2.166747808456421,-0.1831054538488388,-0.03051757626235485,100.0,190287.0,1.0
15:02:51.209029,177583.546875,181520.40625,195517.15625,173731.09375,169812.203125,193297.09375,688647.6875,174049.203125,0.069580078125,0.983642578125,-0.22216796875,-2.105712652206421,-0.2746581733226776,-0.0915527269244194,100.0,190288.0,1.0
15:02:51.218610,177555.921875,181512.984375,195506.0625,173730.109375,169802.09375,193256.859375,688626.25,174046.25,0.068115234375,0.9833984375,-0.222412109375,-2.136230230331421,-0.2746581733226776,-0.0915527269244194,100.0,190289.0,1.0
15:02:51.222809,177603.65625,181520.40625,195516.796875,173727.515625,169802.359375,193283.046875,688603.75,174043.5625,0.067626953125,0.982666015625,-0.22216796875,-2.075195074081421,-0.3356933295726776,-0.1525878757238388,100.0,190290.0,1.0
15:02:51.222831,177638.171875,181534.4375,195528.953125,173728.578125,169809.25,193326.328125,688700.4375,174043.46875,0.0673828125,0.983642578125,-0.222412109375,-2.014159917831421,-0.2136230319738388,-0.0915527269244194,100.0,190291.0,1.0
15:02:51.229706,177596.0625,181533.640625,195520.90625,173727.78125,169808.71875,193313.265625,688654.0,174039.71875,0.066650390625,0.98388671875,-0.22021484375,-2.014159917831421,-0.2136230319738388,-0.0610351525247097,100.0,190292.0,1.0
15:02:51.237955,177563.515625,181515.484375,195506.34375,173724.203125,169800.578125,193262.578125,688648.25,174035.78125,0.066162109375,0.982666015625,-0.2216796875,-1.9531248807907104,-0.1831054538488388,-0.1220703050494194,100.0,190293.0,1.0
15:02:51.238031,177600.171875,181530.953125,195519.21875,173730.1875,169807.734375,193287.796875,688598.0625,174042.765625,0.067626953125,0.983154296875,-0.220703125,-1.9836424589157104,-0.1525878757238388,-0.03051757626235485,100.0,190294.0,1.0
15:02:51.240380,177651.671875,181543.015625,195534.234375,173730.8125,169814.53125,193330.625,688698.25,174044.546875,0.065673828125,0.982666015625,-0.219970703125,-1.8920897245407104,-0.1831054538488388,-0.0915527269244194,100.0,190295.0,1.0
15:02:51.240440,177611.265625,181541.859375,195529.046875,173735.5625,169817.65625,193321.671875,688663.0625,174049.46875,0.06591796875,0.982666015625,-0.219970703125,-1.9531248807907104,-0.3356933295726776,-0.1220703050494194,100.0,190296.0,1.0
15:02:51.250345,177574.25,181523.53125,195513.484375,173733.859375,169807.90625,193269.734375,688650.1875,174050.984375,0.066650390625,0.982421875,-0.220458984375,-1.8310545682907104,-0.3967284858226776,-0.0610351525247097,100.0,190297.0,1.0
15:02:51.254101,177590.421875,181533.640625,195523.0625,173739.21875,169815.6875,193284.03125,688593.25,174058.765625,0.067626953125,0.984130859375,-0.2216796875,-1.8310545682907104,-0.2441406100988388,-0.1220703050494194,100.0,190298.0,1.0
15:02:51.254165,177649.96875,181541.234375,195535.578125,173735.375,169820.96875,193332.671875,688704.5,174057.609375,0.06640625,0.984619140625,-0.220458984375,-1.7700194120407104,-0.2746581733226776,-0.03051757626235485,100.0,190299.0,1.0
15:02:51.263427,177613.5,181543.109375,195530.296875,173735.921875,169824.0,193336.703125,688689.5625,174054.828125,0.067138671875,0.984130859375,-0.219482421875,-1.7395018339157104,-0.3356933295726776,0.0610351525247097,100.0,190300.0,1.0
15:02:51.268643,177575.046875,181523.796875,195511.96875,173732.609375,169811.484375,193280.734375,688659.1875,174050.53125,0.067138671875,0.984375,-0.218505859375,-1.7395018339157104,-0.3967284858226776,-0.03051757626235485,100.0,190301.0,1.0
15:02:51.268712,177573.796875,181526.84375,195512.328125,173729.65625,169809.25,193276.078125,688602.125,174049.109375,0.065185546875,0.986083984375,-0.2216796875,-1.7089842557907104,-0.4577636420726776,0.0,100.0,190302.0,1.0
15:02:51.273533,177641.390625,181537.296875,195526.1875,173726.796875,169811.84375,193319.0,688678.125,174048.921875,0.06591796875,0.98583984375,-0.220458984375,-1.6784666776657104,-0.3967284858226776,0.0,100.0,190303.0,1.0
15:02:51.281545,177620.203125,181548.125,195528.59375,173730.1875,169819.890625,193340.625,688697.4375,174051.078125,0.06787109375,0.98388671875,-0.22265625,-1.6174315214157104,-0.3662109076976776,-0.03051757626235485,100.0,190304.0,1.0
15:02:51.281600,177575.671875,181512.171875,195506.15625,173725.28125,169802.09375,193271.875,688646.625,174045.796875,0.068359375,0.986328125,-0.221435546875,-1.5563963651657104,-0.3967284858226776,0.0915527269244194,100.0,190305.0,1.0
15:02:51.287882,177569.59375,181519.421875,195509.734375,173731.09375,169805.578125,193264.1875,688607.75,174050.71875,0.068359375,0.98486328125,-0.221435546875,-1.7089842557907104,-0.3051757514476776,0.0610351525247097,100.0,190306.0,1.0
15:02:51.287945,177636.46875,181525.59375,195525.375,173728.5,169809.78125,193300.21875,688656.125,174051.515625,0.068603515625,0.986572265625,-0.219482421875,-1.8005369901657104,-0.4577636420726776,0.2441406100988388,100.0,190307.0,1.0
15:02:51.292404,177634.5,181539.53125,195534.234375,173733.765625,169819.796875,193330.796875,688704.1875,174054.390625,0.068603515625,0.985595703125,-0.218017578125,-1.8310545682907104,-0.4882812201976776,0.2746581733226776,100.0,190308.0,1.0
15:02:51.298566,177592.9375,181525.765625,195521.453125,173736.90625,169814.34375,193291.375,688643.9375,174056.796875,0.06689453125,0.9873046875,-0.21875,-1.6784666776657104,-0.4272460639476776,0.1525878757238388,100.0,190309.0,1.0
15:02:51.305290,177569.78125,181517.28125,195512.859375,173735.296875,169808.796875,193260.171875,688611.3125,174052.953125,0.06689453125,0.9873046875,-0.22119140625,-1.6174315214157104,-0.3967284858226776,0.1525878757238388,100.0,190310.0,1.0
15:02:51.305348,177631.640625,181534.53125,195528.875,173732.875,169813.625,193300.40625,688629.1875,174053.125,0.0673828125,0.98583984375,-0.22314453125,-1.6479490995407104,-0.3356933295726776,0.2136230319738388,100.0,190311.0,1.0
15:02:51.311537,177642.640625,181546.421875,195532.71875,173728.765625,169816.578125,193338.484375,688706.875,174048.75,0.06884765625,0.98486328125,-0.221923828125,-1.5869139432907104,-0.3356933295726776,0.2441406100988388,100.0,190312.0,1.0
15:02:51.311573,177593.828125,181526.75,195513.84375,173727.515625,169806.203125,193299.6875,688658.1875,174044.640625,0.06787109375,0.9853515625,-0.219970703125,-1.6174315214157104,-0.2441406100988388,0.2441406100988388,100.0,190313.0,1.0
15:02:51.317210,177568.875,181520.046875,195503.296875,173726.625,169800.484375,193262.21875,688651.125,174044.453125,0.06884765625,0.984619140625,-0.220947265625,-1.6174315214157104,-0.1525878757238388,0.2746581733226776,100.0,190314.0,1.0
15:02:51.324045,177611.796875,181525.59375,195513.484375,173722.59375,169801.203125,193286.0,688615.0625,174042.671875,0.0693359375,0.9853515625,-0.219482421875,-1.6784666776657104,-0.1831054538488388,0.3662109076976776,100.0,190315.0,1.0
15:02:51.324079,177643.890625,181539.53125,195528.6875,173724.203125,169809.421875,193330.34375,688707.0625,174044.640625,0.06884765625,0.9853515625,-0.221435546875,-1.6479490995407104,-0.2746581733226776,0.3967284858226776,100.0,190316.0,1.0
15:02:51.333498,177598.5625,181530.234375,195519.84375,173725.71875,169808.984375,193309.25,688661.5625,174046.421875,0.06884765625,0.983642578125,-0.21923828125,-1.6479490995407104,-0.1220703050494194,0.3662109076976776,100.0,190317.0,1.0
15:02:51.337858,177569.328125,181517.71875,195507.5,173726.078125,169802.015625,193263.734375,688648.0625,174046.6875,0.06884765625,0.984375,-0.219482421875,-1.6479490995407104,-0.1220703050494194,0.3662109076976776,100.0,190318.0,1.0
15:02:51.337916,177601.421875,181533.28125,195519.5625,173728.40625,169808.265625,193289.84375,688604.1875,174050.625,0.0703125,0.984619140625,-0.220947265625,-1.5869139432907104,-0.1220703050494194,0.4577636420726776,100.0,190319.0,1.0
15:02:51.345328,177654.890625,181553.84375,195537.890625,173730.109375,169818.640625,193343.84375,688710.3125,174053.3125,0.070556640625,0.9833984375,-0.222900390625,-1.5258787870407104,-0.1220703050494194,0.3967284858226776,100.0,190320.0,1.0
15:02:51.345390,177622.609375,181556.171875,195538.609375,173740.828125,169825.875,193341.796875,688676.75,174061.453125,0.07177734375,0.985595703125,-0.221435546875,-1.5869139432907104,0.0,0.3662109076976776,100.0,190321.0,1.0
15:02:51.350984,177588.546875,181536.765625,195523.5,173739.484375,169814.34375,193281.625,688647.8125,174058.3125,0.069091796875,0.984375,-0.223388671875,-1.5258787870407104,0.0,0.3967284858226776,100.0,190322.0,1.0
15:02:51.359065,177605.09375,181547.84375,195534.40625,173741.09375,169821.046875,193298.875,688596.75,174060.734375,0.070068359375,0.984130859375,-0.222900390625,-1.4953612089157104,0.03051757626235485,0.4577636420726776,100.0,190323.0,1.0
15:02:51.359132,177667.5,181555.8125,195550.140625,173741.28125,169827.40625,193342.0625,688701.4375,174062.96875,0.069091796875,0.984130859375,-0.220703125,-1.4648436307907104,0.0610351525247097,0.3356933295726776,100.0,190324.0,1.0
15:02:51.366521,177630.484375,181551.875,195541.828125,173740.125,169826.421875,193339.828125,688682.6875,174059.5625,0.0693359375,0.982666015625,-0.21875,-1.4343260526657104,0.0915527269244194,0.3967284858226776,100.0,190325.0,1.0
15:02:51.366528,177589.171875,181524.96875,195518.9375,173733.40625,169809.703125,193278.3125,688638.875,174053.84375,0.069580078125,0.982666015625,-0.21923828125,-1.4343260526657104,0.1831054538488388,0.3356933295726776,100.0,190326.0,1.0
15:02:51.369100,177587.921875,181526.75,195519.390625,173734.03125,169809.15625,193273.125,688593.0625,174055.90625,0.069580078125,0.98486328125,-0.219482421875,-1.3732908964157104,0.1525878757238388,0.3967284858226776,100.0,190327.0,1.0
15:02:51.369110,177655.78125,181534.890625,195534.140625,173733.0625,169812.734375,193311.65625,688664.0625,174058.40625,0.069091796875,0.985107421875,-0.223388671875,-1.3732908964157104,0.2746581733226776,0.3967284858226776,100.0,190328.0,1.0
15:02:51.380998,177635.9375,181543.65625,195536.921875,173736.09375,169820.34375,193331.328125,688685.25,174059.84375,0.06884765625,0.983642578125,-0.222900390625,-1.3732908964157104,0.2746581733226776,0.3662109076976776,100.0,190329.0,1.0
15:02:51.387806,177593.375,181530.421875,195523.328125,173738.0625,169814.25,193288.59375,688647.375,174060.734375,0.069091796875,0.984130859375,-0.222900390625,-1.3427733182907104,0.2746581733226776,0.3662109076976776,100.0,190330.0,1.0
15:02:51.387876,177576.84375,181530.59375,195518.859375,173737.25,169809.15625,193269.015625,688611.0625,174058.234375,0.0693359375,0.98388671875,-0.2216796875,-1.3732908964157104,0.3356933295726776,0.3356933295726776,100.0,190331.0,1.0
15:02:51.387906,177643.625,181545.171875,195532.890625,173730.734375,169811.671875,193315.234375,688668.5625,174053.125,0.0693359375,0.984619140625,-0.22216796875,-1.3122557401657104,0.3051757514476776,0.3662109076976776,100.0,190332.0,1.0
15:02:51.394750,177642.375,181561.796875,195540.484375,173733.234375,169819.890625,193349.65625,688721.5,174052.421875,0.069091796875,0.98486328125,-0.22216796875,-1.3427733182907104,0.3356933295726776,0.3662109076976776,100.0,190333.0,1.0
15:02:51.405691,177598.828125,181548.5625,195523.328125,173732.78125,169810.328125,193308.71875,688655.6875,174050.265625,0.068603515625,0.9853515625,-0.22021484375,-1.4038084745407104,0.3356933295726776,0.3356933295726776,100.0,190334.0,1.0
15:02:51.405753,177573.265625,181534.0,195510.0,173729.203125,169798.96875,193273.3125,688628.3125,174044.1875,0.06884765625,0.987060546875,-0.2255859375,-1.4648436307907104,0.3356933295726776,0.3051757514476776,100.0,190335.0,1.0
15:02:51.407821,177632.546875,181558.3125,195525.734375,173726.890625,169803.625,193320.515625,688633.5,174044.28125,0.0673828125,0.987548828125,-0.224365234375,-1.4953612089157104,0.3051757514476776,0.4882812201976776,100.0,190336.0,1.0
15:02:51.407896,177649.703125,181557.953125,195533.78125,173729.03125,169811.390625,193347.875,688715.1875,174046.421875,0.06689453125,0.986572265625,-0.21875,-1.4648436307907104,0.2746581733226776,0.4882812201976776,100.0,190337.0,1.0
15:02:51.434995,177607.0625,181550.984375,195523.59375,173733.328125,169812.5625,193327.046875,688668.1875,174052.328125,0.065673828125,0.986572265625,-0.22216796875,-1.4343260526657104,0.3662109076976776,0.3967284858226776,100.0,190338.0,1.0
15:02:51.437917,177571.46875,181529.171875,195509.015625,173730.46875,169801.828125,193276.703125,688650.5,174050.625,0.065673828125,0.985107421875,-0.2197265625,-1.4343260526657104,0.2441406100988388,0.5187987685203552,100.0,190339.0,1.0
15:02:51.437993,177613.40625,181536.5,195519.75,173731.265625,169803.890625,193295.484375,688613.8125,174054.109375,0.06787109375,0.985595703125,-0.219482421875,-1.4953612089157104,0.3356933295726776,0.4882812201976776,100.0,190340.0,1.0
15:02:51.438023,177647.296875,181552.59375,195529.046875,173727.953125,169808.171875,193341.53125,688706.625,174051.609375,0.065673828125,0.9853515625,-0.2197265625,-1.4648436307907104,0.3662109076976776,0.5187987685203552,100.0,190341.0,1.0
15:02:51.440319,177606.703125,181553.65625,195523.40625,173735.640625,169811.390625,193325.796875,688667.9375,174057.875,0.066162109375,0.985107421875,-0.2197265625,-1.5258787870407104,0.3662109076976776,0.5493163466453552,100.0,190342.0,1.0
15:02:51.440385,177573.359375,181528.8125,195508.125,173736.625,169802.015625,193272.953125,688659.9375,174057.515625,0.0654296875,0.983642578125,-0.2197265625,-1.4648436307907104,0.2746581733226776,0.5798339247703552,100.0,190343.0,1.0
15:02:51.440410,177603.75,181538.015625,195519.75,173740.65625,169807.015625,193289.140625,688606.9375,174062.34375,0.0673828125,0.983642578125,-0.216552734375,-1.5258787870407104,0.3051757514476776,0.5187987685203552,100.0,190344.0,1.0
15:02:51.446665,177665.265625,181561.625,195544.328125,173747.453125,169820.78125,193341.34375,688711.75,174069.21875,0.067138671875,0.9853515625,-0.220703125,-1.5869139432907104,0.3356933295726776,0.6408690810203552,100.0,190345.0,1.0
15:02:51.446985,177628.96875,181560.640625,195543.890625,173755.9375,169826.59375,193335.09375,688680.625,174072.796875,0.068115234375,0.9853515625,-0.223388671875,-1.5869139432907104,0.2136230319738388,0.6713866591453552,100.0,190346.0,1.0
15:02:51.452777,177590.078125,181543.375,195525.46875,173750.21875,169814.34375,193285.640625,688640.0,174067.4375,0.067626953125,0.984375,-0.221923828125,-1.4648436307907104,0.2136230319738388,0.6408690810203552,100.0,190347.0,1.0
15:02:51.452800,177597.9375,181546.953125,195525.5625,173743.78125,169812.640625,193290.5625,688579.3125,174063.0625,0.067626953125,0.983154296875,-0.2216796875,-1.4953612089157104,0.3051757514476776,0.7019042372703552,100.0,190348.0,1.0
15:02:51.467908,177660.4375,181554.5625,195537.546875,173737.25,169815.328125,193330.890625,688686.25,174061.171875,0.068603515625,0.9853515625,-0.22119140625,-1.4953612089157104,0.3662109076976776,0.6103515028953552,100.0,190349.0,1.0
15:02:51.467928,177632.71875,181560.015625,195538.875,173746.015625,169823.46875,193340.984375,688680.1875,174068.234375,0.067626953125,0.985107421875,-0.22021484375,-1.5258787870407104,0.2746581733226776,0.6408690810203552,100.0,190350.0,1.0
15:02:51.467932,177592.03125,181541.234375,195521.09375,173743.0625,169810.765625,193285.46875,688650.1875,174064.84375,0.066162109375,0.985107421875,-0.219970703125,-1.4953612089157104,0.2441406100988388,0.7019042372703552,100.0,190351.0,1.0
15:02:51.469663,177587.65625,181541.59375,195520.640625,173743.609375,169810.953125,193279.484375,688598.625,174065.734375,0.06640625,0.9833984375,-0.223388671875,-1.5258787870407104,0.2136230319738388,0.7629393935203552,100.0,190352.0,1.0
15:02:51.520520,177656.59375,181557.328125,195536.28125,173740.828125,169816.40625,193328.921875,688667.625,174065.296875,0.065185546875,0.984375,-0.22021484375,-1.4343260526657104,0.0915527269244194,0.7324218153953552,100.0,190353.0,1.0
15:02:51.520576,177633.25,181563.046875,195533.515625,173738.15625,169819.171875,193349.65625,688690.0,174060.546875,0.067138671875,0.986083984375,-0.219482421875,-1.5258787870407104,0.1525878757238388,0.8239745497703552,100.0,190354.0,1.0
15:02:51.522879,177578.8125,181528.265625,195503.46875,173725.1875,169795.125,193285.375,688656.75,174047.3125,0.066162109375,0.984130859375,-0.220458984375,-1.5258787870407104,0.0915527269244194,0.6713866591453552,100.0,190355.0,1.0
15:02:51.522896,177555.03125,181512.09375,195491.859375,173718.84375,169782.875,193255.15625,688622.3125,174037.671875,0.067626953125,0.982666015625,-0.22119140625,-1.4648436307907104,0.1525878757238388,0.6408690810203552,100.0,190356.0,1.0
15:02:51.524788,177627.0,181536.5,195511.875,173720.53125,169790.828125,193308.09375,688662.125,174040.890625,0.06689453125,0.98486328125,-0.219970703125,-1.5258787870407104,0.0915527269244194,0.6408690810203552,100.0,190357.0,1.0
15:02:51.527221,177628.15625,181550.625,195520.1875,173724.296875,169802.71875,193344.03125,688722.1875,174043.921875,0.069580078125,0.98486328125,-0.21875,-1.5258787870407104,0.1220703050494194,0.6713866591453552,100.0,190358.0,1.0
15:02:51.529685,177586.140625,181533.90625,195508.84375,173726.53125,169801.109375,193308.890625,688659.875,174048.65625,0.06640625,0.984130859375,-0.22216796875,-1.6174315214157104,0.1220703050494194,0.6103515028953552,100.0,190359.0,1.0
15:02:51.532208,177562.0,181527.28125,195502.140625,173728.40625,169796.734375,193271.609375,688629.0,174050.984375,0.068603515625,0.98583984375,-0.220947265625,-1.5563963651657104,0.1220703050494194,0.6103515028953552,100.0,190360.0,1.0
15:02:51.534713,177619.671875,181542.578125,195518.40625,173726.890625,169801.65625,193302.984375,688637.875,174054.390625,0.067138671875,0.98681640625,-0.22314453125,-1.5563963651657104,0.1831054538488388,0.6103515028953552,100.0,190361.0,1.0
15:02:51.537197,177637.640625,181554.640625,195528.953125,173730.1875,169811.03125,193342.15625,688713.9375,174057.15625,0.06884765625,0.986328125,-0.222412109375,-1.4953612089157104,0.1831054538488388,0.5798339247703552,100.0,190362.0,1.0
15:02:51.539731,177592.21875,181539.53125,195515.453125,173732.875,169805.40625,193309.421875,688658.0625,174059.21875,0.070556640625,0.98486328125,-0.220947265625,-1.5563963651657104,0.2136230319738388,0.6408690810203552,100.0,190363.0,1.0
15:02:51.542231,177564.953125,181527.28125,195504.8125,173732.703125,169799.140625,193269.546875,688647.375,174060.46875,0.0703125,0.9833984375,-0.220947265625,-1.4648436307907104,0.1831054538488388,0.6713866591453552,100.0,190364.0,1.0
15:02:51.544735,177610.8125,181544.09375,195519.921875,173733.0625,169805.578125,193302.28125,688607.1875,174063.140625,0.071533203125,0.9833984375,-0.223876953125,-1.4648436307907104,0.1525878757238388,0.6103515028953552,100.0,190365.0,1.0
15:02:51.547392,177647.03125,181551.875,195529.5,173731.453125,169811.03125,193340.453125,688694.5,174061.453125,0.0693359375,0.983642578125,-0.21875,-1.4953612089157104,0.2746581733226776,0.5798339247703552,100.0,190366.0,1.0
15:02:51.549801,177608.9375,181546.515625,195526.0,173740.203125,169816.765625,193327.125,688651.75,174066.90625,0.06884765625,0.984130859375,-0.219482421875,-1.6479490995407104,0.2441406100988388,0.6408690810203552,100.0,190367.0,1.0
15:02:51.552382,177579.078125,181535.875,195518.140625,173743.609375,169812.5625,193284.578125,688640.1875,174069.765625,0.0693359375,0.983154296875,-0.222412109375,-1.5869139432907104,0.2441406100988388,0.6103515028953552,100.0,190368.0,1.0
15:02:51.555299,177604.28125,181543.46875,195527.34375,173743.96875,169814.078125,193301.46875,688585.5625,174069.9375,0.068359375,0.985107421875,-0.220703125,-1.5258787870407104,0.2746581733226776,0.4882812201976776,100.0,190369.0,1.0
15:02:51.555365,177659.8125,181557.953125,195543.171875,173743.6875,169822.125,193349.9375,688696.8125,174071.109375,0.068115234375,0.98583984375,-0.221435546875,-1.4953612089157104,0.2746581733226776,0.5187987685203552,100.0,190370.0,1.0
15:02:51.557182,177626.015625,181568.859375,195543.0,173750.046875,169831.328125,193354.21875,688678.375,174077.453125,0.069580078125,0.986083984375,-0.222412109375,-1.5563963651657104,0.2441406100988388,0.5493163466453552,100.0,190371.0,1.0
15:02:51.560302,177587.296875,181542.125,195524.75,173748.078125,169817.75,193295.75,688654.0625,174074.859375,0.07080078125,0.98486328125,-0.223388671875,-1.5258787870407104,0.3356933295726776,0.4882812201976776,100.0,190372.0,1.0
15:02:51.560369,177594.546875,181544.8125,195527.171875,173748.875,169817.46875,193299.859375,688611.125,174074.328125,0.07080078125,0.987548828125,-0.222900390625,-1.6784666776657104,0.3967284858226776,0.4882812201976776,100.0,190373.0,1.0
15:02:51.562234,177657.84375,181561.265625,195542.546875,173746.375,169824.0,193347.6875,688709.9375,174075.21875,0.06884765625,0.98583984375,-0.22021484375,-1.6784666776657104,0.3051757514476776,0.5187987685203552,100.0,190374.0,1.0
15:02:51.564804,177624.046875,181564.21875,195538.703125,173746.015625,169828.03125,193356.546875,688706.75,174073.78125,0.068359375,0.985595703125,-0.219482421875,-1.6479490995407104,0.3662109076976776,0.3967284858226776,100.0,190375.0,1.0
15:02:51.574034,177576.125,181538.640625,195512.859375,173735.5625,169809.609375,193297.890625,688655.375,174062.703125,0.06884765625,0.987060546875,-0.22314453125,-1.7089842557907104,0.3051757514476776,0.4272460639476776,100.0,190376.0,1.0
15:02:51.574052,177563.078125,181534.53125,195506.421875,173730.46875,169801.203125,193285.109375,688596.5625,174053.9375,0.070556640625,0.98779296875,-0.22314453125,-1.6784666776657104,0.2746581733226776,0.5493163466453552,100.0,190377.0,1.0
15:02:51.576543,177628.703125,181545.609375,195518.234375,173723.9375,169801.46875,193327.3125,688670.0625,174049.015625,0.069091796875,0.985595703125,-0.221435546875,-1.6784666776657104,0.2441406100988388,0.4882812201976776,100.0,190378.0,1.0
15:02:51.576566,177611.265625,181548.65625,195519.125,173724.46875,169806.484375,193344.03125,688685.375,174047.5,0.067138671875,0.9853515625,-0.221435546875,-1.6784666776657104,0.2746581733226776,0.5493163466453552,100.0,190379.0,1.0
15:02:51.579685,177568.53125,181528.625,195500.171875,173722.328125,169794.953125,193293.96875,688634.125,174045.71875,0.06884765625,0.984619140625,-0.221923828125,-1.8005369901657104,0.2441406100988388,0.6103515028953552,100.0,190380.0,1.0
15:02:51.595415,177554.046875,181525.046875,195495.421875,173724.375,169792.890625,193274.5625,688601.3125,174048.296875,0.06884765625,0.98291015625,-0.221923828125,-1.7089842557907104,0.3356933295726776,0.5493163466453552,100.0,190381.0,1.0
15:02:51.595443,177620.296875,181538.375,195511.515625,173724.5625,169798.25,193316.765625,688629.375,174051.34375,0.068359375,0.984619140625,-0.219970703125,-1.6479490995407104,0.2136230319738388,0.7019042372703552,100.0,190382.0,1.0
15:02:51.597793,177617.96875,181545.703125,195516.0,173725.90625,169803.890625,193343.3125,688682.875,174052.78125,0.06787109375,0.984130859375,-0.2236328125,-1.7089842557907104,0.2136230319738388,0.5187987685203552,100.0,190383.0,1.0
15:02:51.597810,177573.796875,181527.5625,195500.890625,173725.90625,169796.46875,193300.40625,688634.3125,174052.859375,0.069091796875,0.986083984375,-0.222900390625,-1.6479490995407104,0.1831054538488388,0.5798339247703552,100.0,190384.0,1.0
15:02:51.599704,177550.734375,181517.90625,195492.03125,173723.21875,169788.953125,193266.875,688624.75,174050.71875,0.06884765625,0.985595703125,-0.22412109375,-1.6479490995407104,0.2136230319738388,0.6103515028953552,100.0,190385.0,1.0
15:02:51.603446,177615.90625,181538.1875,195514.203125,173726.703125,169801.203125,193312.109375,688625.6875,174058.5,0.07080078125,0.986083984375,-0.223388671875,-1.7395018339157104,0.1831054538488388,0.6408690810203552,100.0,190386.0,1.0
15:02:51.614075,177640.5,181552.234375,195530.65625,173731.984375,169814.171875,193355.03125,688712.1875,174062.875,0.070068359375,0.985595703125,-0.2197265625,-1.7089842557907104,0.2136230319738388,0.6103515028953552,100.0,190387.0,1.0
15:02:51.614101,177597.671875,181544.359375,195522.703125,173735.734375,169811.671875,193328.5625,688655.75,174065.015625,0.070556640625,0.986083984375,-0.221435546875,-1.6784666776657104,0.2136230319738388,0.6103515028953552,100.0,190388.0,1.0
15:02:51.616526,177568.609375,181529.796875,195509.46875,173737.34375,169801.734375,193285.640625,688640.125,174063.953125,0.070556640625,0.986328125,-0.22265625,-1.7395018339157104,0.1831054538488388,0.6713866591453552,100.0,190389.0,1.0
15:02:51.616552,177607.5,181536.234375,195517.6875,173735.828125,169801.65625,193306.65625,688605.75,174062.515625,0.0712890625,0.98486328125,-0.21826171875,-1.6784666776657104,0.2441406100988388,0.7934569716453552,100.0,190390.0,1.0
15:02:51.624827,177641.75,181538.1875,195527.078125,173732.609375,169807.109375,193341.53125,688709.6875,174062.4375,0.072021484375,0.98388671875,-0.218505859375,-1.7395018339157104,0.2746581733226776,0.7324218153953552,100.0,190391.0,1.0
15:02:51.632824,177593.640625,181531.84375,195514.46875,173733.234375,169805.234375,193324.09375,688659.3125,174063.859375,0.072265625,0.982666015625,-0.22021484375,-1.6784666776657104,0.2746581733226776,0.7934569716453552,100.0,190392.0,1.0
15:02:51.632848,177559.9375,181517.09375,195497.03125,173730.90625,169794.40625,193274.5625,688649.75,174062.25,0.072998046875,0.982421875,-0.220947265625,-1.6174315214157104,0.3356933295726776,0.8544921278953552,100.0,190393.0,1.0
15:02:51.639056,177587.65625,181526.484375,195506.34375,173732.609375,169798.875,193290.296875,688601.25,174065.375,0.07275390625,0.982421875,-0.221435546875,-1.5869139432907104,0.3967284858226776,0.8544921278953552,100.0,190394.0,1.0
15:02:51.639084,177649.078125,181550.09375,195528.234375,173736.546875,169813.625,193346.4375,688709.0625,174072.359375,0.072021484375,0.980712890625,-0.218505859375,-1.4953612089157104,0.3662109076976776,0.8239745497703552,100.0,190395.0,1.0
15:02:51.640913,177616.265625,181553.65625,195529.40625,173743.96875,169822.03125,193346.4375,688688.1875,174077.890625,0.07080078125,0.980712890625,-0.2177734375,-1.3732908964157104,0.3356933295726776,0.8544921278953552,100.0,190396.0,1.0
15:02:51.650986,177585.609375,181541.0625,195517.609375,173743.78125,169815.15625,193297.0,688662.125,174076.203125,0.07080078125,0.97998046875,-0.21875,-1.3732908964157104,0.4577636420726776,0.7934569716453552,100.0,190397.0,1.0
15:02:51.660267,177602.765625,181553.21875,195528.234375,173746.109375,169820.609375,193308.0,688608.1875,174074.59375,0.069580078125,0.978759765625,-0.22216796875,-1.3732908964157104,0.5493163466453552,0.7934569716453552,100.0,190398.0,1.0
15:02:51.660304,177673.125,181578.34375,195546.921875,173743.96875,169826.234375,193364.40625,688694.5,174071.015625,0.068115234375,0.97900390625,-0.222900390625,-1.4038084745407104,0.5493163466453552,0.7019042372703552,100.0,190399.0,1.0
15:02:51.662754,177650.15625,181585.84375,195548.171875,173749.859375,169829.359375,193374.78125,688692.5,174071.8125,0.0673828125,0.9794921875,-0.219482421875,-1.2817381620407104,0.4272460639476776,0.7934569716453552,100.0,190400.0,1.0
15:02:51.662784,177611.984375,181553.75,195528.875,173748.796875,169812.109375,193307.8125,688654.4375,174067.890625,0.06884765625,0.982177734375,-0.220458984375,-1.3427733182907104,0.3967284858226776,0.6103515028953552,100.0,190401.0,1.0
15:02:51.664758,177611.890625,181561.796875,195533.421875,173752.546875,169814.96875,193305.5,688610.1875,174069.9375,0.070556640625,0.983154296875,-0.21923828125,-1.2207030057907104,0.3051757514476776,0.5493163466453552,100.0,190402.0,1.0
15:02:51.683851,177686.71875,181578.703125,195555.0625,173758.171875,169824.09375,193354.046875,688686.4375,174077.359375,0.069580078125,0.98291015625,-0.22216796875,-1.2512205839157104,0.3662109076976776,0.4882812201976776,100.0,190403.0,1.0
15:02:51.688216,177675.28125,181591.65625,195562.84375,173768.640625,169835.265625,193378.8125,688709.75,174084.15625,0.071533203125,0.984375,-0.22314453125,-1.0681151151657104,0.3356933295726776,0.5798339247703552,100.0,190404.0,1.0
15:02:51.688283,177630.21875,181564.484375,195540.578125,173761.9375,169820.421875,193321.671875,688655.3125,174081.109375,0.072265625,0.984375,-0.226806640625,-0.9765624403953552,0.5187987685203552,0.6103515028953552,100.0,190405.0,1.0
15:02:51.688307,177613.046875,181559.03125,195535.65625,173763.453125,169815.78125,193300.21875,688618.8125,174081.390625,0.07421875,0.98486328125,-0.226318359375,-0.9460448622703552,0.4882812201976776,0.6408690810203552,100.0,190406.0,1.0
15:02:51.688329,177681.359375,181570.296875,195553.984375,173765.78125,169822.578125,193340.8125,688650.3125,174086.390625,0.072998046875,0.9814453125,-0.22314453125,-0.9155272841453552,0.4272460639476776,0.6103515028953552,100.0,190407.0,1.0
15:02:51.689776,177684.390625,181583.703125,195563.734375,173770.34375,169832.5,193373.265625,688707.375,174088.09375,0.072265625,0.980712890625,-0.222900390625,-0.8239745497703552,0.3967284858226776,0.6103515028953552,100.0,190408.0,1.0
15:02:51.693559,177641.296875,181571.359375,195550.859375,173770.15625,169826.15625,193335.890625,688648.9375,174088.0,0.071533203125,0.982177734375,-0.221923828125,-0.7629393935203552,0.2746581733226776,0.5493163466453552,100.0,190409.0,1.0
15:02:51.702219,177616.453125,181561.890625,195544.515625,173773.90625,169822.03125,193302.90625,688627.625,174090.0625,0.06787109375,0.98193359375,-0.22021484375,-0.7019042372703552,0.3356933295726776,0.3051757514476776,100.0,190410.0,1.0
15:02:51.709140,177671.171875,181567.078125,195557.03125,173771.859375,169823.46875,193328.828125,688618.75,174088.171875,0.065185546875,0.984375,-0.21875,-0.7324218153953552,0.3051757514476776,0.2136230319738388,100.0,190411.0,1.0
15:02:51.709215,177689.671875,181574.859375,195562.84375,173769.4375,169827.75,193364.140625,688702.1875,174085.671875,0.063232421875,0.986083984375,-0.219482421875,-0.8850097060203552,0.2441406100988388,0.1831054538488388,100.0,190412.0,1.0
15:02:51.712810,177644.15625,181564.75,195550.859375,173772.75,169826.6875,193339.5625,688648.875,174088.265625,0.0625,0.98779296875,-0.21826171875,-0.9155272841453552,0.2441406100988388,0.0,100.0,190413.0,1.0
15:02:51.712928,177614.484375,181556.4375,195540.484375,173772.125,169822.84375,193301.375,688624.0,174090.328125,0.0615234375,0.990478515625,-0.219970703125,-1.0070799589157104,0.1831054538488388,-0.0610351525247097,100.0,190414.0,1.0
15:02:51.722267,177659.453125,181568.5,195556.765625,173775.25,169831.875,193330.0,688599.4375,174094.53125,0.060546875,0.99267578125,-0.221923828125,-0.9765624403953552,0.03051757626235485,-0.03051757626235485,100.0,190415.0,1.0
15:02:51.725318,177694.765625,181584.0625,195570.703125,173773.5625,169841.078125,193374.609375,688691.3125,174096.40625,0.064453125,0.9931640625,-0.22265625,-1.1596678495407104,-0.0610351525247097,-0.0915527269244194,100.0,190416.0,1.0
15:02:51.725388,177649.53125,181577.625,195564.359375,173773.640625,169842.0625,193357.625,688646.9375,174097.921875,0.068115234375,0.99365234375,-0.22119140625,-1.2207030057907104,-0.0915527269244194,-0.0915527269244194,100.0,190417.0,1.0
15:02:51.728491,177616.359375,181556.796875,195548.09375,173771.765625,169830.625,193304.15625,688643.3125,174096.859375,0.06982421875,0.9931640625,-0.2236328125,-1.3732908964157104,-0.1220703050494194,-0.0610351525247097,100.0,190418.0,1.0
15:02:51.740041,177638.984375,181563.9375,195552.65625,173772.84375,169831.609375,193321.953125,688589.0625,174099.4375,0.0703125,0.9931640625,-0.225341796875,-1.5563963651657104,-0.0610351525247097,0.0915527269244194,100.0,190419.0,1.0
15:02:51.742830,177689.765625,181568.859375,195561.953125,173767.828125,169833.296875,193363.96875,688699.1875,174093.546875,0.0712890625,0.99365234375,-0.223388671875,-1.6479490995407104,-0.0915527269244194,0.2441406100988388,100.0,190420.0,1.0
15:02:51.742897,177646.125,181563.765625,195550.765625,173765.421875,169829.71875,193355.390625,688664.5,174087.109375,0.07177734375,0.99267578125,-0.220947265625,-1.7089842557907104,0.0610351525247097,0.3967284858226776,100.0,190421.0,1.0
15:02:51.744899,177602.234375,181545.4375,195527.796875,173758.265625,169812.734375,193301.203125,688646.375,174079.421875,0.070556640625,0.990478515625,-0.219482421875,-1.8005369901657104,0.0,0.5187987685203552,100.0,190422.0,1.0
15:02:51.752240,177601.875,181549.1875,195525.734375,173751.390625,169811.21875,193304.0625,688596.8125,174072.359375,0.067626953125,0.989501953125,-0.216552734375,-1.8005369901657104,0.0610351525247097,0.6408690810203552,100.0,190423.0,1.0
15:02:51.762816,177660.34375,181554.015625,195535.9375,173742.4375,169812.109375,193343.671875,688687.3125,174065.375,0.067626953125,0.98974609375,-0.215576171875,-1.8615721464157104,0.0915527269244194,0.6408690810203552,100.0,190424.0,1.0
15:02:51.762887,177630.9375,181560.90625,195535.21875,173741.546875,169818.8125,193355.296875,688690.625,174065.015625,0.069091796875,0.98828125,-0.21728515625,-1.9531248807907104,0.0915527269244194,0.7324218153953552,100.0,190425.0,1.0
15:02:51.765302,177594.71875,181545.890625,195522.96875,173740.390625,169812.296875,193308.09375,688661.375,174065.5625,0.065673828125,0.986572265625,-0.21484375,-2.105712652206421,0.0,0.8544921278953552,100.0,190426.0,1.0
15:02:51.765354,177596.515625,181559.65625,195531.8125,173749.859375,169821.765625,193311.65625,688624.4375,174076.46875,0.0654296875,0.98681640625,-0.218017578125,-2.197265386581421,0.03051757626235485,0.7934569716453552,100.0,190427.0,1.0
15:02:51.771044,177666.0625,181576.46875,195550.328125,173749.0625,169829.28125,193358.609375,688692.25,174080.578125,0.0625,0.985107421875,-0.217529296875,-2.136230230331421,-0.0610351525247097,1.0070799589157104,100.0,190428.0,1.0
15:02:51.786605,177658.203125,181590.765625,195560.515625,173757.46875,169842.234375,193387.921875,688722.375,174087.375,0.064208984375,0.9853515625,-0.21875,-2.136230230331421,-0.0610351525247097,1.0070799589157104,100.0,190429.0,1.0
15:02:51.786680,177616.984375,181558.046875,195544.0625,173760.5,169831.609375,193323.015625,688667.0,174089.96875,0.06298828125,0.985595703125,-0.215087890625,-2.197265386581421,-0.0915527269244194,0.9765624403953552,100.0,190430.0,1.0
15:02:51.789153,177600.4375,181558.765625,195538.171875,173760.59375,169827.3125,193302.28125,688632.25,174088.171875,0.066650390625,0.985107421875,-0.217529296875,-2.166747808456421,-0.1831054538488388,0.9155272841453552,100.0,190431.0,1.0
15:02:51.789215,177664.015625,181569.046875,195553.546875,173759.25,169831.328125,193338.390625,688655.125,174089.609375,0.0654296875,0.983642578125,-0.21826171875,-2.319335699081421,-0.1831054538488388,0.9460448622703552,100.0,190432.0,1.0
15:02:51.791413,177666.875,181573.78125,195561.234375,173763.71875,169839.5625,193365.046875,688718.5,174093.984375,0.06689453125,0.9833984375,-0.218017578125,-2.441406011581421,-0.2441406100988388,0.9765624403953552,100.0,190433.0,1.0
15:02:51.796265,177623.875,181559.109375,195548.359375,173763.71875,169834.28125,193326.421875,688665.6875,174094.890625,0.067138671875,0.9833984375,-0.218017578125,-2.349853277206421,-0.2441406100988388,0.9155272841453552,100.0,190434.0,1.0
15:02:51.798480,177598.390625,181549.015625,195539.78125,173762.734375,169828.828125,193291.1875,688644.25,174093.640625,0.069580078125,0.982421875,-0.219482421875,-2.319335699081421,-0.2136230319738388,0.7934569716453552,100.0,190435.0,1.0
15:02:51.809142,177649.53125,181561.0,195552.203125,173759.078125,169831.421875,193322.75,688637.25,174092.65625,0.070068359375,0.981689453125,-0.21875,-2.227782964706421,-0.2441406100988388,0.7629393935203552,100.0,190436.0,1.0
15:02:51.809217,177666.34375,181564.296875,195558.28125,173757.546875,169835.796875,193353.78125,688722.0,174089.96875,0.069580078125,0.98095703125,-0.217041015625,-2.197265386581421,-0.2441406100988388,0.6713866591453552,100.0,190437.0,1.0
15:02:51.811027,177622.078125,181555.546875,195547.734375,173761.046875,169834.015625,193326.5,688667.1875,174093.1875,0.072021484375,0.981201171875,-0.216552734375,-2.105712652206421,-0.2746581733226776,0.6103515028953552,100.0,190438.0,1.0
15:02:51.817238,177589.796875,181541.6875,195533.609375,173759.78125,169825.609375,193282.875,688650.8125,174091.75,0.0732421875,0.983642578125,-0.215087890625,-1.9531248807907104,-0.03051757626235485,0.5493163466453552,100.0,190439.0,1.0
15:02:51.825320,177623.515625,181543.375,195539.5,173758.53125,169826.6875,193302.640625,688621.25,174091.390625,0.07470703125,0.9794921875,-0.214599609375,-1.8920897245407104,0.0,0.5187987685203552,100.0,190440.0,1.0
15:02:51.825396,177660.703125,181551.96875,195549.4375,173758.09375,169832.40625,193345.375,688718.4375,174092.296875,0.076171875,0.980224609375,-0.217529296875,-1.8005369901657104,0.1220703050494194,0.6408690810203552,100.0,190441.0,1.0
15:02:51.827238,177616.53125,181546.78125,195539.234375,173757.015625,169830.703125,193333.03125,688683.9375,174089.609375,0.076171875,0.98095703125,-0.21923828125,-1.7700194120407104,0.1831054538488388,0.7324218153953552,100.0,190442.0,1.0
15:02:51.833420,177581.84375,181527.640625,195522.609375,173752.8125,169817.46875,193281.890625,688672.5625,174085.140625,0.076171875,0.980712890625,-0.21533203125,-1.7395018339157104,0.2441406100988388,0.7629393935203552,100.0,190443.0,1.0
15:02:51.836032,177604.015625,181536.234375,195529.046875,173752.1875,169819.359375,193297.8125,688613.5625,174086.21875,0.074462890625,0.97998046875,-0.215087890625,-1.5563963651657104,0.3967284858226776,0.7324218153953552,100.0,190444.0,1.0
15:02:51.839723,177662.21875,181555.0,195544.78125,173747.265625,169826.234375,193351.8125,688714.125,174082.09375,0.0751953125,0.97900390625,-0.214599609375,-1.4343260526657104,0.3967284858226776,0.7019042372703552,100.0,190445.0,1.0
15:02:51.865814,177626.546875,181558.765625,195543.265625,173750.125,169832.40625,193355.03125,688691.25,174083.34375,0.073974609375,0.979248046875,-0.2158203125,-1.3427733182907104,0.5187987685203552,0.6713866591453552,100.0,190446.0,1.0
15:02:51.865896,177590.078125,181541.6875,195529.40625,173747.09375,169823.734375,193302.71875,688658.5,174081.296875,0.07275390625,0.9794921875,-0.218505859375,-1.1901854276657104,0.6713866591453552,0.7629393935203552,100.0,190447.0,1.0
15:02:51.889979,177594.546875,181548.125,195532.71875,173745.125,169825.96875,193306.921875,688607.75,174078.34375,0.07177734375,0.97802734375,-0.22021484375,-0.9460448622703552,0.6408690810203552,0.7934569716453552,100.0,190448.0,1.0
15:02:51.894784,177660.796875,181562.6875,195546.125,173737.25,169828.828125,193354.765625,688710.75,174072.359375,0.069580078125,0.97900390625,-0.221923828125,-0.7629393935203552,0.6103515028953552,0.7629393935203552,100.0,190449.0,1.0
15:02:51.897242,177630.390625,181567.25,195542.09375,173737.25,169831.875,193367.28125,688702.5,174070.75,0.067138671875,0.9794921875,-0.221923828125,-0.6713866591453552,0.6408690810203552,0.7629393935203552,100.0,190450.0,1.0
15:02:51.899760,177588.015625,181546.78125,195520.90625,173732.34375,169816.84375,193311.21875,688654.25,174066.8125,0.067138671875,0.979736328125,-0.22216796875,-0.6103515028953552,0.5798339247703552,0.8239745497703552,100.0,190451.0,1.0
15:02:51.902263,177577.109375,181538.1875,195516.53125,173730.109375,169812.109375,193294.765625,688611.0625,174064.390625,0.065673828125,0.980712890625,-0.220458984375,-0.5493163466453552,0.4882812201976776,0.7019042372703552,100.0,190452.0,1.0
15:02:51.904753,177651.671875,181557.0625,195538.25,173734.75,169820.78125,193345.015625,688684.75,174070.828125,0.065673828125,0.98095703125,-0.22265625,-0.3967284858226776,0.5187987685203552,0.6103515028953552,100.0,190453.0,1.0
15:02:51.907429,177643.265625,181567.25,195546.21875,173744.40625,169831.609375,193370.5,688712.1875,174076.5625,0.065673828125,0.981201171875,-0.22265625,-0.3051757514476776,0.4882812201976776,0.5798339247703552,100.0,190454.0,1.0
15:02:51.909769,177600.171875,181552.046875,195531.734375,173747.8125,169824.09375,193324.71875,688654.25,174080.578125,0.066650390625,0.98095703125,-0.220947265625,-0.2441406100988388,0.5493163466453552,0.5187987685203552,100.0,190455.0,1.0
15:02:51.912330,177573.0,181537.484375,195519.390625,173744.671875,169813.453125,193290.65625,688616.9375,174077.546875,0.066162109375,0.98193359375,-0.22265625,-0.2136230319738388,0.3662109076976776,0.5493163466453552,100.0,190456.0,1.0
15:02:51.914795,177632.359375,181545.703125,195530.828125,173741.453125,169813.984375,193323.28125,688641.5625,174077.265625,0.066162109375,0.9833984375,-0.225830078125,-0.0915527269244194,0.3051757514476776,0.6103515028953552,100.0,190457.0,1.0
15:02:51.917327,177638.359375,181562.15625,195540.765625,173747.53125,169823.109375,193359.140625,688701.0,174082.375,0.068115234375,0.984130859375,-0.224365234375,0.0,0.2746581733226776,0.5493163466453552,100.0,190458.0,1.0
15:02:51.919756,177588.015625,181538.28125,195518.671875,173742.4375,169807.734375,193311.84375,688640.625,174077.890625,0.068359375,0.98583984375,-0.22265625,-0.03051757626235485,0.2746581733226776,0.6408690810203552,100.0,190459.0,1.0
15:02:51.922261,177559.140625,181520.140625,195504.640625,173736.8125,169798.609375,193269.203125,688632.0,174073.421875,0.068115234375,0.987548828125,-0.220947265625,0.0,0.2441406100988388,0.6408690810203552,100.0,190460.0,1.0
15:02:51.927895,177615.109375,181535.875,195520.109375,173734.390625,169805.234375,193303.265625,688611.3125,174075.03125,0.068603515625,0.988037109375,-0.21923828125,-0.1220703050494194,0.2136230319738388,0.7019042372703552,100.0,190461.0,1.0
15:02:51.927964,177631.109375,181537.75,195523.6875,173729.03125,169806.5625,193334.640625,688689.0,174069.3125,0.068359375,0.989990234375,-0.22314453125,-0.03051757626235485,0.0915527269244194,0.7019042372703552,100.0,190462.0,1.0
15:02:51.929755,177582.03125,181523.4375,195509.015625,173728.234375,169800.3125,193302.640625,688650.1875,174067.265625,0.068359375,0.99072265625,-0.224609375,-0.1220703050494194,0.0610351525247097,0.6713866591453552,100.0,190463.0,1.0
15:02:51.932893,177556.09375,181515.3125,195499.90625,173730.90625,169795.125,193261.6875,688664.4375,174068.59375,0.06787109375,0.990966796875,-0.224365234375,-0.1525878757238388,-0.0915527269244194,0.7934569716453552,100.0,190464.0,1.0
15:02:51.932956,177597.9375,181536.234375,195515.375,173731.984375,169803.890625,193295.65625,688612.3125,174071.546875,0.066162109375,0.988037109375,-0.2216796875,-0.3967284858226776,-0.1525878757238388,0.7324218153953552,100.0,190465.0,1.0
15:02:51.935330,177646.046875,181558.84375,195536.46875,173737.96875,169817.75,193349.65625,688724.0625,174076.46875,0.06640625,0.98681640625,-0.222412109375,-0.5187987685203552,-0.1220703050494194,0.7019042372703552,100.0,190466.0,1.0
15:02:51.935395,177601.25,181541.140625,195526.71875,173739.3125,169815.15625,193324.09375,688676.125,174075.84375,0.0673828125,0.986083984375,-0.224853515625,-0.5798339247703552,-0.1525878757238388,0.6713866591453552,100.0,190467.0,1.0
15:02:51.937346,177567.625,181529.171875,195509.734375,173731.53125,169803.171875,193279.03125,688644.9375,174069.671875,0.069091796875,0.98779296875,-0.2275390625,-0.7324218153953552,-0.1525878757238388,0.8544921278953552,100.0,190468.0,1.0
15:02:51.947862,177587.84375,181538.015625,195515.8125,173726.96875,169804.6875,193294.3125,688600.875,174064.9375,0.072021484375,0.9892578125,-0.2255859375,-0.8239745497703552,-0.1525878757238388,0.8544921278953552,100.0,190469.0,1.0
15:02:51.947936,177647.46875,181554.109375,195534.40625,173728.40625,169815.953125,193343.3125,688719.6875,174068.328125,0.072998046875,0.98974609375,-0.225341796875,-0.8544921278953552,-0.1220703050494194,0.8239745497703552,100.0,190470.0,1.0
15:02:51.949808,177605.71875,181548.5625,195526.71875,173726.171875,169816.3125,193335.984375,688681.0625,174065.921875,0.074462890625,0.989990234375,-0.22509765625,-0.9765624403953552,-0.0610351525247097,0.8544921278953552,100.0,190471.0,1.0
15:02:51.966063,177571.5625,181529.34375,195513.3125,173730.109375,169808.265625,193285.203125,688652.8125,174070.390625,0.07421875,0.99072265625,-0.2236328125,-1.0986326932907104,-0.0610351525247097,0.9155272841453552,100.0,190472.0,1.0
15:02:51.969097,177578.625,181543.921875,195521.71875,173735.015625,169813.1875,193295.125,688606.6875,174076.203125,0.07275390625,0.98779296875,-0.225830078125,-1.2512205839157104,0.0610351525247097,1.0070799589157104,100.0,190473.0,1.0
