Timestamp,Fz,FC3,FCz,FC4,Cz,C3,C4
15:05:40.823773,176260.046875,179975.0,194467.703125,172411.171875,166576.203125,191456.921875,688826.25,173973.296875,0.072509765625,0.99072265625,-0.208251953125,-3.967284917831421,0.9460448622703552,0.5798339247703552,100.0,232714.0,1.0
15:05:40.826857,176262.734375,179978.84375,194472.796875,172416.09375,166581.84375,191456.640625,688749.75,173976.234375,0.07177734375,0.98876953125,-0.20703125,-3.936767339706421,0.9155272841453552,0.6713866591453552,100.0,232715.0,1.0
15:05:40.826873,176328.09375,179993.953125,194494.34375,172419.84375,166593.015625,191504.65625,688833.25,173981.703125,0.072021484375,0.988037109375,-0.207763671875,-3.997802495956421,0.9765624403953552,0.7934569716453552,100.0,232716.0,1.0
15:05:40.830600,176313.15625,180002.71875,194500.234375,172429.234375,166603.109375,191523.703125,688887.4375,173987.421875,0.073486328125,0.985107421875,-0.207275390625,-4.119872570037842,0.9765624403953552,0.7629393935203552,100.0,232717.0,1.0
15:05:40.830630,176281.78125,179985.734375,194485.40625,172429.859375,166594.53125,191475.6875,688831.0,173987.859375,0.072021484375,0.986328125,-0.20947265625,-4.028319835662842,0.9765624403953552,0.8544921278953552,100.0,232718.0,1.0
15:05:40.845553,176272.03125,179984.84375,194484.859375,172430.65625,166594.09375,191461.03125,688760.375,173989.03125,0.0712890625,0.9833984375,-0.209716796875,-3.997802495956421,1.0070799589157104,0.7934569716453552,100.0,232719.0,1.0
15:05:40.845578,176328.546875,179994.40625,194497.015625,172423.875,166595.875,191498.9375,688817.125,173985.625,0.0703125,0.982177734375,-0.207275390625,-3.967284917831421,1.0681151151657104,0.7629393935203552,100.0,232720.0,1.0
15:05:40.847422,176320.21875,180001.828125,194500.78125,172425.390625,166602.046875,191522.984375,688892.4375,173984.734375,0.069580078125,0.982421875,-0.206298828125,-3.906249761581421,1.0375975370407104,0.7324218153953552,100.0,232721.0,1.0
15:05:40.850004,176286.25,179988.765625,194487.546875,172426.109375,166594.796875,191483.203125,688848.625,173984.015625,0.06884765625,0.98095703125,-0.20556640625,-3.936767339706421,1.0375975370407104,0.6408690810203552,100.0,232722.0,1.0
15:05:40.853718,176269.53125,179986.359375,194482.8125,172425.65625,166592.75,191459.0625,688807.5625,173983.9375,0.068603515625,0.9814453125,-0.2060546875,-3.845214605331421,0.9765624403953552,0.5493163466453552,100.0,232723.0,1.0
15:05:40.861244,176321.03125,179998.96875,194496.65625,172422.078125,166596.859375,191496.796875,688804.5625,173982.5,0.0693359375,0.984375,-0.2060546875,-3.784179449081421,0.9460448622703552,0.5798339247703552,100.0,232724.0,1.0
15:05:40.868104,176326.9375,180007.1875,194502.5625,172421.0,166603.03125,191531.75,688903.625,173979.8125,0.068115234375,0.98583984375,-0.205810546875,-3.784179449081421,0.9460448622703552,0.4577636420726776,100.0,232725.0,1.0
15:05:40.868128,176284.546875,179990.5625,194487.546875,172417.609375,166595.875,191495.71875,688856.9375,173976.515625,0.0673828125,0.986083984375,-0.20703125,-3.723144292831421,0.9460448622703552,0.4272460639476776,100.0,232726.0,1.0
15:05:40.868134,176263.453125,179983.140625,194478.96875,172418.421875,166590.515625,191461.46875,688814.75,173975.34375,0.06787109375,0.98583984375,-0.20361328125,-3.631591558456421,0.8850097060203552,0.4882812201976776,100.0,232727.0,1.0
15:05:40.869997,176304.84375,179995.75,194491.84375,172418.859375,166594.625,191493.390625,688784.3125,173976.421875,0.066650390625,0.986572265625,-0.2041015625,-3.692626714706421,0.8850097060203552,0.3967284858226776,100.0,232728.0,1.0
15:05:40.906215,176327.734375,180001.5625,194499.703125,172418.765625,166598.828125,191529.96875,688906.1875,173977.3125,0.06689453125,0.98779296875,-0.204345703125,-3.662109136581421,0.7934569716453552,0.4882812201976776,100.0,232729.0,1.0
15:05:40.925608,176283.296875,179990.828125,194486.921875,172420.5625,166594.09375,191504.484375,688871.6875,173978.203125,0.066650390625,0.989501953125,-0.205078125,-3.631591558456421,0.7324218153953552,0.4272460639476776,100.0,232730.0,1.0
15:05:40.925651,176250.9375,179970.71875,194468.59375,172414.03125,166578.890625,191452.265625,688828.75,173970.875,0.06884765625,0.985595703125,-0.203125,-3.570556402206421,0.6713866591453552,0.3662109076976776,100.0,232731.0,1.0
15:05:40.927442,176280.890625,179982.78125,194482.359375,172417.609375,166586.125,191475.328125,688769.75,173976.6875,0.0654296875,0.9873046875,-0.20263671875,-3.631591558456421,0.6103515028953552,0.2746581733226776,100.0,232732.0,1.0
15:05:40.930000,176325.859375,179998.875,194498.984375,172420.734375,166596.234375,191522.8125,688896.5625,173981.96875,0.06689453125,0.988037109375,-0.203857421875,-3.479003667831421,0.5187987685203552,0.3662109076976776,100.0,232733.0,1.0
15:05:40.932431,176288.3125,179993.6875,194491.125,172422.796875,166596.328125,191512.34375,688885.4375,173981.703125,0.0673828125,0.986083984375,-0.204833984375,-3.387450933456421,0.4272460639476776,0.4577636420726776,100.0,232734.0,1.0
15:05:40.934996,176260.234375,179973.84375,194473.953125,172418.953125,166583.625,191457.90625,688823.6875,173978.390625,0.067626953125,0.986572265625,-0.205322265625,-3.265380620956421,0.3356933295726776,0.4272460639476776,100.0,232735.0,1.0
15:05:40.937433,176275.796875,179983.046875,194482.8125,172422.53125,166588.0,191468.09375,688756.8125,173983.21875,0.067626953125,0.988037109375,-0.206298828125,-3.265380620956421,0.2136230319738388,0.4272460639476776,100.0,232736.0,1.0
15:05:40.940505,176329.703125,179995.125,194498.265625,172421.640625,166594.265625,191514.671875,688877.0625,173983.03125,0.06884765625,0.98779296875,-0.206298828125,-3.082275152206421,0.2136230319738388,0.4882812201976776,100.0,232737.0,1.0
15:05:40.940529,176290.359375,179988.59375,194488.34375,172417.703125,166590.953125,191514.140625,688886.0625,173975.265625,0.068359375,0.988525390625,-0.205810546875,-3.173827886581421,0.2441406100988388,0.4272460639476776,100.0,232738.0,1.0
15:05:40.942510,176254.328125,179962.484375,194465.375,172408.046875,166574.328125,191454.765625,688827.0,173965.515625,0.067626953125,0.98974609375,-0.202880859375,-3.143310308456421,0.1220703050494194,0.5187987685203552,100.0,232739.0,1.0
15:05:40.944924,176252.984375,179969.8125,194469.03125,172409.109375,166576.296875,191452.53125,688752.25,173965.6875,0.068115234375,0.98828125,-0.203125,-3.021239995956421,0.1220703050494194,0.6408690810203552,100.0,232740.0,1.0
15:05:40.947463,176321.390625,179994.140625,194494.875,172415.203125,166590.59375,191506.8125,688848.4375,173974.71875,0.06787109375,0.98583984375,-0.2001953125,-2.929687261581421,0.0915527269244194,0.6713866591453552,100.0,232741.0,1.0
15:05:40.949944,176304.84375,180002.0,194499.796875,172421.1875,166600.796875,191526.921875,688897.1875,173979.546875,0.0703125,0.984375,-0.202880859375,-2.807616949081421,0.1220703050494194,0.6408690810203552,100.0,232742.0,1.0
15:05:40.952443,176273.734375,179986.171875,194487.09375,172424.140625,166593.1875,191480.78125,688842.875,173981.15625,0.07275390625,0.98388671875,-0.2041015625,-2.746581792831421,0.1220703050494194,0.6103515028953552,100.0,232743.0,1.0
15:05:40.955543,176267.5625,179988.234375,194489.0625,172431.109375,166597.578125,191468.71875,688779.3125,173986.96875,0.0712890625,0.982666015625,-0.204833984375,-2.593993902206421,0.0610351525247097,0.6408690810203552,100.0,232744.0,1.0
15:05:40.955571,176327.828125,180002.984375,194506.59375,172432.8125,166605.703125,191512.265625,688822.75,173990.546875,0.071533203125,0.98095703125,-0.20166015625,-2.319335699081421,0.03051757626235485,0.5493163466453552,100.0,232745.0,1.0
15:05:40.957438,176321.65625,180008.796875,194510.609375,172433.25,166611.515625,191536.484375,688902.0,173989.390625,0.072998046875,0.980712890625,-0.200439453125,-2.258300542831421,0.03051757626235485,0.7629393935203552,100.0,232746.0,1.0
15:05:40.960527,176289.640625,179997.71875,194498.90625,172437.09375,166606.15625,191498.046875,688851.3125,173993.234375,0.07421875,0.981201171875,-0.201171875,-2.227782964706421,0.1220703050494194,0.8544921278953552,100.0,232747.0,1.0
15:05:40.960550,176262.734375,179981.890625,194481.90625,172426.109375,166589.4375,191459.515625,688790.0625,173980.71875,0.074462890625,0.981201171875,-0.200927734375,-2.014159917831421,0.1831054538488388,0.8239745497703552,100.0,232748.0,1.0
15:05:40.962435,176309.140625,179990.296875,194491.484375,172422.265625,166587.734375,191490.625,688798.5625,173977.84375,0.075927734375,0.984130859375,-0.20263671875,-1.8920897245407104,0.2746581733226776,0.8544921278953552,100.0,232749.0,1.0
15:05:40.965528,176322.28125,180001.734375,194499.875,172424.765625,166594.890625,191527.640625,688907.6875,173980.625,0.07470703125,0.984375,-0.2041015625,-1.7089842557907104,0.3662109076976776,0.8239745497703552,100.0,232750.0,1.0
15:05:40.965552,176282.234375,179989.484375,194487.90625,172427.4375,166591.9375,191495.890625,688857.4375,173982.234375,0.0751953125,0.98486328125,-0.199951171875,-1.5258787870407104,0.4272460639476776,0.7324218153953552,100.0,232751.0,1.0
15:05:40.971495,176256.65625,179975.890625,194473.0625,172422.53125,166580.859375,191453.15625,688800.625,173975.96875,0.07470703125,0.98291015625,-0.201904296875,-1.4648436307907104,0.3967284858226776,0.6713866591453552,100.0,232752.0,1.0
15:05:40.975594,176291.25,179983.234375,194481.28125,172419.578125,166580.671875,191476.9375,688764.5,173975.890625,0.075439453125,0.983642578125,-0.20263671875,-1.4038084745407104,0.3356933295726776,0.6103515028953552,100.0,232753.0,1.0
15:05:40.975616,176319.859375,179996.640625,194493.625,172417.96875,166588.546875,191519.234375,688884.75,173975.53125,0.07421875,0.983642578125,-0.2021484375,-1.2207030057907104,0.4882812201976776,0.6713866591453552,100.0,232754.0,1.0
15:05:40.982455,176286.078125,179996.90625,194490.765625,172426.109375,166593.640625,191505.734375,688865.0625,173982.328125,0.076171875,0.983154296875,-0.200927734375,-1.1901854276657104,0.5798339247703552,0.6103515028953552,100.0,232755.0,1.0
15:05:40.990509,176258.71875,179978.9375,194475.921875,172422.171875,166582.46875,191457.546875,688821.1875,173978.390625,0.075927734375,0.983154296875,-0.20263671875,-1.1291502714157104,0.6103515028953552,0.3967284858226776,100.0,232756.0,1.0
15:05:40.990530,176280.890625,179984.5625,194481.90625,172418.953125,166582.546875,191472.46875,688762.625,173975.796875,0.07568359375,0.986083984375,-0.20068359375,-1.0986326932907104,0.8239745497703552,0.3967284858226776,100.0,232757.0,1.0
15:05:40.996818,176323.4375,179992.890625,194493.984375,172416.984375,166587.296875,191513.25,688896.5625,173975.4375,0.076171875,0.98681640625,-0.199951171875,-1.0375975370407104,0.7629393935203552,0.4882812201976776,100.0,232758.0,1.0
15:05:40.996853,176289.828125,179993.421875,194490.578125,172424.40625,166591.84375,191509.125,688888.75,173979.453125,0.075439453125,0.9873046875,-0.20263671875,-0.9155272841453552,0.7629393935203552,0.4882812201976776,100.0,232759.0,1.0
15:05:40.998687,176263.0,179977.5,194474.3125,172421.90625,166580.671875,191459.15625,688833.5,173977.046875,0.07470703125,0.984619140625,-0.19970703125,-0.7934569716453552,0.7629393935203552,0.5493163466453552,100.0,232760.0,1.0
15:05:41.006179,176272.21875,179984.125,194479.234375,172420.828125,166582.546875,191467.734375,688761.1875,173977.84375,0.07373046875,0.987060546875,-0.19921875,-0.8544921278953552,0.7629393935203552,0.4272460639476776,100.0,232761.0,1.0
15:05:41.039359,176328.1875,179995.390625,194492.90625,172416.265625,166586.9375,191513.15625,688873.1875,173976.515625,0.072998046875,0.986572265625,-0.200927734375,-0.8239745497703552,0.8239745497703552,0.3662109076976776,100.0,232762.0,1.0
15:05:41.039409,176298.859375,179998.15625,194492.46875,172421.90625,166593.015625,191519.046875,688900.3125,173979.734375,0.07373046875,0.987060546875,-0.20068359375,-0.7934569716453552,0.8239745497703552,0.4272460639476776,100.0,232763.0,1.0
15:05:41.041272,176269.265625,179980.8125,194476.71875,172421.90625,166582.109375,191466.125,688846.3125,173980.0,0.072509765625,0.98828125,-0.201904296875,-0.7934569716453552,0.7934569716453552,0.5493163466453552,100.0,232764.0,1.0
15:05:41.043697,176262.828125,179982.875,194475.203125,172420.46875,166580.046875,191458.96875,688769.8125,173978.203125,0.073974609375,0.987548828125,-0.202392578125,-0.7019042372703552,0.8850097060203552,0.4882812201976776,100.0,232765.0,1.0
15:05:41.046186,176321.125,179994.9375,194490.671875,172418.328125,166584.96875,191501.703125,688839.375,173980.4375,0.073486328125,0.987548828125,-0.198974609375,-0.8239745497703552,0.9460448622703552,0.4577636420726776,100.0,232766.0,1.0
15:05:41.048765,176302.796875,179998.421875,194493.625,172424.578125,166593.453125,191516.109375,688893.75,173983.84375,0.072509765625,0.98974609375,-0.203369140625,-0.7629393935203552,0.9460448622703552,0.4882812201976776,100.0,232767.0,1.0
15:05:41.051297,176270.421875,179980.015625,194479.671875,172423.6875,166585.328125,191465.765625,688839.125,173980.71875,0.071533203125,0.988525390625,-0.203857421875,-0.6713866591453552,0.7629393935203552,0.6408690810203552,100.0,232768.0,1.0
15:05:41.053690,176258.265625,179978.578125,194475.75,172422.171875,166582.1875,191449.5,688777.8125,173977.21875,0.0712890625,0.987060546875,-0.205078125,-0.6408690810203552,0.7629393935203552,0.5493163466453552,100.0,232769.0,1.0
15:05:41.056250,176313.515625,179988.859375,194488.890625,172416.984375,166583.53125,191489.640625,688820.875,173974.8125,0.0712890625,0.987548828125,-0.20263671875,-0.7019042372703552,0.8544921278953552,0.5798339247703552,100.0,232770.0,1.0
15:05:41.058853,176312.171875,179998.703125,194498.09375,172423.421875,166594.796875,191522.453125,688911.4375,173979.90625,0.070068359375,0.98779296875,-0.202880859375,-0.7019042372703552,0.7934569716453552,0.7324218153953552,100.0,232771.0,1.0
15:05:41.061812,176272.03125,179981.0,194481.546875,172419.9375,166584.34375,191479.265625,688848.9375,173974.546875,0.0693359375,0.988037109375,-0.202392578125,-0.7019042372703552,0.8239745497703552,0.7324218153953552,100.0,232772.0,1.0
15:05:41.061825,176254.59375,179976.96875,194477.0,172419.9375,166580.765625,191451.28125,688788.875,173973.734375,0.069580078125,0.98828125,-0.20068359375,-0.6713866591453552,0.7629393935203552,0.7934569716453552,100.0,232773.0,1.0
15:05:41.063739,176306.1875,179993.953125,194492.734375,172421.71875,166586.671875,191490.890625,688796.1875,173979.546875,0.071044921875,0.987060546875,-0.20263671875,-0.5493163466453552,0.7324218153953552,0.7934569716453552,100.0,232774.0,1.0
15:05:41.066836,176323.265625,180010.40625,194503.1875,172425.296875,166596.140625,191532.015625,688906.625,173982.234375,0.071044921875,0.98779296875,-0.2060546875,-0.5493163466453552,0.5493163466453552,0.7934569716453552,100.0,232775.0,1.0
15:05:41.066851,176285.984375,180000.9375,194492.90625,172427.890625,166593.015625,191502.953125,688865.5,173982.046875,0.070556640625,0.987060546875,-0.20849609375,-0.5798339247703552,0.4577636420726776,0.7629393935203552,100.0,232776.0,1.0
15:05:41.068683,176264.078125,179988.421875,194481.375,172427.53125,166583.796875,191462.1875,688817.5625,173979.8125,0.070068359375,0.990478515625,-0.2060546875,-0.5798339247703552,0.5493163466453552,0.8544921278953552,100.0,232777.0,1.0
15:05:41.074997,176302.171875,180000.21875,194492.90625,172427.890625,166585.953125,191488.390625,688784.75,173979.640625,0.070556640625,0.989990234375,-0.203857421875,-0.6408690810203552,0.4577636420726776,0.7934569716453552,100.0,232778.0,1.0
15:05:41.079350,176333.8125,180010.3125,194505.421875,172428.96875,166591.671875,191528.359375,688913.5,173980.171875,0.06884765625,0.9892578125,-0.2060546875,-0.6713866591453552,0.4577636420726776,0.7324218153953552,100.0,232779.0,1.0
15:05:41.079367,176290.09375,180000.84375,194492.90625,172428.609375,166587.5625,191507.34375,688878.625,173978.75,0.071044921875,0.989013671875,-0.20703125,-0.6103515028953552,0.4272460639476776,0.8239745497703552,100.0,232780.0,1.0
15:05:41.086562,176267.296875,179991.90625,194481.109375,172430.84375,166582.90625,191466.75,688840.75,173980.890625,0.0703125,0.989990234375,-0.2060546875,-0.6713866591453552,0.4272460639476776,0.8544921278953552,100.0,232781.0,1.0
15:05:41.094379,176291.796875,180000.9375,194492.1875,172434.234375,166588.625,191485.078125,688772.8125,173985.265625,0.07080078125,0.9892578125,-0.206298828125,-0.5798339247703552,0.2136230319738388,0.8239745497703552,100.0,232782.0,1.0
15:05:41.094402,176340.34375,180014.96875,194506.953125,172430.84375,166595.78125,191531.484375,688898.3125,173985.1875,0.069091796875,0.988525390625,-0.204833984375,-0.5798339247703552,0.2136230319738388,0.7324218153953552,100.0,232783.0,1.0
15:05:41.096326,176306.90625,180017.296875,194504.4375,172437.1875,166602.578125,191529.96875,688895.9375,173989.75,0.070556640625,0.98779296875,-0.208984375,-0.5798339247703552,0.1525878757238388,0.7629393935203552,100.0,232784.0,1.0
15:05:41.102482,176280.265625,180000.65625,194491.125,172437.375,166593.640625,191478.015625,688844.9375,173989.109375,0.07080078125,0.98681640625,-0.20703125,-0.6713866591453552,0.2746581733226776,0.7324218153953552,100.0,232785.0,1.0
15:05:41.113044,176280.890625,179998.609375,194489.78125,172431.375,166587.203125,191473.640625,688768.25,173982.859375,0.0732421875,0.986083984375,-0.206787109375,-0.6713866591453552,0.2441406100988388,0.6713866591453552,100.0,232786.0,1.0
15:05:41.113056,176334.984375,180008.625,194501.9375,172428.078125,166589.171875,191515.203125,688883.5625,173981.96875,0.07421875,0.9873046875,-0.209716796875,-0.4882812201976776,0.1525878757238388,0.6408690810203552,100.0,232787.0,1.0
15:05:41.120509,176309.234375,180014.4375,194501.40625,172434.0625,166595.0625,191527.71875,688907.5,173984.828125,0.072998046875,0.986083984375,-0.204833984375,-0.5187987685203552,0.0610351525247097,0.7629393935203552,100.0,232788.0,1.0
15:05:41.120526,176270.875,179988.140625,194478.609375,172425.75,166578.078125,191469.34375,688852.5625,173975.53125,0.07275390625,0.986083984375,-0.20654296875,-0.4272460639476776,0.1525878757238388,0.6713866591453552,100.0,232789.0,1.0
15:05:41.123071,176264.703125,179987.515625,194477.703125,172424.671875,166577.546875,191462.28125,688775.375,173974.453125,0.07373046875,0.987060546875,-0.207763671875,-0.3662109076976776,0.0610351525247097,0.6408690810203552,100.0,232790.0,1.0
15:05:41.123083,176319.78125,179995.828125,194487.359375,172415.28125,166577.09375,191502.0625,688850.75,173967.296875,0.07470703125,0.986572265625,-0.210205078125,-0.3662109076976776,-0.03051757626235485,0.7019042372703552,100.0,232791.0,1.0
15:05:41.137517,176302.171875,180003.609375,194489.515625,172416.171875,166582.828125,191523.53125,688906.625,173967.75,0.072509765625,0.986572265625,-0.208251953125,-0.3967284858226776,0.1220703050494194,0.5493163466453552,100.0,232792.0,1.0
15:05:41.141836,176277.484375,179996.1875,194483.515625,172423.875,166582.015625,191484.1875,688849.6875,173975.171875,0.071533203125,0.98779296875,-0.207763671875,-0.3662109076976776,0.0610351525247097,0.4882812201976776,100.0,232793.0,1.0
15:05:41.141862,176263.0,179992.265625,194478.6875,172422.96875,166578.703125,191463.53125,688775.625,173973.015625,0.07080078125,0.986328125,-0.208740234375,-0.3662109076976776,0.0,0.4882812201976776,100.0,232794.0,1.0
15:05:41.141866,176320.671875,180002.0,194492.640625,172419.390625,166580.5,191499.46875,688813.9375,173971.6875,0.07177734375,0.986083984375,-0.208740234375,-0.3967284858226776,0.0610351525247097,0.3967284858226776,100.0,232795.0,1.0
15:05:41.148072,176320.9375,180013.625,194499.34375,172422.96875,166588.90625,191530.671875,688909.75,173975.078125,0.070068359375,0.98486328125,-0.208251953125,-0.3051757514476776,-0.0610351525247097,0.4577636420726776,100.0,232796.0,1.0
15:05:41.148099,176277.3125,179992.53125,194480.21875,172419.046875,166575.84375,191484.09375,688852.25,173970.78125,0.07177734375,0.987060546875,-0.20654296875,-0.2746581733226776,-0.03051757626235485,0.4882812201976776,100.0,232797.0,1.0
15:05:41.155058,176255.046875,179980.640625,194469.578125,172417.15625,166567.984375,191449.671875,688795.0625,173967.65625,0.0732421875,0.987060546875,-0.209716796875,-0.3051757514476776,-0.03051757626235485,0.4272460639476776,100.0,232798.0,1.0
15:05:41.161765,176303.328125,179992.703125,194484.234375,172417.15625,166572.8125,191484.90625,688789.4375,173971.40625,0.07177734375,0.9873046875,-0.2109375,-0.3051757514476776,-0.03051757626235485,0.4272460639476776,100.0,232799.0,1.0
15:05:41.161778,176314.40625,179997.359375,194487.359375,172413.859375,166573.796875,191518.515625,688902.0,173968.28125,0.072021484375,0.987548828125,-0.20947265625,-0.3356933295726776,-0.03051757626235485,0.3662109076976776,100.0,232800.0,1.0
15:05:41.171783,176275.4375,179987.4375,194474.84375,172415.546875,166569.671875,191489.1875,688858.0625,173969.984375,0.0703125,0.987548828125,-0.209716796875,-0.3356933295726776,-0.1220703050494194,0.3051757514476776,100.0,232801.0,1.0
15:05:41.171804,176251.828125,179976.4375,194463.578125,172414.75,166562.53125,191450.203125,688800.6875,173967.75,0.072021484375,0.989013671875,-0.20947265625,-0.4272460639476776,-0.1220703050494194,0.3051757514476776,100.0,232802.0,1.0
15:05:41.174339,176287.5,179985.46875,194473.0625,172413.234375,166565.65625,191475.953125,688773.75,173966.3125,0.072021484375,0.989013671875,-0.209716796875,-0.3967284858226776,0.0,0.3662109076976776,100.0,232803.0,1.0
15:05:41.174366,176322.1875,179997.625,194483.96875,172411.171875,166572.359375,191518.703125,688913.625,173964.96875,0.071044921875,0.9892578125,-0.2109375,-0.4882812201976776,0.03051757626235485,0.4272460639476776,100.0,232804.0,1.0
15:05:41.186397,176281.78125,179992.4375,194474.578125,172412.78125,166572.8125,191502.953125,688876.6875,173966.3125,0.072265625,0.98876953125,-0.2099609375,-0.4577636420726776,-0.0610351525247097,0.3662109076976776,100.0,232805.0,1.0
15:05:41.189308,176259.96875,179981.171875,194464.203125,172415.828125,166568.515625,191458.4375,688824.3125,173970.703125,0.072998046875,0.98779296875,-0.21044921875,-0.4882812201976776,-0.0610351525247097,0.3967284858226776,100.0,232806.0,1.0
15:05:41.189318,176277.578125,179985.640625,194469.578125,172414.5625,166570.03125,191470.953125,688750.8125,173970.609375,0.071533203125,0.98876953125,-0.212646484375,-0.6103515028953552,-0.03051757626235485,0.3967284858226776,100.0,232807.0,1.0
15:05:41.191258,176319.421875,179989.84375,194478.78125,172407.421875,166570.125,191508.234375,688868.875,173965.25,0.072265625,0.98876953125,-0.212646484375,-0.7019042372703552,0.0,0.2746581733226776,100.0,232808.0,1.0
15:05:41.206817,176284.546875,179990.921875,194476.640625,172415.203125,166576.203125,191508.5,688876.125,173971.859375,0.070556640625,0.9873046875,-0.2109375,-0.7934569716453552,-0.03051757626235485,0.4272460639476776,100.0,232809.0,1.0
15:05:41.206832,176258.625,179977.234375,194464.75,172421.28125,166569.765625,191461.296875,688847.0,173978.65625,0.0703125,0.988037109375,-0.2119140625,-0.7934569716453552,-0.1220703050494194,0.3967284858226776,100.0,232810.0,1.0
15:05:41.209321,176261.65625,179977.421875,194464.296875,172416.8125,166567.265625,191460.5,688760.8125,173973.296875,0.07080078125,0.987548828125,-0.21044921875,-0.7629393935203552,-0.1525878757238388,0.4577636420726776,100.0,232811.0,1.0
15:05:41.209332,176311.734375,179985.203125,194471.453125,172403.484375,166564.046875,191501.0,688845.0625,173961.671875,0.072998046875,0.989013671875,-0.2099609375,-0.7324218153953552,-0.1525878757238388,0.2441406100988388,100.0,232812.0,1.0
15:05:41.214991,176285.890625,179989.125,194473.421875,172407.78125,166572.453125,191510.375,688890.25,173965.328125,0.071044921875,0.988525390625,-0.212646484375,-0.8544921278953552,-0.1831054538488388,0.3356933295726776,100.0,232813.0,1.0
15:05:41.221807,176263.359375,179977.5,194465.640625,172415.546875,166570.921875,191462.8125,688847.8125,173973.734375,0.0693359375,0.989013671875,-0.213134765625,-1.0375975370407104,-0.2136230319738388,0.3967284858226776,100.0,232814.0,1.0
15:05:41.221823,176255.21875,179978.484375,194463.5,172413.765625,166567.71875,191451.28125,688768.5,173971.59375,0.069580078125,0.9892578125,-0.2099609375,-1.0681151151657104,-0.1220703050494194,0.3662109076976776,100.0,232815.0,1.0
15:05:41.228095,176311.28125,179987.96875,194476.640625,172408.125,166567.0,191492.40625,688839.125,173968.828125,0.069580078125,0.990966796875,-0.210693359375,-1.0681151151657104,-0.1525878757238388,0.3967284858226776,100.0,232816.0,1.0
15:05:41.228162,176284.375,179982.421875,194468.765625,172399.8125,166562.609375,191505.90625,688891.625,173958.625,0.070068359375,0.98974609375,-0.212158203125,-1.0986326932907104,-0.1831054538488388,0.2441406100988388,100.0,232817.0,1.0
15:05:41.230067,176251.203125,179964.546875,194453.296875,172400.625,166554.84375,191460.046875,688834.75,173958.8125,0.06982421875,0.98974609375,-0.213623046875,-1.2512205839157104,-0.2136230319738388,0.2441406100988388,100.0,232818.0,1.0
15:05:41.243733,176239.84375,179964.09375,194452.234375,172404.640625,166556.359375,191440.640625,688771.4375,173962.390625,0.070068359375,0.988525390625,-0.214111328125,-1.2512205839157104,-0.1220703050494194,0.2441406100988388,100.0,232819.0,1.0
15:05:41.269332,176294.828125,179976.515625,194464.921875,172399.375,166559.03125,191479.0,688812.0625,173959.703125,0.07177734375,0.987060546875,-0.213623046875,-1.1901854276657104,-0.1525878757238388,0.2746581733226776,100.0,232820.0,1.0
15:05:41.269342,176292.59375,179983.9375,194467.96875,172398.03125,166564.140625,191509.390625,688904.9375,173956.75,0.070556640625,0.986083984375,-0.21142578125,-1.2512205839157104,-0.1831054538488388,0.3051757514476776,100.0,232821.0,1.0
15:05:41.269344,176256.75,179973.03125,194456.15625,172401.609375,166560.46875,191475.421875,688849.875,173960.78125,0.070556640625,0.98876953125,-0.21240234375,-1.3122557401657104,-0.1220703050494194,0.3356933295726776,100.0,232822.0,1.0
15:05:41.293036,176236.0,179965.796875,194448.921875,172401.96875,166554.921875,191443.859375,688788.25,173962.109375,0.070068359375,0.989013671875,-0.210205078125,-1.4038084745407104,-0.1831054538488388,0.3356933295726776,100.0,232823.0,1.0
15:05:41.293063,176283.390625,179978.3125,194463.40625,172401.25,166559.3125,191477.484375,688776.4375,173963.28125,0.0703125,0.989501953125,-0.212890625,-1.5258787870407104,-0.0915527269244194,0.3662109076976776,100.0,232824.0,1.0
15:05:41.295596,176303.328125,179984.75,194471.0,172401.0625,166563.953125,191507.96875,688881.3125,173962.203125,0.069580078125,0.989990234375,-0.20849609375,-1.5563963651657104,-0.1220703050494194,0.2746581733226776,100.0,232825.0,1.0
15:05:41.295609,176263.890625,179970.53125,194458.390625,172403.3125,166558.765625,191474.703125,688843.9375,173962.5625,0.06982421875,0.98974609375,-0.207763671875,-1.6174315214157104,-0.2136230319738388,0.3051757514476776,100.0,232826.0,1.0
15:05:41.297482,176244.765625,179960.15625,194449.640625,172406.875,166553.671875,191435.640625,688807.5,173965.0625,0.069580078125,0.988525390625,-0.209716796875,-1.5563963651657104,-0.2136230319738388,0.2746581733226776,100.0,232827.0,1.0
15:05:41.299982,176282.859375,179977.6875,194465.1875,172410.09375,166561.90625,191464.875,688755.4375,173970.4375,0.070068359375,0.98828125,-0.211181640625,-1.6784666776657104,-0.1831054538488388,0.3051757514476776,100.0,232828.0,1.0
15:05:41.302544,176322.1875,179995.5625,194483.96875,172415.109375,166574.953125,191514.5,688888.3125,173976.328125,0.068359375,0.98828125,-0.211669921875,-1.7089842557907104,-0.1525878757238388,0.3967284858226776,100.0,232829.0,1.0
15:05:41.304991,176288.03125,179995.921875,194482.890625,172423.875,166583.453125,191509.125,688884.75,173982.5,0.071044921875,0.98828125,-0.209716796875,-1.7700194120407104,-0.0915527269244194,0.2746581733226776,100.0,232830.0,1.0
15:05:41.307511,176267.109375,179984.5625,194473.328125,172426.1875,166579.6875,191463.890625,688836.4375,173985.1875,0.0693359375,0.98974609375,-0.21337890625,-1.8005369901657104,-0.1831054538488388,0.3051757514476776,100.0,232831.0,1.0
15:05:41.310001,176289.203125,179995.484375,194484.421875,172429.234375,166585.859375,191478.734375,688785.375,173990.015625,0.06982421875,0.9892578125,-0.20947265625,-1.7395018339157104,-0.1220703050494194,0.3662109076976776,100.0,232832.0,1.0
15:05:41.312501,176326.03125,179997.0,194489.328125,172419.125,166581.921875,191513.875,688906.8125,173982.765625,0.072021484375,0.989013671875,-0.211669921875,-1.7700194120407104,-0.1220703050494194,0.3662109076976776,100.0,232833.0,1.0
15:05:41.314957,176289.203125,179993.953125,194483.96875,172423.15625,166584.4375,191511.8125,688917.5625,173983.84375,0.070556640625,0.990234375,-0.211669921875,-1.8615721464157104,-0.2746581733226776,0.3662109076976776,100.0,232834.0,1.0
15:05:41.318081,176255.9375,179971.515625,194464.296875,172417.96875,166569.59375,191454.59375,688854.875,173978.75,0.069091796875,0.98828125,-0.212158203125,-1.8920897245407104,-0.1831054538488388,0.3967284858226776,100.0,232835.0,1.0
15:05:41.318111,176255.3125,179971.25,194462.78125,172412.78125,166565.390625,191451.640625,688767.9375,173973.828125,0.06982421875,0.98828125,-0.21240234375,-1.8920897245407104,-0.1220703050494194,0.3662109076976776,100.0,232836.0,1.0
15:05:41.320033,176308.953125,179981.796875,194474.484375,172407.15625,166566.109375,191494.109375,688868.625,173969.09375,0.069580078125,0.986083984375,-0.211181640625,-1.8310545682907104,-0.03051757626235485,0.3356933295726776,100.0,232837.0,1.0
15:05:41.323071,176286.34375,179989.125,194476.640625,172414.125,166574.0625,191507.34375,688893.6875,173973.296875,0.072021484375,0.98681640625,-0.209228515625,-1.7089842557907104,-0.1220703050494194,0.3967284858226776,100.0,232838.0,1.0
15:05:41.323080,176262.5625,179979.296875,194467.15625,172416.09375,166569.3125,191463.078125,688844.6875,173976.953125,0.07275390625,0.98583984375,-0.21337890625,-1.7700194120407104,0.0,0.2746581733226776,100.0,232839.0,1.0
15:05:41.325526,176253.96875,179978.046875,194464.5625,172412.953125,166566.546875,191451.90625,688760.875,173971.328125,0.070556640625,0.984619140625,-0.212890625,-1.7089842557907104,0.03051757626235485,0.3967284858226776,100.0,232840.0,1.0
15:05:41.325542,176313.078125,179990.03125,194479.046875,172409.109375,166571.640625,191494.203125,688821.0,173969.09375,0.072509765625,0.984619140625,-0.2119140625,-1.7395018339157104,0.03051757626235485,0.4577636420726776,100.0,232841.0,1.0
15:05:41.327453,176302.078125,180001.46875,194484.234375,172414.5625,166582.28125,191522.625,688891.875,173974.0,0.07080078125,0.9853515625,-0.209716796875,-1.6784666776657104,0.0610351525247097,0.4272460639476776,100.0,232842.0,1.0
15:05:41.343061,176267.109375,179987.34375,194470.28125,172414.84375,166574.0625,191481.5,688845.5,173974.625,0.07080078125,0.98876953125,-0.209228515625,-1.5563963651657104,0.0915527269244194,0.4577636420726776,100.0,232843.0,1.0
15:05:41.343097,176247.265625,179977.859375,194461.890625,172411.984375,166567.625,191456.296875,688788.8125,173970.4375,0.071044921875,0.989990234375,-0.208740234375,-1.6479490995407104,0.03051757626235485,0.4272460639476776,100.0,232844.0,1.0
15:05:41.345605,176303.328125,179990.46875,194479.046875,172412.515625,166574.78125,191497.953125,688821.6875,173976.234375,0.071044921875,0.989501953125,-0.206787109375,-1.6784666776657104,0.0915527269244194,0.3662109076976776,100.0,232845.0,1.0
15:05:41.345623,176299.84375,179990.734375,194478.609375,172409.109375,166576.109375,191522.1875,688919.875,173972.21875,0.072021484375,0.986328125,-0.205810546875,-1.7395018339157104,0.0915527269244194,0.3967284858226776,100.0,232846.0,1.0
15:05:41.353090,176260.140625,179973.65625,194462.25,172409.828125,166568.34375,191481.0625,688869.25,173971.953125,0.07080078125,0.987060546875,-0.205322265625,-1.7700194120407104,0.1220703050494194,0.4882812201976776,100.0,232847.0,1.0
15:05:41.353128,176240.734375,179967.5,194455.0,172410.90625,166562.34375,191447.4375,688813.625,173970.25,0.0712890625,0.987060546875,-0.2109375,-1.7395018339157104,0.1220703050494194,0.4882812201976776,100.0,232848.0,1.0
15:05:41.358691,176282.9375,179976.515625,194465.90625,172408.484375,166563.421875,191478.1875,688801.6875,173968.46875,0.0712890625,0.98681640625,-0.210205078125,-1.7395018339157104,0.1831054538488388,0.5187987685203552,100.0,232849.0,1.0
15:05:41.369270,176305.203125,179987.25,194475.75,172410.28125,166570.84375,191519.40625,688927.3125,173971.5,0.069091796875,0.987060546875,-0.209716796875,-1.6784666776657104,0.2136230319738388,0.4882812201976776,100.0,232850.0,1.0
15:05:41.369279,176269.171875,179979.65625,194467.15625,172415.015625,166569.671875,191495.09375,688889.9375,173974.09375,0.070556640625,0.985595703125,-0.20654296875,-1.6174315214157104,0.1220703050494194,0.4272460639476776,100.0,232851.0,1.0
15:05:41.371799,176246.015625,179966.234375,194456.4375,172416.71875,166561.28125,191449.3125,688839.25,173974.28125,0.07177734375,0.98291015625,-0.207275390625,-1.6479490995407104,0.1831054538488388,0.4272460639476776,100.0,232852.0,1.0
15:05:41.371806,176283.125,179979.921875,194470.375,172421.0,166569.140625,191473.640625,688778.3125,173980.890625,0.07177734375,0.983154296875,-0.21142578125,-1.5869139432907104,0.2136230319738388,0.5187987685203552,100.0,232853.0,1.0
15:05:41.377587,176321.296875,179991.359375,194483.078125,172420.109375,166576.03125,191515.828125,688894.5625,173980.625,0.07080078125,0.982421875,-0.209716796875,-1.5258787870407104,0.3051757514476776,0.4882812201976776,100.0,232854.0,1.0
15:05:41.395626,176286.34375,179989.9375,194482.0,172427.984375,166582.109375,191508.5,688890.125,173986.25,0.072509765625,0.983642578125,-0.21142578125,-1.4648436307907104,0.3051757514476776,0.4272460639476776,100.0,232855.0,1.0
15:05:41.395640,176262.828125,179976.609375,194469.65625,172426.640625,166574.0625,191461.828125,688839.75,173986.703125,0.070068359375,0.983642578125,-0.21337890625,-1.3427733182907104,0.3051757514476776,0.4272460639476776,100.0,232856.0,1.0
15:05:41.411758,176273.203125,179978.3125,194470.5625,172420.734375,166570.65625,191470.59375,688765.8125,173981.34375,0.07080078125,0.986083984375,-0.209228515625,-1.3122557401657104,0.2441406100988388,0.4577636420726776,100.0,232857.0,1.0
15:05:41.411769,176316.734375,179984.484375,194478.328125,172410.09375,166570.21875,191511.28125,688875.5,173971.953125,0.072509765625,0.98583984375,-0.20751953125,-1.2207030057907104,0.2136230319738388,0.3967284858226776,100.0,232858.0,1.0
15:05:41.411771,176283.125,179981.078125,194473.78125,172413.40625,166572.53125,191506.09375,688892.0625,173972.671875,0.072021484375,0.98388671875,-0.208740234375,-1.1901854276657104,0.3051757514476776,0.5798339247703552,100.0,232859.0,1.0
15:05:41.411773,176255.671875,179962.484375,194457.765625,172412.875,166561.0,191454.140625,688839.5,173971.40625,0.071533203125,0.982666015625,-0.212158203125,-1.1596678495407104,0.2136230319738388,0.6103515028953552,100.0,232860.0,1.0
15:05:41.413686,176258.359375,179966.78125,194460.28125,172411.796875,166561.984375,191456.203125,688762.4375,173971.328125,0.0703125,0.982666015625,-0.211181640625,-1.1596678495407104,0.2441406100988388,0.6103515028953552,100.0,232861.0,1.0
15:05:41.416759,176316.015625,179979.46875,194474.84375,172408.046875,166567.0,191501.796875,688865.0,173970.4375,0.0693359375,0.98583984375,-0.21240234375,-1.1291502714157104,0.3051757514476776,0.5493163466453552,100.0,232862.0,1.0
15:05:41.416776,176293.40625,179987.609375,194476.28125,172414.390625,166574.859375,191516.734375,688900.125,173972.671875,0.069580078125,0.987060546875,-0.21337890625,-1.0986326932907104,0.2441406100988388,0.6103515028953552,100.0,232863.0,1.0
15:05:41.416787,176266.046875,179975.1875,194464.828125,172417.703125,166569.5,191469.25,688842.6875,173975.078125,0.068115234375,0.98876953125,-0.210205078125,-0.9765624403953552,0.1525878757238388,0.6408690810203552,100.0,232864.0,1.0
15:05:41.418689,176265.0625,179982.15625,194468.40625,172423.953125,166574.5,191461.65625,688777.0,173980.0,0.06982421875,0.990234375,-0.2119140625,-1.0681151151657104,0.3051757514476776,0.5798339247703552,100.0,232865.0,1.0
15:05:41.429991,176327.90625,179997.09375,194487.640625,172423.515625,166584.4375,191507.78125,688849.0625,173982.859375,0.06982421875,0.989501953125,-0.212890625,-1.0986326932907104,0.3356933295726776,0.5187987685203552,100.0,232866.0,1.0
15:05:41.434349,176312.453125,180001.46875,194489.6875,172419.578125,166589.4375,191531.03125,688913.0,173978.75,0.071533203125,0.987060546875,-0.211669921875,-1.0681151151657104,0.2746581733226776,0.6103515028953552,100.0,232867.0,1.0
15:05:41.434397,176278.734375,179986.8125,194475.75,172421.359375,166582.46875,191489.546875,688855.5625,173981.421875,0.07080078125,0.986572265625,-0.21533203125,-1.0375975370407104,0.2746581733226776,0.7019042372703552,100.0,232868.0,1.0
15:05:41.434409,176267.109375,179981.4375,194469.21875,172426.90625,166576.203125,191465.140625,688795.9375,173984.921875,0.068359375,0.98681640625,-0.211669921875,-0.9460448622703552,0.2136230319738388,0.6103515028953552,100.0,232869.0,1.0
15:05:41.437456,176315.578125,179985.46875,194477.53125,172423.515625,166572.1875,191496.96875,688814.1875,173982.40625,0.069091796875,0.987548828125,-0.2099609375,-0.9155272841453552,0.1831054538488388,0.4882812201976776,100.0,232870.0,1.0
15:05:41.458015,176323.984375,179998.515625,194489.6875,172427.359375,166585.59375,191533.890625,688920.0625,173987.15625,0.065185546875,0.98828125,-0.207763671875,-0.9765624403953552,0.1525878757238388,0.3967284858226776,100.0,232871.0,1.0
15:05:41.458027,176288.21875,179990.46875,194479.9375,172429.5,166583.625,191500.640625,688866.375,173988.765625,0.065185546875,0.991943359375,-0.208251953125,-1.0070799589157104,0.0915527269244194,0.3356933295726776,100.0,232872.0,1.0
15:05:41.469266,176264.34375,179978.578125,194467.25,172425.03125,166574.0625,191461.828125,688802.3125,173983.03125,0.062744140625,0.993408203125,-0.20654296875,-1.1901854276657104,0.03051757626235485,0.3051757514476776,100.0,232873.0,1.0
15:05:41.469280,176302.609375,179986.09375,194474.40625,172416.8125,166573.609375,191488.484375,688793.0,173979.375,0.0634765625,0.99609375,-0.20703125,-1.3122557401657104,-0.03051757626235485,0.1831054538488388,100.0,232874.0,1.0
15:05:41.469282,176318.25,179992.34375,194479.5,172412.953125,166577.546875,191524.421875,688906.125,173976.421875,0.061767578125,0.998046875,-0.208984375,-1.4648436307907104,-0.1831054538488388,0.2136230319738388,100.0,232875.0,1.0
15:05:41.469284,176272.75,179978.3125,194465.640625,172412.6875,166572.265625,191497.234375,688868.8125,173975.703125,0.064208984375,0.999267578125,-0.206298828125,-1.6784666776657104,-0.0915527269244194,0.3051757514476776,100.0,232876.0,1.0
15:05:41.471755,176251.203125,179965.796875,194453.484375,172411.890625,166564.40625,191453.78125,688824.5625,173974.90625,0.068359375,0.99609375,-0.208251953125,-1.8005369901657104,-0.2136230319738388,0.1220703050494194,100.0,232877.0,1.0
15:05:41.471760,176278.734375,179974.28125,194462.25,172409.5625,166566.8125,191474.078125,688774.5,173972.9375,0.071044921875,0.994384765625,-0.208251953125,-1.9226073026657104,-0.2441406100988388,0.1220703050494194,100.0,232878.0,1.0
15:05:41.473720,176317.625,179987.96875,194476.28125,172410.453125,166575.84375,191520.03125,688911.75,173976.6875,0.074951171875,0.99462890625,-0.2099609375,-1.9531248807907104,-0.3967284858226776,0.3051757514476776,100.0,232879.0,1.0
15:05:41.488743,176276.765625,179981.703125,194468.5,172412.609375,166576.296875,191509.046875,688892.75,173977.21875,0.076171875,0.992431640625,-0.2080078125,-2.014159917831421,-0.3662109076976776,0.4272460639476776,100.0,232880.0,1.0
15:05:41.491817,176244.671875,179961.140625,194448.828125,172407.234375,166562.796875,191454.765625,688829.9375,173970.15625,0.07666015625,0.9912109375,-0.206787109375,-2.136230230331421,-0.2136230319738388,0.5493163466453552,100.0,232881.0,1.0
15:05:41.491878,176259.25,179969.375,194455.09375,172407.15625,166567.171875,191467.203125,688757.6875,173972.578125,0.076416015625,0.9892578125,-0.205810546875,-2.136230230331421,-0.0915527269244194,0.6713866591453552,100.0,232882.0,1.0
15:05:41.493706,176313.34375,179985.46875,194472.96875,172408.046875,166576.296875,191516.8125,688882.0625,173975.890625,0.074951171875,0.990478515625,-0.204833984375,-2.166747808456421,0.0,0.8239745497703552,100.0,232883.0,1.0
15:05:41.496244,176284.015625,179989.484375,194472.796875,172414.21875,166583.359375,191522.453125,688908.6875,173980.53125,0.072021484375,0.989013671875,-0.203857421875,-2.319335699081421,0.03051757626235485,0.9460448622703552,100.0,232884.0,1.0
15:05:41.505581,176251.109375,179969.1875,194453.390625,172409.390625,166567.796875,191466.21875,688853.8125,173974.359375,0.072265625,0.988037109375,-0.205322265625,-2.288818120956421,0.0915527269244194,0.9765624403953552,100.0,232885.0,1.0
15:05:41.505617,176253.171875,179974.5625,194457.953125,172412.875,166569.046875,191464.96875,688779.4375,173977.671875,0.07275390625,0.987548828125,-0.206298828125,-2.258300542831421,0.03051757626235485,1.0375975370407104,100.0,232886.0,1.0
15:05:41.507466,176315.03125,179988.140625,194473.59375,172412.328125,166575.84375,191512.796875,688884.4375,173980.359375,0.071533203125,0.987548828125,-0.206298828125,-2.258300542831421,0.0915527269244194,1.0070799589157104,100.0,232887.0,1.0
15:05:41.514982,176289.375,179991.984375,194472.078125,172414.484375,166580.9375,191528.078125,688931.25,173980.359375,0.068603515625,0.984130859375,-0.204833984375,-2.258300542831421,0.03051757626235485,1.0986326932907104,100.0,232888.0,1.0
15:05:41.519309,176256.828125,179974.828125,194456.078125,172410.375,166569.046875,191477.390625,688860.25,173974.8125,0.068603515625,0.98291015625,-0.20654296875,-2.197265386581421,0.03051757626235485,0.9765624403953552,100.0,232889.0,1.0
15:05:41.519316,176248.703125,179977.5,194456.34375,172410.09375,166567.71875,191464.25,688785.375,173973.203125,0.06640625,0.982177734375,-0.207763671875,-2.136230230331421,0.0915527269244194,0.9765624403953552,100.0,232890.0,1.0
15:05:41.525119,176307.703125,179990.03125,194471.546875,172410.453125,166572.265625,191505.46875,688851.375,173975.171875,0.0673828125,0.983154296875,-0.206787109375,-2.075195074081421,0.0610351525247097,0.9460448622703552,100.0,232891.0,1.0
15:05:41.535708,176298.859375,179997.4375,194476.1875,172415.46875,166579.609375,191531.03125,688931.25,173977.84375,0.0703125,0.980712890625,-0.20703125,-1.9836424589157104,0.03051757626235485,0.8544921278953552,100.0,232892.0,1.0
15:05:41.535767,176262.203125,179978.765625,194457.421875,172413.40625,166568.25,191483.921875,688864.0,173974.453125,0.070556640625,0.9814453125,-0.206298828125,-1.9226073026657104,-0.03051757626235485,0.7934569716453552,100.0,232893.0,1.0
15:05:41.537413,176249.234375,179974.734375,194452.9375,172417.15625,166566.1875,191457.90625,688797.8125,173976.328125,0.0703125,0.980224609375,-0.2041015625,-1.8310545682907104,0.1220703050494194,0.6408690810203552,100.0,232894.0,1.0
15:05:41.544898,176302.25,179984.03125,194467.15625,172417.078125,166569.59375,191491.25,688816.4375,173978.390625,0.071533203125,0.9814453125,-0.205322265625,-1.6479490995407104,0.1220703050494194,0.5493163466453552,100.0,232895.0,1.0
15:05:41.544944,176315.390625,179999.5,194481.46875,172424.40625,166582.828125,191530.40625,688928.0,173984.921875,0.07177734375,0.98291015625,-0.208740234375,-1.5869139432907104,0.1831054538488388,0.4577636420726776,100.0,232896.0,1.0
15:05:41.546203,176281.15625,179992.890625,194473.859375,172430.125,166582.46875,191499.734375,688881.3125,173988.578125,0.07421875,0.981689453125,-0.203857421875,-1.4648436307907104,0.1831054538488388,0.3662109076976776,100.0,232897.0,1.0
15:05:41.553691,176264.171875,179986.359375,194470.109375,172433.703125,166578.53125,191462.640625,688819.1875,173990.28125,0.07470703125,0.98291015625,-0.204833984375,-1.2512205839157104,0.03051757626235485,0.3662109076976776,100.0,232898.0,1.0
15:05:41.557506,176307.96875,179999.59375,194485.484375,172431.734375,166585.0625,191495.0,688794.1875,173989.921875,0.0751953125,0.982177734375,-0.204833984375,-1.2207030057907104,0.1220703050494194,0.3662109076976776,100.0,232899.0,1.0
15:05:41.564315,176335.328125,180013.0,194497.46875,172430.578125,166592.125,191536.484375,688914.75,173987.6875,0.076171875,0.981201171875,-0.206298828125,-1.0681151151657104,0.2746581733226776,0.4882812201976776,100.0,232900.0,1.0
15:05:41.564336,176296.890625,180004.15625,194485.9375,172432.984375,166589.171875,191512.96875,688884.0,173988.046875,0.078125,0.981201171875,-0.20556640625,-0.8850097060203552,0.3662109076976776,0.3967284858226776,100.0,232901.0,1.0
15:05:41.566241,176274.71875,179990.375,194473.15625,172431.921875,166580.765625,191467.5625,688823.75,173986.96875,0.07666015625,0.982421875,-0.20751953125,-0.7019042372703552,0.3356933295726776,0.4272460639476776,100.0,232902.0,1.0
15:05:41.577500,176299.21875,179994.21875,194478.6875,172426.109375,166578.96875,191484.09375,688771.25,173982.5,0.075439453125,0.981689453125,-0.205810546875,-0.7019042372703552,0.3662109076976776,0.3662109076976776,100.0,232903.0,1.0
15:05:41.581763,176336.671875,180002.453125,194489.25,172424.765625,166582.28125,191526.109375,688899.1875,173982.40625,0.073486328125,0.9833984375,-0.207763671875,-0.5493163466453552,0.4882812201976776,0.4882812201976776,100.0,232904.0,1.0
15:05:41.581771,176294.5625,179996.8125,194480.484375,172425.203125,166581.65625,191514.578125,688885.1875,173980.796875,0.07275390625,0.985595703125,-0.20703125,-0.4577636420726776,0.5798339247703552,0.4272460639476776,100.0,232905.0,1.0
15:05:41.588112,176269.625,179979.46875,194465.546875,172422.890625,166570.578125,191461.828125,688825.8125,173977.3125,0.070068359375,0.984375,-0.204833984375,-0.3051757514476776,0.7019042372703552,0.4272460639476776,100.0,232906.0,1.0
15:05:41.588126,176284.46875,179984.65625,194471.71875,172423.328125,166573.25,191470.953125,688754.75,173977.140625,0.071044921875,0.985595703125,-0.209716796875,-0.2441406100988388,0.7019042372703552,0.3662109076976776,100.0,232907.0,1.0
15:05:41.589899,176332.109375,179991.359375,194480.65625,172416.265625,166574.6875,191514.765625,688883.5625,173972.3125,0.06982421875,0.9853515625,-0.210205078125,-0.1525878757238388,0.6713866591453552,0.4577636420726776,100.0,232908.0,1.0
15:05:41.597581,176294.828125,179989.21875,194474.140625,172416.53125,166576.109375,191516.109375,688889.8125,173970.4375,0.0693359375,0.985595703125,-0.211669921875,0.03051757626235485,0.6103515028953552,0.3662109076976776,100.0,232909.0,1.0
15:05:41.608047,176260.765625,179967.578125,194456.78125,172413.40625,166563.953125,191460.765625,688847.8125,173967.84375,0.068603515625,0.98681640625,-0.208251953125,0.0610351525247097,0.7324218153953552,0.3662109076976776,100.0,232910.0,1.0
15:05:41.608055,176264.875,179975.09375,194464.03125,172420.296875,166570.03125,191464.34375,688762.0,173976.515625,0.067626953125,0.988037109375,-0.207763671875,0.1220703050494194,0.4577636420726776,0.3356933295726776,100.0,232911.0,1.0
15:05:41.610062,176322.546875,179985.28125,194477.703125,172418.59375,166572.890625,191507.15625,688858.0,173980.0,0.066162109375,0.988525390625,-0.208740234375,0.1525878757238388,0.4577636420726776,0.2746581733226776,100.0,232912.0,1.0
15:05:41.641268,176295.90625,179986.0,194472.703125,172417.4375,166573.609375,191517.0,688899.0625,173977.5,0.06494140625,0.98876953125,-0.2099609375,0.2136230319738388,0.3662109076976776,0.3051757514476776,100.0,232913.0,1.0
15:05:41.677592,176255.84375,179960.875,194450.4375,172409.03125,166558.234375,191459.328125,688841.375,173968.015625,0.06591796875,0.98974609375,-0.209716796875,0.1831054538488388,0.2746581733226776,0.3356933295726776,100.0,232914.0,1.0
15:05:41.691831,176243.875,179957.390625,194448.296875,172409.921875,166556.09375,191441.8125,688767.1875,173967.5625,0.066650390625,0.9921875,-0.212646484375,0.0610351525247097,0.1831054538488388,0.2746581733226776,100.0,232915.0,1.0
15:05:41.693826,176304.671875,179971.25,194467.25,172407.5,166561.546875,191484.09375,688805.6875,173966.046875,0.06787109375,0.991455078125,-0.213134765625,0.03051757626235485,0.0915527269244194,0.3967284858226776,100.0,232916.0,1.0
15:05:41.696206,176304.21875,179986.8125,194477.53125,172413.046875,166574.6875,191516.734375,688894.9375,173970.78125,0.068603515625,0.98974609375,-0.20947265625,0.0,0.1525878757238388,0.4577636420726776,100.0,232917.0,1.0
15:05:41.698758,176271.9375,179979.828125,194468.40625,172415.90625,166572.890625,191480.078125,688845.9375,173974.453125,0.068115234375,0.990966796875,-0.213623046875,-0.0610351525247097,0.03051757626235485,0.4577636420726776,100.0,232918.0,1.0
15:05:41.701337,176250.75,179972.765625,194458.484375,172410.640625,166564.578125,191448.59375,688782.0625,173968.015625,0.06787109375,0.991943359375,-0.214599609375,-0.1220703050494194,-0.0915527269244194,0.4577636420726776,100.0,232919.0,1.0
15:05:41.703793,176303.6875,179986.359375,194473.421875,172411.0,166569.140625,191485.796875,688791.5625,173970.078125,0.068603515625,0.992431640625,-0.212158203125,-0.0915527269244194,0.03051757626235485,0.3356933295726776,100.0,232920.0,1.0
15:05:41.706267,176310.921875,179992.703125,194477.53125,172409.203125,166570.65625,191517.359375,688895.9375,173967.921875,0.0693359375,0.99169921875,-0.2109375,-0.1525878757238388,-0.0915527269244194,0.5493163466453552,100.0,232921.0,1.0
15:05:41.708937,176265.6875,179975.265625,194460.984375,172407.859375,166561.984375,191479.0,688854.875,173966.3125,0.069091796875,0.9921875,-0.21240234375,-0.2441406100988388,-0.03051757626235485,0.5493163466453552,100.0,232922.0,1.0
15:05:41.711286,176244.5,179966.6875,194454.109375,172412.515625,166559.484375,191442.515625,688816.0625,173970.25,0.069091796875,0.991455078125,-0.212158203125,-0.2746581733226776,-0.1831054538488388,0.4272460639476776,100.0,232923.0,1.0
15:05:41.713796,176283.84375,179977.234375,194466.71875,172409.109375,166563.421875,191470.6875,688773.625,173973.203125,0.069091796875,0.99169921875,-0.212646484375,-0.3967284858226776,-0.1525878757238388,0.4882812201976776,100.0,232924.0,1.0
15:05:41.716411,176312.71875,179985.203125,194476.09375,172407.59375,166569.671875,191510.734375,688903.25,173971.59375,0.069091796875,0.990966796875,-0.21337890625,-0.3967284858226776,-0.1525878757238388,0.5493163466453552,100.0,232925.0,1.0
15:05:41.718815,176270.875,179976.609375,194465.1875,172408.21875,166568.875,191490.359375,688874.875,173969.359375,0.069091796875,0.989013671875,-0.21435546875,-0.4882812201976776,-0.0610351525247097,0.5798339247703552,100.0,232926.0,1.0
15:05:41.721330,176242.171875,179959.0,194448.390625,172402.5,166559.9375,191444.578125,688834.8125,173964.703125,0.069580078125,0.984375,-0.214111328125,-0.5798339247703552,-0.03051757626235485,0.6103515028953552,100.0,232927.0,1.0
15:05:41.723746,176269.265625,179968.5625,194460.28125,172405.265625,166566.90625,191467.109375,688762.875,173968.015625,0.069580078125,0.9853515625,-0.216552734375,-0.7629393935203552,-0.0915527269244194,0.7324218153953552,100.0,232928.0,1.0
15:05:41.726235,176315.21875,179986.171875,194477.703125,172406.96875,166577.546875,191516.1875,688891.4375,173971.59375,0.072998046875,0.985595703125,-0.217529296875,-0.7324218153953552,-0.1220703050494194,0.7019042372703552,100.0,232929.0,1.0
15:05:41.728742,176281.59375,179990.46875,194474.140625,172412.515625,166581.65625,191512.96875,688895.4375,173974.453125,0.073974609375,0.98779296875,-0.215087890625,-0.7019042372703552,-0.1831054538488388,0.8239745497703552,100.0,232930.0,1.0
15:05:41.731248,176248.15625,179967.765625,194452.3125,172403.84375,166563.6875,191455.3125,688836.0,173964.171875,0.07373046875,0.990478515625,-0.212158203125,-0.7324218153953552,-0.1220703050494194,0.9460448622703552,100.0,232931.0,1.0
15:05:41.733696,176256.5625,179971.96875,194454.375,172402.234375,166560.5625,191460.40625,688754.0,173961.578125,0.07421875,0.9873046875,-0.211669921875,-0.8544921278953552,-0.1525878757238388,0.8850097060203552,100.0,232932.0,1.0
15:05:41.736313,176314.40625,179986.8125,194471.265625,172403.75,166565.921875,191506.0,688881.75,173964.171875,0.072509765625,0.98486328125,-0.217041015625,-0.9765624403953552,0.0,0.9460448622703552,100.0,232933.0,1.0
15:05:41.738676,176285.625,179990.03125,194469.65625,172408.3125,166571.46875,191513.15625,688903.4375,173965.78125,0.07275390625,0.98291015625,-0.214599609375,-1.0070799589157104,-0.0915527269244194,1.0986326932907104,100.0,232934.0,1.0
15:05:41.741226,176256.390625,179970.984375,194452.765625,172409.5625,166560.109375,191457.71875,688851.625,173966.046875,0.0712890625,0.98291015625,-0.211669921875,-1.0375975370407104,-0.0915527269244194,0.9765624403953552,100.0,232935.0,1.0
15:05:41.744887,176260.140625,179978.578125,194460.09375,172415.640625,166563.953125,191455.578125,688776.75,173972.390625,0.07275390625,0.984375,-0.21484375,-1.1291502714157104,-0.03051757626235485,0.8239745497703552,100.0,232936.0,1.0
15:05:41.744909,176314.953125,179985.46875,194470.828125,172407.15625,166562.890625,191495.546875,688857.3125,173967.296875,0.0712890625,0.986328125,-0.213623046875,-1.1901854276657104,0.0,0.7629393935203552,100.0,232937.0,1.0
15:05:41.744920,176299.484375,179994.671875,194475.75,172412.328125,166573.515625,191516.734375,688913.9375,173972.390625,0.071533203125,0.98681640625,-0.21435546875,-1.2207030057907104,0.0,0.7629393935203552,100.0,232938.0,1.0
15:05:41.748834,176265.5,179975.265625,194460.09375,172408.671875,166563.859375,191467.640625,688851.75,173970.078125,0.072998046875,0.987060546875,-0.21435546875,-1.2817381620407104,0.0610351525247097,0.5798339247703552,100.0,232939.0,1.0
15:05:41.748889,176250.3125,179968.5625,194454.015625,172405.8125,166559.03125,191446.28125,688772.4375,173965.0625,0.070556640625,0.988037109375,-0.216064453125,-1.2817381620407104,0.0,0.4882812201976776,100.0,232940.0,1.0
15:05:41.748902,176311.640625,179983.140625,194473.6875,172406.875,166568.6875,191490.890625,688811.25,173966.859375,0.070556640625,0.98583984375,-0.21533203125,-1.3122557401657104,0.0,0.4882812201976776,100.0,232941.0,1.0
15:05:41.753148,176304.40625,179989.484375,194477.796875,172407.0625,166576.46875,191518.78125,688899.1875,173966.046875,0.07177734375,0.986083984375,-0.214111328125,-1.3122557401657104,-0.03051757626235485,0.4882812201976776,100.0,232942.0,1.0
15:05:41.753214,176266.484375,179974.734375,194463.21875,172407.5,166569.953125,191478.28125,688852.25,173966.40625,0.071044921875,0.98876953125,-0.215087890625,-1.4343260526657104,-0.03051757626235485,0.5187987685203552,100.0,232943.0,1.0
15:05:41.753238,176248.25,179970.71875,194456.96875,172408.484375,166566.015625,191451.734375,688795.0625,173966.140625,0.0732421875,0.986572265625,-0.21435546875,-1.4038084745407104,-0.0610351525247097,0.5187987685203552,100.0,232944.0,1.0
15:05:41.753260,176296.0,179979.734375,194468.328125,172406.171875,166568.0625,191485.703125,688801.875,173968.828125,0.074951171875,0.985595703125,-0.215087890625,-1.4648436307907104,-0.03051757626235485,0.4882812201976776,100.0,232945.0,1.0
15:05:41.756002,176307.34375,179987.515625,194473.953125,172406.171875,166575.3125,191520.3125,688914.6875,173971.0625,0.07421875,0.98779296875,-0.21484375,-1.4343260526657104,0.03051757626235485,0.5798339247703552,100.0,232946.0,1.0
15:05:41.756050,176264.4375,179973.390625,194458.046875,172404.734375,166568.34375,191487.5,688862.125,173968.640625,0.07275390625,0.986328125,-0.216064453125,-1.4038084745407104,0.03051757626235485,0.5493163466453552,100.0,232947.0,1.0
15:05:41.757717,176239.578125,179961.59375,194446.6875,172402.234375,166560.46875,191447.96875,688804.625,173963.90625,0.0732421875,0.988037109375,-0.212646484375,-1.3122557401657104,0.1220703050494194,0.6103515028953552,100.0,232948.0,1.0
15:05:41.759990,176274.265625,179970.4375,194455.359375,172397.84375,166561.71875,191473.1875,688773.875,173962.109375,0.0751953125,0.989501953125,-0.21337890625,-1.4038084745407104,0.1220703050494194,0.5493163466453552,100.0,232949.0,1.0
15:05:41.762502,176301.1875,179979.921875,194465.109375,172396.234375,166567.265625,191513.515625,688907.0,173961.125,0.07421875,0.98779296875,-0.216796875,-1.4343260526657104,0.1525878757238388,0.6713866591453552,100.0,232950.0,1.0
15:05:41.768711,176260.40625,179971.515625,194454.015625,172397.3125,166564.671875,191492.765625,688871.5,173958.71875,0.072265625,0.98974609375,-0.214111328125,-1.4343260526657104,0.2136230319738388,0.5798339247703552,100.0,232951.0,1.0
15:05:41.771181,176242.265625,179962.3125,194447.3125,172405.890625,166562.078125,191450.296875,688824.375,173964.703125,0.069091796875,0.9912109375,-0.21435546875,-1.4648436307907104,0.2136230319738388,0.7324218153953552,100.0,232952.0,1.0
15:05:41.774305,176266.40625,179970.796875,194455.8125,172405.8125,166563.78125,191467.5625,688760.625,173963.28125,0.0703125,0.990966796875,-0.216552734375,-1.5869139432907104,0.1525878757238388,0.7934569716453552,100.0,232953.0,1.0
15:05:41.774314,176312.71875,179980.8125,194469.84375,172405.359375,166571.109375,191511.453125,688894.75,173963.8125,0.06884765625,0.99072265625,-0.214599609375,-1.6174315214157104,0.1525878757238388,0.8850097060203552,100.0,232954.0,1.0
15:05:41.781248,176274.453125,179976.34375,194463.140625,172409.296875,166572.1875,191502.6875,688892.625,173965.953125,0.0693359375,0.99169921875,-0.212646484375,-1.6479490995407104,0.0610351525247097,0.9155272841453552,100.0,232955.0,1.0
15:05:41.791972,176247.625,179961.140625,194449.640625,172412.515625,166564.046875,191452.796875,688833.9375,173969.171875,0.071533203125,0.99169921875,-0.21142578125,-1.7089842557907104,0.0610351525247097,0.8239745497703552,100.0,232956.0,1.0
15:05:41.791983,176253.890625,179963.5625,194450.625,172408.9375,166562.609375,191453.875,688749.375,173965.328125,0.0712890625,0.989013671875,-0.2119140625,-1.8615721464157104,0.0610351525247097,0.7629393935203552,100.0,232957.0,1.0
15:05:41.793698,176305.921875,179972.671875,194461.796875,172402.953125,166564.5,191495.09375,688874.25,173962.65625,0.072021484375,0.990234375,-0.212158203125,-1.8310545682907104,0.03051757626235485,0.7629393935203552,100.0,232958.0,1.0
15:05:41.796272,176278.828125,179978.046875,194463.671875,172407.953125,166572.1875,191505.375,688903.0625,173968.46875,0.071044921875,0.989990234375,-0.213134765625,-1.9226073026657104,0.1220703050494194,0.8239745497703552,100.0,232959.0,1.0
15:05:41.808044,176250.671875,179960.703125,194449.375,172405.984375,166561.09375,191453.34375,688838.6875,173966.046875,0.072021484375,0.989013671875,-0.21240234375,-1.8920897245407104,0.0915527269244194,0.7019042372703552,100.0,232960.0,1.0
15:05:41.808063,176251.203125,179967.40625,194455.984375,172410.90625,166566.375,191453.078125,688758.9375,173970.515625,0.0712890625,0.98876953125,-0.213623046875,-1.8615721464157104,0.1525878757238388,0.6713866591453552,100.0,232961.0,1.0
15:05:41.810736,176314.40625,179984.75,194475.109375,172410.71875,166575.578125,191502.0625,688838.125,173975.078125,0.072998046875,0.989013671875,-0.212646484375,-1.8920897245407104,0.0915527269244194,0.6408690810203552,100.0,232962.0,1.0
15:05:41.810767,176298.59375,179993.0625,194478.96875,172413.59375,166583.265625,191525.484375,688901.25,173975.890625,0.072021484375,0.988525390625,-0.21337890625,-1.8615721464157104,0.0915527269244194,0.5187987685203552,100.0,232963.0,1.0
15:05:41.820218,176262.28125,179972.953125,194461.796875,172410.71875,166571.28125,191474.796875,688853.6875,173970.703125,0.07421875,0.9873046875,-0.210693359375,-1.8920897245407104,0.1220703050494194,0.4272460639476776,100.0,232964.0,1.0
15:05:41.824446,176251.109375,179971.515625,194458.578125,172413.140625,166568.609375,191458.25,688787.5625,173970.4375,0.073486328125,0.98583984375,-0.211181640625,-1.8615721464157104,0.2441406100988388,0.4882812201976776,100.0,232965.0,1.0
15:05:41.824469,176308.953125,179981.984375,194472.796875,172410.546875,166571.375,191497.953125,688826.375,173969.71875,0.074462890625,0.985107421875,-0.20947265625,-1.8615721464157104,0.1831054538488388,0.4272460639476776,100.0,232966.0,1.0
15:05:41.833933,176297.25,179982.15625,194468.953125,172404.640625,166570.21875,191520.03125,688915.75,173962.5625,0.07373046875,0.9833984375,-0.206787109375,-1.8310545682907104,0.1831054538488388,0.4272460639476776,100.0,232967.0,1.0
15:05:41.838117,176255.765625,179962.21875,194449.71875,172401.609375,166559.75,191474.703125,688863.375,173958.546875,0.073974609375,0.981201171875,-0.206787109375,-1.8615721464157104,0.2136230319738388,0.3967284858226776,100.0,232968.0,1.0
15:05:41.838139,176240.828125,179959.265625,194447.046875,172405.359375,166560.640625,191448.25,688802.625,173961.75,0.074951171875,0.9833984375,-0.21044921875,-1.7089842557907104,0.2441406100988388,0.4272460639476776,100.0,232969.0,1.0
15:05:41.845519,176287.40625,179970.078125,194460.546875,172402.328125,166565.828125,191481.765625,688788.4375,173961.671875,0.072998046875,0.9833984375,-0.2099609375,-1.5563963651657104,0.3051757514476776,0.2136230319738388,100.0,232970.0,1.0
15:05:41.845528,176304.671875,179984.125,194473.0625,172408.046875,166577.28125,191521.46875,688906.125,173967.75,0.07275390625,0.982177734375,-0.209228515625,-1.4953612089157104,0.2746581733226776,0.1525878757238388,100.0,232971.0,1.0
15:05:41.847446,176277.3125,179986.359375,194472.796875,172422.078125,166583.453125,191503.3125,688878.1875,173979.640625,0.07177734375,0.980712890625,-0.211181640625,-1.4953612089157104,0.3356933295726776,0.1831054538488388,100.0,232972.0,1.0
15:05:41.855093,176252.546875,179973.390625,194458.21875,172418.140625,166570.65625,191461.75,688809.875,173973.5625,0.071533203125,0.9814453125,-0.2109375,-1.4038084745407104,0.3662109076976776,0.2136230319738388,100.0,232973.0,1.0
15:05:41.865653,176280.265625,179975.359375,194460.1875,172408.125,166562.34375,191481.40625,688762.625,173963.8125,0.0712890625,0.98095703125,-0.21240234375,-1.3732908964157104,0.3967284858226776,0.0610351525247097,100.0,232974.0,1.0
15:05:41.865672,176309.578125,179983.859375,194468.953125,172405.0,166563.953125,191521.296875,688888.0625,173959.875,0.069091796875,0.9814453125,-0.209716796875,-1.1901854276657104,0.3051757514476776,0.03051757626235485,100.0,232975.0,1.0
15:05:41.868079,176269.984375,179975.984375,194459.375,172408.9375,166562.4375,191503.765625,688872.1875,173961.484375,0.0703125,0.980224609375,-0.21044921875,-1.1596678495407104,0.3051757514476776,0.0,100.0,232976.0,1.0
15:05:41.868087,176246.203125,179964.546875,194448.03125,172407.59375,166557.078125,191459.59375,688828.3125,173961.125,0.0693359375,0.97998046875,-0.20751953125,-1.0986326932907104,0.2746581733226776,-0.0915527269244194,100.0,232977.0,1.0
15:05:41.872510,176273.203125,179977.0625,194461.171875,172411.34375,166565.125,191479.625,688766.0,173966.578125,0.067626953125,0.98193359375,-0.206298828125,-1.0375975370407104,0.3051757514476776,-0.1525878757238388,100.0,232978.0,1.0
15:05:41.889895,176322.90625,179991.8125,194478.609375,172411.4375,166574.234375,191525.84375,688894.0,173968.640625,0.06787109375,0.985107421875,-0.205810546875,-0.9460448622703552,0.2136230319738388,0.0,100.0,232979.0,1.0
15:05:41.889907,176284.734375,179987.78125,194473.0625,172414.03125,166576.296875,191518.078125,688886.6875,173969.171875,0.068115234375,0.984375,-0.209228515625,-0.9155272841453552,0.1220703050494194,-0.0610351525247097,100.0,232980.0,1.0
15:05:41.889909,176255.84375,179968.125,194454.90625,172412.78125,166564.578125,191462.546875,688838.3125,173967.296875,0.068359375,0.9853515625,-0.209716796875,-0.9155272841453552,0.0915527269244194,0.03051757626235485,100.0,232981.0,1.0
15:05:41.892527,176266.40625,179977.6875,194460.453125,172414.921875,166567.984375,191470.859375,688763.125,173969.796875,0.066650390625,0.9853515625,-0.210693359375,-0.8239745497703552,0.1220703050494194,0.0915527269244194,100.0,232982.0,1.0
15:05:41.894948,176315.671875,179985.828125,194468.59375,172405.359375,166565.75,191512.703125,688871.75,173964.53125,0.06591796875,0.98583984375,-0.21142578125,-0.8239745497703552,0.03051757626235485,0.0915527269244194,100.0,232983.0,1.0
15:05:41.897465,176285.171875,179988.234375,194465.640625,172408.21875,166569.671875,191522.09375,688907.0,173967.484375,0.0654296875,0.98779296875,-0.2119140625,-0.8239745497703552,-0.03051757626235485,0.03051757626235485,100.0,232984.0,1.0
15:05:41.901242,176255.40625,179970.71875,194449.8125,172408.046875,166558.328125,191469.796875,688857.9375,173966.9375,0.065673828125,0.987060546875,-0.2138671875,-0.7934569716453552,-0.1220703050494194,0.2136230319738388,100.0,232985.0,1.0
15:05:41.911949,176247.8125,179970.078125,194447.9375,172405.890625,166555.46875,191460.21875,688769.75,173963.453125,0.0654296875,0.98828125,-0.216552734375,-0.7324218153953552,-0.1220703050494194,0.3051757514476776,100.0,232986.0,1.0
15:05:41.911975,176304.671875,179980.8125,194461.890625,172401.0625,166560.640625,191501.796875,688838.4375,173962.296875,0.0673828125,0.988037109375,-0.213623046875,-0.7019042372703552,-0.1525878757238388,0.3662109076976776,100.0,232987.0,1.0
15:05:41.914367,176288.484375,179986.0,194465.015625,172401.78125,166568.25,191522.453125,688903.125,173962.203125,0.068359375,0.989013671875,-0.213623046875,-0.7324218153953552,-0.1831054538488388,0.3662109076976776,100.0,232988.0,1.0
15:05:41.914377,176255.671875,179969.640625,194451.328125,172400.984375,166561.09375,191475.609375,688840.0,173960.421875,0.06787109375,0.989990234375,-0.212646484375,-0.7629393935203552,-0.2136230319738388,0.4577636420726776,100.0,232989.0,1.0
15:05:41.919985,176242.171875,179966.328125,194446.78125,172400.796875,166556.984375,191454.765625,688772.5,173958.8125,0.06689453125,0.990478515625,-0.211181640625,-0.8239745497703552,-0.3356933295726776,0.5187987685203552,100.0,232990.0,1.0
15:05:41.931202,176295.453125,179975.453125,194459.109375,172399.8125,166559.21875,191493.03125,688808.4375,173960.5,0.068115234375,0.990234375,-0.214599609375,-0.8544921278953552,-0.3967284858226776,0.5187987685203552,100.0,232991.0,1.0
15:05:41.931239,176296.359375,179987.34375,194468.953125,172406.703125,166571.375,191526.75,688910.5625,173967.5625,0.068603515625,0.990478515625,-0.212890625,-0.8544921278953552,-0.3356933295726776,0.6103515028953552,100.0,232992.0,1.0
15:05:41.932577,176250.125,179963.203125,194446.953125,172400.625,166558.140625,191478.109375,688854.3125,173960.78125,0.0673828125,0.98974609375,-0.211181640625,-0.7324218153953552,-0.3356933295726776,0.7629393935203552,100.0,232993.0,1.0
15:05:41.936783,176225.8125,179950.6875,194435.15625,172397.3125,166548.84375,191440.546875,688788.1875,173955.953125,0.068359375,0.9892578125,-0.2109375,-0.8544921278953552,-0.3356933295726776,0.6408690810203552,100.0,232994.0,1.0
15:05:41.944392,176270.609375,179957.921875,194445.703125,172391.59375,166550.71875,191472.03125,688788.625,173954.875,0.0703125,0.989013671875,-0.2119140625,-0.9155272841453552,-0.4577636420726776,0.6408690810203552,100.0,232995.0,1.0
15:05:41.944461,176286.78125,179966.6875,194455.359375,172390.4375,166558.234375,191510.921875,688907.625,173954.78125,0.0703125,0.98974609375,-0.212646484375,-0.9460448622703552,-0.4577636420726776,0.7019042372703552,100.0,232996.0,1.0
15:05:41.951361,176252.28125,179960.703125,194450.171875,172397.140625,166558.40625,191485.078125,688866.125,173958.71875,0.070068359375,0.990478515625,-0.211669921875,-1.0070799589157104,-0.4272460639476776,0.7324218153953552,100.0,232997.0,1.0
15:05:41.955677,176233.5,179953.453125,194442.03125,172400.4375,166553.046875,191446.453125,688814.75,173959.25,0.07177734375,0.989990234375,-0.210693359375,-0.9765624403953552,-0.5187987685203552,0.7629393935203552,100.0,232998.0,1.0
15:05:41.955697,176270.6875,179965.703125,194454.640625,172402.046875,166556.984375,191472.203125,688767.5,173962.296875,0.070556640625,0.98779296875,-0.21337890625,-1.0070799589157104,-0.5187987685203552,0.6408690810203552,100.0,232999.0,1.0
15:05:41.965195,176302.875,179975.453125,194466.265625,172398.65625,166561.546875,191512.078125,688897.625,173959.609375,0.070068359375,0.98779296875,-0.21337890625,-1.0681151151657104,-0.4882812201976776,0.7324218153953552,100.0,233000.0,1.0
15:05:41.968082,176271.671875,179980.015625,194469.390625,172412.421875,166573.34375,191508.6875,688881.3125,173972.21875,0.071533203125,0.98828125,-0.21044921875,-0.9460448622703552,-0.4577636420726776,0.6408690810203552,100.0,233001.0,1.0
15:05:41.968091,176249.421875,179968.5625,194461.171875,172414.84375,166569.046875,191464.96875,688826.5,173974.09375,0.072998046875,0.98828125,-0.2119140625,-1.0986326932907104,-0.3356933295726776,0.7324218153953552,100.0,233002.0,1.0
15:05:41.976290,176271.046875,179977.6875,194469.484375,172414.296875,166572.265625,191481.328125,688757.125,173974.71875,0.072265625,0.986572265625,-0.21435546875,-1.0375975370407104,-0.2746581733226776,0.6408690810203552,100.0,233003.0,1.0
15:05:42.010548,176313.609375,179981.796875,194476.453125,172407.859375,166570.21875,191520.390625,688869.8125,173969.453125,0.073974609375,0.986572265625,-0.214599609375,-1.0681151151657104,-0.2136230319738388,0.7629393935203552,100.0,233004.0,1.0
15:05:42.010559,176277.578125,179979.921875,194471.453125,172412.328125,166570.390625,191516.109375,688880.0,173972.390625,0.07373046875,0.9892578125,-0.214599609375,-1.0986326932907104,-0.1831054538488388,0.6103515028953552,100.0,233005.0,1.0
15:05:42.029953,176247.171875,179959.71875,194454.46875,172409.390625,166555.640625,191460.84375,688828.3125,173969.71875,0.073974609375,0.986083984375,-0.212890625,-1.0681151151657104,-0.0610351525247097,0.5798339247703552,100.0,233006.0,1.0
15:05:42.033331,176255.40625,179968.125,194458.21875,172410.28125,166556.625,191466.65625,688748.8125,173967.5625,0.074951171875,0.986572265625,-0.2119140625,-1.1596678495407104,0.03051757626235485,0.4577636420726776,100.0,233007.0,1.0
15:05:42.033410,176314.953125,179984.390625,194475.828125,172408.765625,166563.6875,191514.765625,688862.3125,173968.46875,0.0751953125,0.986083984375,-0.214599609375,-1.1596678495407104,0.0610351525247097,0.6103515028953552,100.0,233008.0,1.0
15:05:42.034932,176288.9375,179990.296875,194476.640625,172413.671875,166571.375,191526.46875,688903.0625,173972.75,0.074462890625,0.987060546875,-0.2138671875,-1.2207030057907104,0.1220703050494194,0.7019042372703552,100.0,233009.0,1.0
15:05:42.037501,176253.34375,179969.8125,194457.421875,172407.59375,166558.328125,191473.1875,688841.1875,173966.234375,0.074462890625,0.98828125,-0.21484375,-1.2817381620407104,0.0915527269244194,0.7019042372703552,100.0,233010.0,1.0
15:05:42.039988,176243.25,179963.734375,194454.46875,172406.515625,166554.390625,191458.53125,688761.0,173965.421875,0.072998046875,0.98583984375,-0.213623046875,-1.2512205839157104,0.1525878757238388,0.7324218153953552,100.0,233011.0,1.0
15:05:42.042536,176304.40625,179976.609375,194471.1875,172407.5,166559.671875,191503.765625,688824.75,173967.484375,0.072998046875,0.98779296875,-0.215576171875,-1.2512205839157104,0.2136230319738388,0.6713866591453552,100.0,233012.0,1.0
15:05:42.044991,176290.453125,179980.28125,194471.546875,172409.109375,166563.78125,191525.21875,688898.75,173966.765625,0.07177734375,0.9873046875,-0.212646484375,-1.2207030057907104,0.2136230319738388,0.6103515028953552,100.0,233013.0,1.0
15:05:42.047472,176253.609375,179959.71875,194453.65625,172406.703125,166551.796875,191475.609375,688851.9375,173963.90625,0.0712890625,0.985107421875,-0.212646484375,-1.2207030057907104,0.2746581733226776,0.6103515028953552,100.0,233014.0,1.0
15:05:42.049980,176233.046875,179954.078125,194447.046875,172402.328125,166546.15625,191451.46875,688788.5,173960.78125,0.072509765625,0.984375,-0.211669921875,-1.3427733182907104,0.3662109076976776,0.5187987685203552,100.0,233015.0,1.0
15:05:42.052441,176287.59375,179965.796875,194460.1875,172398.65625,166550.546875,191487.765625,688804.875,173960.78125,0.071533203125,0.98681640625,-0.213134765625,-1.3732908964157104,0.4577636420726776,0.5187987685203552,100.0,233016.0,1.0
15:05:42.055073,176293.484375,179979.390625,194468.671875,172400.625,166561.1875,191521.921875,688907.0625,173962.65625,0.0703125,0.987548828125,-0.21337890625,-1.3427733182907104,0.3967284858226776,0.5187987685203552,100.0,233017.0,1.0
15:05:42.057570,176264.4375,179977.328125,194465.1875,172407.859375,166565.296875,191495.890625,688870.8125,173969.796875,0.069580078125,0.987060546875,-0.214599609375,-1.4038084745407104,0.4577636420726776,0.5493163466453552,100.0,233018.0,1.0
15:05:42.060014,176242.890625,179968.125,194456.078125,172407.59375,166558.765625,191463.0,688808.75,173968.640625,0.070556640625,0.98583984375,-0.211669921875,-1.3427733182907104,0.4882812201976776,0.6713866591453552,100.0,233019.0,1.0
15:05:42.062519,176284.015625,179974.734375,194464.03125,172402.046875,166557.96875,191492.234375,688785.9375,173965.6875,0.070068359375,0.985595703125,-0.21240234375,-1.3732908964157104,0.4882812201976776,0.7324218153953552,100.0,233020.0,1.0
15:05:42.065556,176307.53125,179990.5625,194478.609375,172407.6875,166569.765625,191534.25,688902.875,173969.53125,0.06884765625,0.984619140625,-0.21337890625,-1.3732908964157104,0.5187987685203552,0.6713866591453552,100.0,233021.0,1.0
15:05:42.065577,176268.28125,179983.140625,194469.84375,172412.25,166569.3125,191508.234375,688868.125,173974.28125,0.070068359375,0.98681640625,-0.21142578125,-1.4953612089157104,0.5493163466453552,0.6103515028953552,100.0,233022.0,1.0
15:05:42.068059,176244.40625,179969.453125,194457.328125,172414.125,166560.375,191461.75,688825.25,173975.53125,0.070556640625,0.98828125,-0.213134765625,-1.4648436307907104,0.5493163466453552,0.6713866591453552,100.0,233023.0,1.0
15:05:42.068079,176265.5,179969.453125,194458.046875,172405.546875,166553.5,191475.328125,688761.875,173968.28125,0.07080078125,0.988037109375,-0.212890625,-1.3732908964157104,0.4577636420726776,0.7019042372703552,100.0,233024.0,1.0
15:05:42.070105,176297.25,179976.515625,194467.15625,172402.40625,166558.234375,191513.875,688881.25,173967.125,0.070556640625,0.986572265625,-0.211181640625,-1.4038084745407104,0.5187987685203552,0.6713866591453552,100.0,233025.0,1.0
15:05:42.073187,176261.484375,179973.84375,194462.59375,172408.125,166562.609375,191501.078125,688867.0,173972.046875,0.0693359375,0.985595703125,-0.21337890625,-1.4953612089157104,0.4577636420726776,0.6408690810203552,100.0,233026.0,1.0
15:05:42.073236,176243.421875,179965.4375,194455.171875,172413.765625,166560.015625,191458.25,688826.375,173975.890625,0.06884765625,0.986083984375,-0.213623046875,-1.4953612089157104,0.4272460639476776,0.7019042372703552,100.0,233027.0,1.0
15:05:42.075108,176262.640625,179973.21875,194463.046875,172412.25,166562.34375,191472.46875,688751.25,173975.171875,0.07080078125,0.9853515625,-0.21337890625,-1.5563963651657104,0.4577636420726776,0.6713866591453552,100.0,233028.0,1.0
15:05:42.083093,176312.09375,179982.875,194474.046875,172407.6875,166566.015625,191515.125,688871.75,173972.3125,0.071533203125,0.98779296875,-0.2119140625,-1.6174315214157104,0.5798339247703552,0.7324218153953552,100.0,233029.0,1.0
15:05:42.083103,176274.8125,179977.5,194465.375,172407.859375,166563.859375,191510.65625,688877.375,173970.078125,0.07080078125,0.98828125,-0.212890625,-1.5869139432907104,0.5798339247703552,0.6103515028953552,100.0,233030.0,1.0
15:05:42.085673,176245.65625,179958.546875,194448.734375,172405.8125,166549.921875,191458.25,688848.25,173966.046875,0.0712890625,0.98583984375,-0.214599609375,-1.5563963651657104,0.6103515028953552,0.5493163466453552,100.0,233031.0,1.0
15:05:42.086029,176258.171875,179970.796875,194460.453125,172412.6875,166558.859375,191468.265625,688761.875,173973.5625,0.07080078125,0.986328125,-0.21337890625,-1.5258787870407104,0.5798339247703552,0.6713866591453552,100.0,233032.0,1.0
15:05:42.093885,176319.0625,179984.5625,194478.15625,172412.0625,166565.75,191515.828125,688861.5625,173975.34375,0.072021484375,0.985595703125,-0.21337890625,-1.5258787870407104,0.5493163466453552,0.7324218153953552,100.0,233033.0,1.0
15:05:42.101935,176297.15625,179992.609375,194481.28125,172415.640625,166574.0625,191532.109375,688902.0625,173975.609375,0.070556640625,0.986328125,-0.214599609375,-1.5258787870407104,0.4272460639476776,0.7019042372703552,100.0,233034.0,1.0
15:05:42.101959,176276.0625,179983.234375,194473.953125,172421.0,166572.8125,191491.703125,688851.8125,173978.5625,0.06982421875,0.989501953125,-0.212890625,-1.5563963651657104,0.4577636420726776,0.7934569716453552,100.0,233035.0,1.0
15:05:42.106862,176281.6875,179992.34375,194482.09375,172430.125,166579.15625,191489.375,688786.1875,173983.390625,0.070068359375,0.9873046875,-0.2119140625,-1.6479490995407104,0.4272460639476776,0.7934569716453552,100.0,233036.0,1.0
15:05:42.106867,176341.40625,179999.40625,194494.078125,172423.953125,166578.703125,191524.234375,688848.4375,173978.921875,0.0712890625,0.9873046875,-0.214111328125,-1.6174315214157104,0.3967284858226776,0.7629393935203552,100.0,233037.0,1.0
15:05:42.108788,176334.0,180010.5,194500.953125,172429.328125,166587.015625,191548.640625,688921.625,173984.109375,0.070068359375,0.98828125,-0.212646484375,-1.6479490995407104,0.3967284858226776,0.6713866591453552,100.0,233038.0,1.0
15:05:42.117598,176300.375,179997.625,194487.015625,172431.296875,166580.046875,191506.09375,688863.125,173985.625,0.0703125,0.986328125,-0.211181640625,-1.6784666776657104,0.4577636420726776,0.6713866591453552,100.0,233039.0,1.0
15:05:42.121264,176288.3125,179996.109375,194485.484375,172436.921875,166580.9375,191486.15625,688799.6875,173989.296875,0.0693359375,0.989013671875,-0.2177734375,-1.6174315214157104,0.4577636420726776,0.8239745497703552,100.0,233040.0,1.0
15:05:42.128527,176338.203125,180001.828125,194493.984375,172429.5,166578.796875,191517.890625,688808.1875,173986.703125,0.070556640625,0.989501953125,-0.21142578125,-1.6784666776657104,0.3051757514476776,0.8850097060203552,100.0,233041.0,1.0
15:05:42.128601,176343.921875,180012.546875,194501.40625,172429.765625,166586.484375,191550.53125,688910.5,173989.46875,0.071044921875,0.98876953125,-0.213134765625,-1.7700194120407104,0.2746581733226776,0.8239745497703552,100.0,233042.0,1.0
15:05:42.133744,176310.03125,180002.890625,194492.734375,172434.59375,166583.265625,191515.921875,688861.8125,173991.703125,0.070068359375,0.987060546875,-0.213134765625,-1.7395018339157104,0.3051757514476776,0.8239745497703552,100.0,233043.0,1.0
15:05:42.143036,176288.578125,179991.71875,194482.265625,172431.46875,166573.515625,191476.9375,688795.9375,173984.46875,0.073486328125,0.986572265625,-0.212890625,-1.7700194120407104,0.3662109076976776,0.8239745497703552,100.0,233044.0,1.0
15:05:42.143048,176334.265625,180000.578125,194493.984375,172429.953125,166577.015625,191508.0625,688778.8125,173983.9375,0.0732421875,0.986083984375,-0.21240234375,-1.8005369901657104,0.3356933295726776,0.6713866591453552,100.0,233045.0,1.0
15:05:42.150624,176355.625,180010.140625,194502.921875,172429.046875,166585.59375,191548.46875,688896.8125,173984.375,0.0712890625,0.986572265625,-0.216064453125,-1.7395018339157104,0.2136230319738388,0.7324218153953552,100.0,233046.0,1.0
15:05:42.150643,176312.890625,180000.3125,194490.859375,172429.859375,166582.828125,191521.640625,688860.4375,173983.484375,0.0712890625,0.986572265625,-0.215087890625,-1.7700194120407104,0.2746581733226776,0.6408690810203552,100.0,233047.0,1.0
15:05:42.153059,176284.90625,179981.078125,194476.1875,172427.0,166569.953125,191471.3125,688800.625,173978.390625,0.07080078125,0.98681640625,-0.211669921875,-1.7700194120407104,0.2441406100988388,0.6713866591453552,100.0,233048.0,1.0
15:05:42.153070,176312.984375,179987.96875,194485.046875,172428.078125,166572.265625,191490.359375,688752.3125,173980.265625,0.069091796875,0.987548828125,-0.21337890625,-1.8005369901657104,0.1831054538488388,0.6103515028953552,100.0,233049.0,1.0
15:05:42.167475,176355.453125,180004.15625,194502.46875,172434.5,166583.625,191537.65625,688899.0625,173988.9375,0.06982421875,0.98486328125,-0.2109375,-1.8310545682907104,0.2441406100988388,0.7324218153953552,100.0,233050.0,1.0
15:05:42.170675,176316.640625,180002.546875,194496.3125,172438.359375,166584.96875,191529.6875,688890.8125,173990.8125,0.071044921875,0.98583984375,-0.211669921875,-1.8310545682907104,0.1525878757238388,0.6408690810203552,100.0,233051.0,1.0
15:05:42.170733,176291.609375,179989.3125,194483.96875,172435.765625,166575.484375,191485.265625,688837.875,173985.453125,0.07080078125,0.984619140625,-0.2109375,-1.8615721464157104,0.1525878757238388,0.7019042372703552,100.0,233052.0,1.0
15:05:42.181859,176311.46875,180000.21875,194495.5,172436.65625,166582.109375,191502.328125,688779.6875,173988.578125,0.072265625,0.986328125,-0.20947265625,-1.8615721464157104,0.1525878757238388,0.6713866591453552,100.0,233053.0,1.0
15:05:42.181876,176359.390625,180013.625,194509.71875,172430.65625,166588.0,191548.5625,688906.1875,173986.171875,0.0703125,0.98583984375,-0.21044921875,-1.8615721464157104,0.1525878757238388,0.7629393935203552,100.0,233054.0,1.0
15:05:42.186865,176324.421875,180016.578125,194505.875,172433.171875,166592.296875,191551.421875,688922.5625,173988.84375,0.070068359375,0.987548828125,-0.2099609375,-1.9531248807907104,0.0915527269244194,0.7629393935203552,100.0,233055.0,1.0
15:05:42.186883,176293.40625,179996.28125,194486.921875,172430.3125,166578.96875,191497.15625,688848.0625,173984.921875,0.071044921875,0.986083984375,-0.21142578125,-1.9226073026657104,0.1220703050494194,0.8239745497703552,100.0,233056.0,1.0
15:05:42.193192,176284.546875,179989.3125,194478.875,172422.4375,166568.609375,191486.875,688754.8125,173974.8125,0.070068359375,0.98681640625,-0.21240234375,-1.8615721464157104,0.1525878757238388,0.7324218153953552,100.0,233057.0,1.0
15:05:42.193208,176330.5,179989.046875,194483.515625,172409.390625,166564.671875,191520.578125,688842.1875,173967.125,0.0703125,0.987060546875,-0.2109375,-1.8310545682907104,0.0915527269244194,0.7324218153953552,100.0,233058.0,1.0
15:05:42.198730,176308.15625,179995.65625,194485.578125,172417.875,166575.21875,191538.90625,688885.375,173976.15625,0.072998046875,0.98681640625,-0.213134765625,-1.8005369901657104,-0.0915527269244194,0.7019042372703552,100.0,233059.0,1.0
15:05:42.206897,176270.6875,179971.25,194464.921875,172415.015625,166560.734375,191483.65625,688834.9375,173974.09375,0.0732421875,0.9853515625,-0.21142578125,-1.8310545682907104,-0.03051757626235485,0.7934569716453552,100.0,233060.0,1.0
15:05:42.206970,176254.953125,179960.96875,194455.453125,172408.84375,166553.046875,191460.765625,688757.125,173967.484375,0.073486328125,0.9873046875,-0.211669921875,-1.8615721464157104,0.03051757626235485,0.7324218153953552,100.0,233061.0,1.0
15:05:42.209306,176312.796875,179970.71875,194469.75,172406.4375,166555.015625,191500.09375,688806.25,173968.015625,0.073974609375,0.987060546875,-0.213134765625,-1.8005369901657104,0.0,0.7934569716453552,100.0,233062.0,1.0
15:05:42.209321,176305.46875,179979.390625,194475.46875,172410.1875,166561.71875,191524.6875,688885.1875,173968.640625,0.0712890625,0.98779296875,-0.211181640625,-1.7395018339157104,0.0,0.7324218153953552,100.0,233063.0,1.0
15:05:42.218714,176276.0625,179967.21875,194465.734375,172416.09375,166559.484375,191482.21875,688833.5,173973.375,0.07177734375,0.98828125,-0.208984375,-1.8615721464157104,-0.03051757626235485,0.7934569716453552,100.0,233064.0,1.0
15:05:42.223115,176261.65625,179965.890625,194463.046875,172419.671875,166558.0625,191462.015625,688769.8125,173972.9375,0.073974609375,0.988037109375,-0.208984375,-1.8310545682907104,0.0610351525247097,0.7019042372703552,100.0,233065.0,1.0
15:05:42.223124,176315.390625,179979.65625,194477.265625,172416.359375,166561.71875,191504.390625,688795.5,173970.609375,0.073974609375,0.98876953125,-0.208251953125,-1.8005369901657104,0.0610351525247097,0.7324218153953552,100.0,233066.0,1.0
15:05:42.232438,176326.484375,179994.671875,194486.921875,172420.375,166573.796875,191542.75,688907.0625,173974.625,0.0732421875,0.98876953125,-0.210693359375,-1.8920897245407104,0.03051757626235485,0.7019042372703552,100.0,233067.0,1.0
15:05:42.239290,176284.28125,179979.921875,194471.453125,172417.78125,166565.5625,191504.484375,688856.6875,173972.21875,0.07373046875,0.9892578125,-0.21142578125,-1.9531248807907104,0.1220703050494194,0.6713866591453552,100.0,233068.0,1.0
15:05:42.239310,176264.53125,179974.109375,194465.109375,172420.5625,166561.71875,191470.78125,688810.25,173973.828125,0.074462890625,0.9873046875,-0.2138671875,-1.9531248807907104,0.0915527269244194,0.7019042372703552,100.0,233069.0,1.0
15:05:42.245537,176308.15625,179985.828125,194477.0,172419.046875,166565.03125,191499.296875,688779.5625,173975.53125,0.074951171875,0.9853515625,-0.211669921875,-1.8615721464157104,0.1525878757238388,0.7629393935203552,100.0,233070.0,1.0
15:05:42.245540,176328.984375,179993.59375,194481.828125,172414.921875,166566.109375,191535.234375,688898.0625,173970.515625,0.074462890625,0.9833984375,-0.214111328125,-1.9226073026657104,0.0915527269244194,0.7324218153953552,100.0,233071.0,1.0
15:05:42.247447,176284.546875,179981.4375,194466.984375,172413.671875,166558.5,191508.765625,688868.375,173968.1875,0.074951171875,0.9853515625,-0.2119140625,-1.8615721464157104,0.1831054538488388,0.7324218153953552,100.0,233072.0,1.0
15:05:42.258856,176259.703125,179967.84375,194454.015625,172414.65625,166549.203125,191462.8125,688816.0,173968.640625,0.074462890625,0.982421875,-0.2109375,-1.7700194120407104,0.1220703050494194,0.6103515028953552,100.0,233073.0,1.0
15:05:42.263678,176290.546875,179979.296875,194466.359375,172417.609375,166554.75,191485.96875,688764.0625,173974.0,0.074462890625,0.983154296875,-0.21337890625,-1.8005369901657104,0.2441406100988388,0.5798339247703552,100.0,233074.0,1.0
15:05:42.263744,176331.21875,179992.96875,194481.46875,172417.4375,166563.421875,191533.09375,688891.8125,173974.984375,0.073486328125,0.98193359375,-0.2138671875,-1.8005369901657104,0.2746581733226776,0.4882812201976776,100.0,233075.0,1.0
15:05:42.263774,176291.34375,179987.15625,194472.796875,172417.78125,166563.59375,191520.75,688881.75,173974.8125,0.075439453125,0.9814453125,-0.21240234375,-1.7395018339157104,0.2746581733226776,0.5493163466453552,100.0,233076.0,1.0
15:05:42.267673,176263.984375,179969.375,194458.046875,172413.671875,166552.875,191470.0625,688831.0625,173969.984375,0.0751953125,0.982177734375,-0.214599609375,-1.5563963651657104,0.2441406100988388,0.6103515028953552,100.0,233077.0,1.0
15:05:42.276341,176277.40625,179977.234375,194462.78125,172411.171875,166553.3125,191480.078125,688756.8125,173966.671875,0.073486328125,0.982666015625,-0.213623046875,-1.5563963651657104,0.3051757514476776,0.6103515028953552,100.0,233078.0,1.0
15:05:42.279355,176336.046875,179995.203125,194480.125,172413.859375,166560.109375,191528.625,688888.5625,173970.609375,0.072998046875,0.98388671875,-0.211181640625,-1.5563963651657104,0.3356933295726776,0.5798339247703552,100.0,233079.0,1.0
15:05:42.279418,176296.078125,179986.890625,194467.703125,172411.171875,166554.484375,191522.265625,688893.25,173964.890625,0.071044921875,0.980712890625,-0.2138671875,-1.3732908964157104,0.3051757514476776,0.5187987685203552,100.0,233080.0,1.0
15:05:42.285044,176261.9375,179962.390625,194446.953125,172407.6875,166539.8125,191465.3125,688841.25,173962.03125,0.0712890625,0.980712890625,-0.212158203125,-1.3122557401657104,0.3662109076976776,0.5493163466453552,100.0,233081.0,1.0
15:05:42.319417,176258.796875,179962.046875,194446.0625,172403.84375,166538.296875,191460.140625,688758.5,173961.046875,0.07080078125,0.98046875,-0.21337890625,-1.1596678495407104,0.2441406100988388,0.4272460639476776,100.0,233082.0,1.0
15:05:42.319498,176314.5,179972.046875,194459.109375,172399.546875,166541.25,191504.03125,688849.875,173960.328125,0.071044921875,0.979736328125,-0.213623046875,-1.1291502714157104,0.2136230319738388,0.4272460639476776,100.0,233083.0,1.0
15:05:42.321896,176289.375,179975.984375,194458.484375,172402.859375,166544.90625,191520.125,688896.6875,173961.75,0.0712890625,0.98193359375,-0.212890625,-1.0681151151657104,0.1525878757238388,0.3356933295726776,100.0,233084.0,1.0
15:05:42.321956,176254.15625,179956.859375,194439.0,172399.1875,166531.5,191468.890625,688835.3125,173958.546875,0.070068359375,0.984375,-0.21337890625,-1.0681151151657104,0.1525878757238388,0.3662109076976776,100.0,233085.0,1.0
15:05:42.325914,176243.25,179955.515625,194435.234375,172399.546875,166527.484375,191454.59375,688761.8125,173957.28125,0.06982421875,0.98681640625,-0.21240234375,-0.9765624403953552,0.1525878757238388,0.4272460639476776,100.0,233086.0,1.0
15:05:42.325983,176305.734375,179969.8125,194453.75,172401.0625,166534.453125,191497.5,688832.6875,173961.484375,0.07275390625,0.98876953125,-0.21484375,-0.9460448622703552,0.1220703050494194,0.4577636420726776,100.0,233087.0,1.0
15:05:42.326008,176296.171875,179973.296875,194456.703125,172400.0,166539.640625,191518.609375,688911.125,173958.625,0.0732421875,0.9892578125,-0.215576171875,-0.9155272841453552,0.0915527269244194,0.3967284858226776,100.0,233088.0,1.0
15:05:42.326030,176259.96875,179954.890625,194442.75,172398.921875,166532.75,191473.1875,688850.3125,173956.65625,0.072509765625,0.987548828125,-0.215087890625,-0.9155272841453552,0.1220703050494194,0.3662109076976776,100.0,233089.0,1.0
15:05:42.327742,176248.25,179950.234375,194442.9375,172404.203125,166535.96875,191447.34375,688791.3125,173960.953125,0.071044921875,0.986083984375,-0.216064453125,-0.9460448622703552,0.1831054538488388,0.3356933295726776,100.0,233090.0,1.0
15:05:42.330101,176309.5,179970.71875,194467.96875,172409.296875,166551.890625,191494.46875,688808.625,173969.625,0.069091796875,0.986572265625,-0.21630859375,-0.9155272841453552,0.0610351525247097,0.2746581733226776,100.0,233091.0,1.0
15:05:42.332789,176315.3125,179978.765625,194473.859375,172406.078125,166558.234375,191529.78125,688916.5,173967.65625,0.06591796875,0.986328125,-0.216064453125,-0.7934569716453552,0.0610351525247097,0.2746581733226776,100.0,233092.0,1.0
15:05:42.335150,176269.359375,179963.109375,194455.359375,172401.703125,166547.421875,191494.46875,688863.375,173962.296875,0.065673828125,0.98779296875,-0.20947265625,-0.7934569716453552,0.0,0.0915527269244194,100.0,233093.0,1.0
15:05:42.342566,176244.9375,179954.890625,194443.203125,172401.0625,166538.203125,191458.171875,688802.125,173959.171875,0.063232421875,0.989990234375,-0.2119140625,-0.9765624403953552,-0.1220703050494194,0.03051757626235485,100.0,233094.0,1.0
15:05:42.345000,176286.703125,179968.75,194456.25,172401.96875,166542.40625,191489.28125,688775.8125,173962.921875,0.063232421875,0.990478515625,-0.2119140625,-1.0681151151657104,-0.3051757514476776,-0.03051757626235485,100.0,233095.0,1.0
15:05:42.371432,176309.234375,179976.796875,194462.953125,172396.15625,166546.4375,191524.859375,688902.1875,173958.546875,0.065673828125,0.9921875,-0.20947265625,-1.1596678495407104,-0.3967284858226776,-0.1525878757238388,100.0,233096.0,1.0
15:05:42.398789,176273.015625,179970.71875,194455.8125,172400.359375,166547.765625,191505.640625,688868.5625,173960.6875,0.066162109375,0.9931640625,-0.210693359375,-1.2817381620407104,-0.4272460639476776,-0.2746581733226776,100.0,233097.0,1.0
15:05:42.405565,176253.078125,179958.015625,194447.21875,172403.84375,166542.9375,191461.46875,688812.6875,173964.34375,0.06787109375,0.99365234375,-0.20849609375,-1.3732908964157104,-0.4577636420726776,-0.2441406100988388,100.0,233098.0,1.0
15:05:42.405626,176280.703125,179966.515625,194455.71875,172402.046875,166545.1875,191478.828125,688753.0625,173964.890625,0.07177734375,0.9951171875,-0.2099609375,-1.6479490995407104,-0.5493163466453552,-0.1220703050494194,100.0,233099.0,1.0
15:05:42.407522,176323.890625,179980.546875,194468.046875,172398.296875,166551.265625,191523.4375,688881.625,173962.203125,0.0712890625,0.997802734375,-0.210205078125,-1.7700194120407104,-0.6408690810203552,-0.0915527269244194,100.0,233100.0,1.0
15:05:42.410089,176282.5,179976.34375,194460.453125,172397.9375,166553.234375,191515.921875,688880.1875,173960.15625,0.072021484375,0.995849609375,-0.21240234375,-1.8005369901657104,-0.6103515028953552,-0.03051757626235485,100.0,233101.0,1.0
15:05:42.416271,176256.5625,179961.40625,194446.859375,172395.609375,166544.828125,191467.46875,688827.875,173956.75,0.07373046875,0.996826171875,-0.214111328125,-2.044677495956421,-0.5798339247703552,0.0610351525247097,100.0,233102.0,1.0
15:05:42.418745,176272.21875,179972.671875,194457.140625,172399.546875,166549.921875,191480.15625,688758.125,173958.890625,0.072998046875,0.996337890625,-0.210693359375,-2.136230230331421,-0.4577636420726776,0.2136230319738388,100.0,233103.0,1.0
15:05:42.421255,176328.1875,179990.828125,194475.03125,172399.015625,166558.328125,191532.640625,688888.0625,173961.75,0.071044921875,0.992431640625,-0.212646484375,-2.349853277206421,-0.3662109076976776,0.3662109076976776,100.0,233104.0,1.0
15:05:42.423748,176300.90625,179994.84375,194474.9375,172405.625,166565.65625,191540.6875,688906.375,173969.359375,0.072021484375,0.9921875,-0.208740234375,-2.410888433456421,-0.3662109076976776,0.3967284858226776,100.0,233105.0,1.0
15:05:42.428850,176265.15625,179965.96875,194451.25,172399.015625,166547.421875,191478.375,688839.75,173963.546875,0.070068359375,0.989990234375,-0.210205078125,-2.502441167831421,-0.3356933295726776,0.5493163466453552,100.0,233106.0,1.0
15:05:42.431328,176267.203125,179967.84375,194454.109375,172403.75,166549.203125,191472.921875,688768.875,173968.640625,0.0693359375,0.988037109375,-0.209716796875,-2.502441167831421,-0.3662109076976776,0.5798339247703552,100.0,233107.0,1.0
15:05:42.433814,176325.140625,179974.46875,194466.359375,172399.109375,166550.09375,191513.25,688855.0625,173966.578125,0.07080078125,0.98876953125,-0.20556640625,-2.563476324081421,-0.3051757514476776,0.7629393935203552,100.0,233108.0,1.0
15:05:42.436293,176298.046875,179971.421875,194460.09375,172395.703125,166549.828125,191523.875,688904.375,173961.40625,0.069091796875,0.98876953125,-0.208251953125,-2.624511480331421,-0.3051757514476776,0.8239745497703552,100.0,233109.0,1.0
15:05:42.438731,176267.296875,179956.578125,194446.6875,172398.390625,166542.9375,191477.03125,688846.9375,173963.28125,0.067138671875,0.9873046875,-0.20751953125,-2.777099370956421,-0.3356933295726776,0.9460448622703552,100.0,233110.0,1.0
15:05:42.451210,176259.421875,179961.40625,194447.578125,172402.859375,166544.90625,191464.96875,688777.1875,173966.671875,0.06591796875,0.9853515625,-0.20947265625,-2.746581792831421,-0.3356933295726776,0.8544921278953552,100.0,233111.0,1.0
15:05:42.453689,176323.359375,179981.078125,194469.84375,172406.796875,166554.296875,191512.078125,688822.125,173973.109375,0.06884765625,0.98486328125,-0.20947265625,-2.807616949081421,-0.3662109076976776,0.8544921278953552,100.0,233112.0,1.0
15:05:42.460011,176325.140625,179995.65625,194481.109375,172413.9375,166567.171875,191545.421875,688912.8125,173978.75,0.068359375,0.9833984375,-0.20751953125,-2.777099370956421,-0.3051757514476776,0.7934569716453552,100.0,233113.0,1.0
15:05:42.463081,176291.171875,179984.65625,194469.84375,172415.015625,166562.796875,191506.8125,688860.9375,173977.84375,0.0703125,0.983642578125,-0.208740234375,-2.746581792831421,-0.3051757514476776,0.6713866591453552,100.0,233114.0,1.0
15:05:42.463109,176268.90625,179976.078125,194458.21875,172408.046875,166553.859375,191476.140625,688797.5,173971.140625,0.069580078125,0.983154296875,-0.20751953125,-2.685546636581421,-0.3662109076976776,0.6713866591453552,100.0,233115.0,1.0
15:05:42.465654,176314.859375,179979.734375,194463.671875,172395.96875,166549.65625,191504.5625,688806.4375,173963.015625,0.070556640625,0.982421875,-0.2109375,-2.624511480331421,-0.3356933295726776,0.5493163466453552,100.0,233116.0,1.0
15:05:42.465672,176324.34375,179986.0,194469.75,172394.1875,166554.75,191538.71875,688920.9375,173963.546875,0.072509765625,0.982421875,-0.210205078125,-2.502441167831421,-0.3356933295726776,0.4882812201976776,100.0,233117.0,1.0
15:05:42.467500,176285.890625,179972.328125,194459.203125,172400.53125,166553.234375,191506.453125,688875.875,173968.90625,0.074462890625,0.982666015625,-0.207763671875,-2.502441167831421,-0.2441406100988388,0.3967284858226776,100.0,233118.0,1.0
15:05:42.470602,176262.5625,179959.984375,194450.0,172403.21875,166547.328125,191465.40625,688826.375,173969.53125,0.074462890625,0.981689453125,-0.208984375,-2.410888433456421,-0.2136230319738388,0.3662109076976776,100.0,233119.0,1.0
15:05:42.470622,176308.953125,179978.84375,194471.0,172410.71875,166561.09375,191506.984375,688788.375,173980.171875,0.075439453125,0.98046875,-0.209228515625,-2.288818120956421,-0.03051757626235485,0.3356933295726776,100.0,233120.0,1.0
15:05:42.472504,176335.421875,179986.625,194480.65625,172408.671875,166566.8125,191547.125,688898.75,173979.109375,0.077392578125,0.97998046875,-0.208984375,-2.227782964706421,0.03051757626235485,0.2746581733226776,100.0,233121.0,1.0
15:05:42.474992,176288.21875,179969.375,194461.890625,172402.953125,166556.453125,191510.46875,688881.75,173971.40625,0.077880859375,0.98193359375,-0.207275390625,-2.014159917831421,0.1525878757238388,0.3662109076976776,100.0,233122.0,1.0
15:05:42.478081,176257.640625,179950.859375,194443.375,172397.046875,166543.125,191462.640625,688837.6875,173963.90625,0.078857421875,0.98193359375,-0.211181640625,-1.8615721464157104,0.1525878757238388,0.3662109076976776,100.0,233123.0,1.0
15:05:42.478106,176280.4375,179954.625,194450.4375,172395.609375,166543.484375,191477.390625,688766.0,173963.015625,0.076904296875,0.981689453125,-0.210205078125,-1.7089842557907104,0.2746581733226776,0.4577636420726776,100.0,233124.0,1.0
15:05:42.480784,176328.8125,179972.046875,194466.984375,172398.65625,166551.890625,191525.046875,688897.8125,173965.875,0.076171875,0.982177734375,-0.208984375,-1.6784666776657104,0.4577636420726776,0.4272460639476776,100.0,233125.0,1.0
15:05:42.482481,176288.578125,179972.140625,194460.546875,172400.71875,166550.984375,191519.140625,688890.8125,173965.25,0.0791015625,0.9814453125,-0.208251953125,-1.5258787870407104,0.4577636420726776,0.4882812201976776,100.0,233126.0,1.0
15:05:42.488784,176258.625,179952.828125,194441.765625,172395.796875,166536.6875,191464.96875,688828.75,173959.703125,0.075927734375,0.98291015625,-0.21142578125,-1.3732908964157104,0.6408690810203552,0.4882812201976776,100.0,233127.0,1.0
15:05:42.491941,176265.6875,179954.703125,194442.484375,172392.9375,166533.203125,191466.484375,688749.875,173956.125,0.072998046875,0.98095703125,-0.2099609375,-1.2817381620407104,0.6713866591453552,0.5187987685203552,100.0,233128.0,1.0
15:05:42.491962,176323.359375,179970.265625,194461.34375,172394.71875,166540.984375,191513.875,688859.25,173961.671875,0.07177734375,0.983642578125,-0.210693359375,-1.1291502714157104,0.7934569716453552,0.4577636420726776,100.0,233129.0,1.0
15:05:42.494285,176292.515625,179972.953125,194459.03125,172396.59375,166544.546875,191518.96875,688884.3125,173961.3125,0.0712890625,0.98388671875,-0.210693359375,-0.9765624403953552,0.7629393935203552,0.5187987685203552,100.0,233130.0,1.0
15:05:42.494316,176263.0,179956.765625,194445.34375,172396.78125,166535.53125,191469.4375,688840.5625,173959.703125,0.070068359375,0.98486328125,-0.209716796875,-0.9155272841453552,0.6713866591453552,0.5798339247703552,100.0,233131.0,1.0
15:05:42.508776,176259.78125,179957.296875,194446.234375,172395.078125,166536.234375,191464.15625,688761.5,173958.890625,0.0712890625,0.9833984375,-0.209716796875,-0.7629393935203552,0.6408690810203552,0.3967284858226776,100.0,233132.0,1.0
15:05:42.511218,176314.5,179965.265625,194457.328125,172387.65625,166537.578125,191507.34375,688856.5625,173957.375,0.06787109375,0.986328125,-0.209716796875,-0.6408690810203552,0.6103515028953552,0.4272460639476776,100.0,233133.0,1.0
15:05:42.513721,176296.703125,179975.546875,194461.4375,172393.015625,166548.125,191531.84375,688906.375,173964.890625,0.068603515625,0.9853515625,-0.206787109375,-0.6103515028953552,0.6713866591453552,0.3967284858226776,100.0,233134.0,1.0
15:05:42.516802,176253.96875,179949.4375,194437.296875,172382.734375,166531.5,191476.046875,688846.0,173955.5,0.0654296875,0.98779296875,-0.210693359375,-0.4882812201976776,0.6713866591453552,0.4272460639476776,100.0,233135.0,1.0
15:05:42.516819,176237.796875,179944.6875,194430.6875,172380.5,166526.765625,191456.203125,688778.4375,173950.578125,0.065185546875,0.987548828125,-0.2109375,-0.4272460639476776,0.5798339247703552,0.4577636420726776,100.0,233136.0,1.0
15:05:42.518739,176296.984375,179960.25,194447.578125,172379.171875,166533.5625,191500.1875,688810.0625,173951.390625,0.065673828125,0.98779296875,-0.21484375,-0.3967284858226776,0.6103515028953552,0.4272460639476776,100.0,233137.0,1.0
15:05:42.521814,176293.9375,179970.53125,194454.46875,172382.46875,166543.84375,191531.296875,688897.5,173953.53125,0.06689453125,0.98828125,-0.210205078125,-0.4272460639476776,0.4882812201976776,0.3967284858226776,100.0,233138.0,1.0
15:05:42.521839,176259.421875,179959.09375,194443.90625,172386.3125,166540.4375,191495.265625,688857.75,173958.0,0.06689453125,0.98974609375,-0.213134765625,-0.4577636420726776,0.3967284858226776,0.4272460639476776,100.0,233139.0,1.0
15:05:42.523724,176238.953125,179950.0625,194434.796875,172384.625,166532.390625,191465.3125,688805.1875,173954.421875,0.06884765625,0.9912109375,-0.2109375,-0.5493163466453552,0.3967284858226776,0.3967284858226776,100.0,233140.0,1.0
15:05:42.528059,176294.125,179965.4375,194454.734375,172389.0,166540.890625,191504.296875,688794.0,173962.203125,0.068359375,0.991455078125,-0.212890625,-0.5493163466453552,0.3662109076976776,0.4882812201976776,100.0,233141.0,1.0
15:05:42.528084,176314.5,179981.796875,194469.84375,172395.34375,166555.28125,191546.5,688903.75,173967.484375,0.06640625,0.9912109375,-0.211181640625,-0.6408690810203552,0.2746581733226776,0.4882812201976776,100.0,233142.0,1.0
15:05:42.537422,176270.515625,179965.890625,194451.953125,172388.375,166545.71875,191510.03125,688854.25,173959.25,0.066650390625,0.992919921875,-0.210693359375,-0.6713866591453552,0.3051757514476776,0.4882812201976776,100.0,233143.0,1.0
15:05:42.541991,176249.859375,179957.125,194442.21875,172388.734375,166539.375,191468.71875,688800.5,173958.1875,0.0693359375,0.992431640625,-0.2119140625,-0.7629393935203552,0.2136230319738388,0.6713866591453552,100.0,233144.0,1.0
15:05:42.542007,176290.71875,179967.3125,194456.4375,172393.734375,166545.984375,191494.828125,688762.4375,173964.0,0.06689453125,0.991943359375,-0.21142578125,-0.7934569716453552,0.0915527269244194,0.7019042372703552,100.0,233145.0,1.0
15:05:42.553088,176323.625,179977.953125,194471.625,172398.03125,166557.078125,191539.625,688892.125,173968.640625,0.06640625,0.99072265625,-0.21142578125,-0.8239745497703552,0.0915527269244194,0.6408690810203552,100.0,233146.0,1.0
15:05:42.553113,176282.765625,179970.171875,194462.515625,172400.53125,166557.515625,191522.890625,688866.0625,173969.71875,0.066650390625,0.990478515625,-0.211181640625,-0.9155272841453552,0.0915527269244194,0.7019042372703552,100.0,233147.0,1.0
15:05:42.555029,176258.53125,179957.125,194451.875,172401.515625,166550.09375,191476.140625,688825.25,173969.09375,0.0673828125,0.988037109375,-0.21142578125,-0.9765624403953552,-0.0610351525247097,0.6408690810203552,100.0,233148.0,1.0
15:05:42.557497,176279.09375,179964.09375,194459.65625,172401.78125,166550.90625,191490.71875,688754.625,173968.28125,0.068603515625,0.98681640625,-0.215576171875,-1.1291502714157104,-0.03051757626235485,0.7934569716453552,100.0,233149.0,1.0
15:05:42.559975,176321.296875,179973.84375,194471.890625,172400.71875,166555.1875,191533.09375,688878.5,173970.25,0.06982421875,0.9873046875,-0.2138671875,-1.2207030057907104,-0.0915527269244194,0.9460448622703552,100.0,233150.0,1.0
15:05:42.566450,176282.046875,179969.8125,194463.578125,172401.96875,166554.03125,191525.84375,688874.875,173970.609375,0.06982421875,0.991455078125,-0.216552734375,-1.3122557401657104,0.0,0.8850097060203552,100.0,233151.0,1.0
15:05:42.573044,176247.0,179941.65625,194439.4375,172393.734375,166534.8125,191465.140625,688829.8125,173960.859375,0.07080078125,0.992431640625,-0.214111328125,-1.3732908964157104,0.03051757626235485,1.0070799589157104,100.0,233152.0,1.0
15:05:42.573052,176255.21875,179945.234375,194442.390625,172395.890625,166534.546875,191467.203125,688750.0625,173963.09375,0.072509765625,0.992919921875,-0.214111328125,-1.4953612089157104,0.03051757626235485,1.0986326932907104,100.0,233153.0,1.0
15:05:42.583181,176317.28125,179960.515625,194459.5625,172398.03125,166540.984375,191513.15625,688859.5,173968.828125,0.072509765625,0.9912109375,-0.21337890625,-1.6784666776657104,0.0915527269244194,1.1901854276657104,100.0,233154.0,1.0
15:05:42.583245,176297.25,179969.8125,194465.109375,172408.21875,166550.453125,191526.5625,688898.75,173976.875,0.07275390625,0.988525390625,-0.2138671875,-1.6784666776657104,0.0610351525247097,1.2207030057907104,100.0,233155.0,1.0
15:05:42.585582,176262.828125,179946.921875,194446.59375,172401.96875,166534.359375,191468.265625,688853.875,173968.375,0.071533203125,0.98291015625,-0.21533203125,-1.8920897245407104,0.0610351525247097,1.1291502714157104,100.0,233156.0,1.0
15:05:42.585621,176256.5625,179947.46875,194445.875,172400.71875,166532.9375,191458.171875,688768.0625,173965.25,0.07080078125,0.983154296875,-0.218017578125,-1.7700194120407104,0.1525878757238388,1.0986326932907104,100.0,233157.0,1.0
15:05:42.595160,176317.1875,179963.015625,194462.515625,172395.34375,166540.359375,191503.046875,688831.4375,173964.4375,0.0703125,0.983154296875,-0.216796875,-1.8005369901657104,0.0915527269244194,1.0681151151657104,100.0,233158.0,1.0
15:05:42.599371,176298.859375,179969.640625,194463.578125,172396.875,166546.796875,191523.25,688893.6875,173963.8125,0.0703125,0.98681640625,-0.2158203125,-1.8005369901657104,0.1831054538488388,1.0986326932907104,100.0,233159.0,1.0
15:05:42.599439,176263.453125,179952.203125,194447.046875,172395.703125,166536.859375,191475.6875,688842.0,173962.390625,0.06884765625,0.9873046875,-0.214599609375,-1.8615721464157104,0.1831054538488388,0.9460448622703552,100.0,233160.0,1.0
15:05:42.608739,176247.890625,179944.78125,194438.1875,172394.546875,166531.40625,191454.765625,688783.0,173961.484375,0.070068359375,0.98779296875,-0.214111328125,-2.014159917831421,0.1831054538488388,0.7934569716453552,100.0,233161.0,1.0
15:05:42.617396,176297.0625,179951.9375,194447.578125,172389.265625,166532.65625,191494.375,688814.5625,173959.796875,0.06982421875,0.986572265625,-0.216064453125,-2.044677495956421,0.1525878757238388,0.6103515028953552,100.0,233162.0,1.0
15:05:42.617420,176295.90625,179961.328125,194453.65625,172393.109375,166541.515625,191526.109375,688905.8125,173964.4375,0.070068359375,0.987060546875,-0.21630859375,-2.105712652206421,0.2746581733226776,0.4882812201976776,100.0,233163.0,1.0
15:05:42.617424,176258.625,179945.234375,194439.796875,172391.328125,166534.09375,191484.8125,688856.9375,173963.09375,0.07275390625,0.985107421875,-0.21484375,-2.105712652206421,0.1220703050494194,0.3967284858226776,100.0,233164.0,1.0
15:05:42.620642,176237.609375,179936.640625,194431.390625,172387.65625,166528.015625,191452.359375,688804.875,173958.0,0.072998046875,0.986083984375,-0.215576171875,-2.105712652206421,0.1220703050494194,0.3662109076976776,100.0,233165.0,1.0
15:05:42.620658,176289.5625,179952.65625,194448.390625,172388.28125,166535.53125,191489.90625,688798.25,173959.96875,0.073486328125,0.986572265625,-0.213134765625,-2.136230230331421,0.03051757626235485,0.3967284858226776,100.0,233166.0,1.0
15:05:42.630001,176312.890625,179970.984375,194463.578125,172392.125,166548.125,191532.203125,688915.9375,173963.453125,0.07421875,0.986328125,-0.21142578125,-2.166747808456421,-0.0610351525247097,0.3356933295726776,100.0,233167.0,1.0
15:05:42.638035,176273.375,179962.75,194453.921875,172394.625,166546.703125,191505.640625,688874.875,173965.609375,0.07373046875,0.9873046875,-0.21337890625,-2.197265386581421,0.1831054538488388,0.3662109076976776,100.0,233168.0,1.0
15:05:42.638057,176252.1875,179954.171875,194445.078125,172394.984375,166540.53125,191466.296875,688820.25,173964.078125,0.075439453125,0.9873046875,-0.217041015625,-2.258300542831421,0.1831054538488388,0.3356933295726776,100.0,233169.0,1.0
15:05:42.641990,176289.5625,179963.921875,194456.703125,172394.546875,166543.65625,191490.0,688770.9375,173962.828125,0.076904296875,0.986572265625,-0.21728515625,-2.258300542831421,0.2136230319738388,0.3967284858226776,100.0,233170.0,1.0
15:05:42.642004,176324.15625,179974.640625,194467.96875,172394.625,166548.125,191529.78125,688886.6875,173960.59375,0.075439453125,0.98876953125,-0.21533203125,-2.258300542831421,0.2746581733226776,0.4882812201976776,100.0,233171.0,1.0
15:05:42.648815,176290.546875,179972.234375,194464.03125,172400.984375,166551.078125,191515.921875,688870.4375,173966.140625,0.07373046875,0.988037109375,-0.213623046875,-2.258300542831421,0.3662109076976776,0.4882812201976776,100.0,233172.0,1.0
15:05:42.658181,176263.890625,179956.40625,194450.265625,172400.625,166540.703125,191466.21875,688814.8125,173966.5,0.073486328125,0.988037109375,-0.216552734375,-2.288818120956421,0.3662109076976776,0.5493163466453552,100.0,233173.0,1.0
15:05:42.658189,176283.125,179963.296875,194455.984375,172400.359375,166541.78125,191478.28125,688744.25,173966.671875,0.072998046875,0.986572265625,-0.217041015625,-2.288818120956421,0.3967284858226776,0.6103515028953552,100.0,233174.0,1.0
15:05:42.665552,176328.265625,179973.03125,194468.140625,172395.890625,166546.34375,191520.390625,688865.875,173964.265625,0.072021484375,0.98779296875,-0.2138671875,-2.197265386581421,0.4882812201976776,0.6713866591453552,100.0,233175.0,1.0
15:05:42.665560,176291.34375,179970.359375,194461.890625,172395.078125,166547.234375,191517.265625,688873.0,173961.21875,0.069580078125,0.987060546875,-0.21533203125,-2.227782964706421,0.6103515028953552,0.6408690810203552,100.0,233176.0,1.0
15:05:42.668035,176264.875,179954.96875,194446.15625,172393.734375,166537.578125,191469.875,688837.5,173961.21875,0.071044921875,0.989013671875,-0.214111328125,-2.258300542831421,0.5493163466453552,0.8239745497703552,100.0,233177.0,1.0
15:05:42.668042,176270.15625,179960.25,194449.546875,172397.046875,166540.53125,191472.46875,688758.5625,173964.4375,0.070068359375,0.98779296875,-0.210693359375,-2.197265386581421,0.4882812201976776,0.7324218153953552,100.0,233178.0,1.0
15:05:42.682475,176326.578125,179971.609375,194463.3125,172395.4375,166544.015625,191516.8125,688860.0625,173964.625,0.068359375,0.98828125,-0.211181640625,-2.197265386581421,0.4882812201976776,0.7019042372703552,100.0,233179.0,1.0
15:05:42.686822,176301.359375,179978.671875,194464.203125,172401.15625,166550.8125,191530.859375,688894.8125,173969.984375,0.069091796875,0.98876953125,-0.21240234375,-2.258300542831421,0.5187987685203552,0.7019042372703552,100.0,233180.0,1.0
15:05:42.686830,176272.03125,179960.703125,194448.734375,172398.03125,166539.375,191478.375,688843.875,173966.3125,0.06982421875,0.988037109375,-0.2138671875,-2.349853277206421,0.5493163466453552,0.7629393935203552,100.0,233181.0,1.0
15:05:42.693060,176263.0,179957.21875,194445.4375,172395.265625,166536.515625,191465.59375,688770.5625,173960.15625,0.0703125,0.990234375,-0.211181640625,-2.288818120956421,0.3967284858226776,0.7324218153953552,100.0,233182.0,1.0
15:05:42.693069,176318.703125,179965.4375,194458.484375,172390.34375,166539.375,191506.0,688844.4375,173958.625,0.072265625,0.989013671875,-0.213134765625,-2.349853277206421,0.4272460639476776,0.7324218153953552,100.0,233183.0,1.0
15:05:42.703535,176298.859375,179966.6875,194457.328125,172389.890625,166543.21875,191523.96875,688904.9375,173957.109375,0.0712890625,0.98974609375,-0.20849609375,-2.380370855331421,0.3662109076976776,0.6713866591453552,100.0,233184.0,1.0
15:05:42.703545,176262.640625,179948.984375,194442.125,172390.34375,166535.875,191478.640625,688854.3125,173958.1875,0.072509765625,0.98974609375,-0.209228515625,-2.410888433456421,0.3967284858226776,0.6713866591453552,100.0,233185.0,1.0
15:05:42.705552,176251.921875,179948.8125,194441.046875,172393.5625,166537.140625,191462.640625,688799.375,173961.84375,0.072998046875,0.98876953125,-0.206787109375,-2.502441167831421,0.4272460639476776,0.7019042372703552,100.0,233186.0,1.0
15:05:42.705581,176311.375,179965.34375,194461.265625,172396.421875,166546.796875,191507.15625,688824.75,173967.125,0.072998046875,0.989501953125,-0.208984375,-2.471923589706421,0.3662109076976776,0.7324218153953552,100.0,233187.0,1.0
15:05:42.711369,176317.984375,179979.65625,194472.53125,172400.171875,166559.3125,191543.640625,688921.75,173969.796875,0.07373046875,0.98779296875,-0.209228515625,-2.502441167831421,0.3356933295726776,0.7934569716453552,100.0,233188.0,1.0
15:05:42.766557,176287.40625,179972.5,194466.890625,172405.890625,166561.625,191513.0625,688871.0625,173975.171875,0.07373046875,0.987060546875,-0.20849609375,-2.563476324081421,0.3662109076976776,0.8239745497703552,100.0,233189.0,1.0
15:05:42.766567,176264.4375,179961.40625,194458.046875,172404.203125,166555.734375,191477.390625,688803.9375,173972.484375,0.073486328125,0.98828125,-0.20947265625,-2.593993902206421,0.4577636420726776,0.6713866591453552,100.0,233190.0,1.0
15:05:42.769897,176305.296875,179963.296875,194465.109375,172398.296875,166555.015625,191501.4375,688791.75,173970.25,0.07421875,0.98876953125,-0.2080078125,-2.685546636581421,0.5798339247703552,0.6408690810203552,100.0,233191.0,1.0
15:05:42.769929,176322.28125,179972.5,194473.6875,172399.109375,166561.546875,191537.375,688905.9375,173970.875,0.07275390625,0.9892578125,-0.207275390625,-2.655029058456421,0.5187987685203552,0.7324218153953552,100.0,233192.0,1.0
15:05:42.771225,176288.3125,179966.515625,194468.046875,172405.984375,166563.15625,191513.515625,688870.3125,173977.5,0.07275390625,0.986328125,-0.209716796875,-2.716064214706421,0.5187987685203552,0.7019042372703552,100.0,233193.0,1.0
15:05:42.773702,176263.890625,179952.390625,194454.734375,172404.375,166553.578125,191467.640625,688811.875,173975.703125,0.071533203125,0.98486328125,-0.2080078125,-2.593993902206421,0.4882812201976776,0.7934569716453552,100.0,233194.0,1.0
15:05:42.776191,176292.421875,179957.75,194459.65625,172401.875,166551.53125,191486.59375,688772.6875,173972.390625,0.0732421875,0.9853515625,-0.2060546875,-2.593993902206421,0.4882812201976776,0.7934569716453552,100.0,233195.0,1.0
15:05:42.778732,176332.109375,179973.21875,194473.859375,172403.484375,166558.859375,191530.859375,688905.3125,173976.953125,0.072509765625,0.983154296875,-0.20751953125,-2.624511480331421,0.4882812201976776,0.6713866591453552,100.0,233196.0,1.0
15:05:42.781216,176279.546875,179951.40625,194449.71875,172389.796875,166541.15625,191497.5,688870.5,173962.390625,0.072509765625,0.9833984375,-0.207763671875,-2.563476324081421,0.5798339247703552,0.7019042372703552,100.0,233197.0,1.0
15:05:42.783715,176254.0625,179934.5,194436.140625,172387.65625,166529.796875,191444.484375,688827.125,173959.34375,0.07080078125,0.98388671875,-0.20751953125,-2.471923589706421,0.5187987685203552,0.6713866591453552,100.0,233198.0,1.0
15:05:42.786290,176277.3125,179949.25,194449.375,172392.125,166536.234375,191464.6875,688768.4375,173961.75,0.070556640625,0.982666015625,-0.20703125,-2.288818120956421,0.5187987685203552,0.6408690810203552,100.0,233199.0,1.0
15:05:42.788866,176324.0625,179960.78125,194460.90625,172386.765625,166538.5625,191508.234375,688894.1875,173956.03125,0.072021484375,0.983642578125,-0.20947265625,-2.258300542831421,0.4272460639476776,0.6103515028953552,100.0,233200.0,1.0
15:05:42.791212,176288.75,179959.625,194455.09375,172389.09375,166539.375,191506.0,688892.625,173954.875,0.071044921875,0.985595703125,-0.20703125,-2.197265386581421,0.4272460639476776,0.5187987685203552,100.0,233201.0,1.0
15:05:42.793675,176258.890625,179942.1875,194438.28125,172388.109375,166526.859375,191455.484375,688826.1875,173953.984375,0.07080078125,0.984619140625,-0.207275390625,-2.227782964706421,0.3356933295726776,0.5493163466453552,100.0,233202.0,1.0
15:05:42.796215,176256.5625,179942.09375,194435.421875,172384.703125,166522.921875,191454.859375,688750.8125,173952.015625,0.07080078125,0.985107421875,-0.207275390625,-2.075195074081421,0.3662109076976776,0.4577636420726776,100.0,233203.0,1.0
15:05:42.798684,176312.453125,179950.78125,194449.375,172383.1875,166529.09375,191497.59375,688859.875,173955.40625,0.071044921875,0.984375,-0.20556640625,-2.014159917831421,0.2746581733226776,0.4577636420726776,100.0,233204.0,1.0
15:05:42.802467,176285.625,179955.15625,194449.28125,172388.734375,166539.1875,191513.6875,688894.1875,173961.046875,0.06982421875,0.984619140625,-0.205810546875,-1.9836424589157104,0.2746581733226776,0.4272460639476776,100.0,233205.0,1.0
15:05:42.802480,176261.125,179942.8125,194438.546875,172393.109375,166535.34375,191470.234375,688834.125,173964.796875,0.070556640625,0.98486328125,-0.206787109375,-1.8310545682907104,0.2136230319738388,0.6408690810203552,100.0,233206.0,1.0
15:05:42.802482,176259.515625,179948.71875,194441.046875,172397.5,166538.203125,191463.796875,688767.0625,173966.765625,0.069091796875,0.98388671875,-0.203857421875,-1.8615721464157104,0.1220703050494194,0.5798339247703552,100.0,233207.0,1.0
15:05:42.805486,176317.1875,179959.53125,194454.828125,172392.75,166543.125,191508.0625,688836.1875,173964.796875,0.0693359375,0.984619140625,-0.205322265625,-1.8615721464157104,0.1831054538488388,0.5493163466453552,100.0,233208.0,1.0
15:05:42.805490,176296.984375,179961.765625,194452.671875,172388.640625,166545.1875,191527.375,688897.9375,173958.625,0.068359375,0.987548828125,-0.207275390625,-1.8005369901657104,0.0915527269244194,0.4272460639476776,100.0,233209.0,1.0
15:05:42.807458,176262.015625,179946.84375,194437.203125,172386.40625,166535.078125,191482.84375,688845.5,173954.609375,0.0712890625,0.986572265625,-0.20654296875,-1.7395018339157104,-0.0610351525247097,0.4272460639476776,100.0,233210.0,1.0
15:05:42.810633,176246.828125,179943.703125,194431.390625,172386.140625,166530.875,191460.21875,688792.75,173951.921875,0.072021484375,0.986572265625,-0.208251953125,-1.6784666776657104,-0.1220703050494194,0.3967284858226776,100.0,233211.0,1.0
15:05:42.810663,176301.453125,179956.40625,194446.59375,172382.296875,166536.421875,191498.9375,688815.8125,173952.734375,0.072021484375,0.98681640625,-0.20849609375,-1.5563963651657104,0.0,0.4272460639476776,100.0,233212.0,1.0
15:05:42.812710,176301.625,179962.578125,194450.796875,172378.8125,166541.25,191527.8125,688908.875,173948.96875,0.071533203125,0.988037109375,-0.207763671875,-1.5563963651657104,-0.1525878757238388,0.4577636420726776,100.0,233213.0,1.0
15:05:42.816261,176258.984375,179945.59375,194433.90625,172376.921875,166532.125,191486.234375,688848.9375,173945.84375,0.06884765625,0.98828125,-0.207275390625,-1.5563963651657104,-0.1831054538488388,0.5493163466453552,100.0,233214.0,1.0
15:05:42.826841,176239.046875,179936.375,194426.03125,172379.875,166526.40625,191451.015625,688790.6875,173947.1875,0.069091796875,0.98828125,-0.205322265625,-1.5563963651657104,-0.2136230319738388,0.4882812201976776,100.0,233215.0,1.0
15:05:42.826854,176285.890625,179946.921875,194440.15625,172379.796875,166530.421875,191481.140625,688775.5,173949.15625,0.06884765625,0.986083984375,-0.20751953125,-1.5563963651657104,-0.2136230319738388,0.4577636420726776,100.0,233216.0,1.0
