Timestamp,Fz,FC3,FCz,FC4,Cz,C3,C4
14:59:11.911585,176899.140625,183252.484375,196868.0,175151.3125,174155.953125,195324.390625,688361.25,172924.90625,0.07373046875,0.990234375,-0.20263671875,-2.990722417831421,-1.1596678495407104,0.7934569716453552,100.0,135423.0,1.0
14:59:11.914547,176958.6875,183248.640625,196884.1875,175154.625,174161.5,195343.96875,688372.4375,172929.734375,0.07470703125,0.988037109375,-0.2001953125,-2.960204839706421,-1.0986326932907104,0.7934569716453552,100.0,135424.0,1.0
14:59:11.914552,176978.796875,183256.0625,196894.65625,175157.484375,174173.03125,195384.390625,688465.25,172933.671875,0.076171875,0.98974609375,-0.199462890625,-2.990722417831421,-1.0070799589157104,0.7019042372703552,100.0,135425.0,1.0
14:59:11.916533,176937.671875,183254.0,196885.625,175161.234375,174172.21875,195358.375,688415.25,172937.78125,0.076904296875,0.987548828125,-0.198974609375,-2.868652105331421,-0.9765624403953552,0.6408690810203552,100.0,135426.0,1.0
14:59:11.919015,176909.859375,183248.375,196876.859375,175160.53125,174166.765625,195320.109375,688369.375,172935.546875,0.078369140625,0.98876953125,-0.1962890625,-3.021239995956421,-0.8239745497703552,0.5187987685203552,100.0,135427.0,1.0
14:59:11.921498,176960.828125,183273.234375,196898.3125,175164.375,174179.46875,195362.296875,688349.0625,172942.078125,0.079833984375,0.987060546875,-0.2001953125,-2.990722417831421,-0.6713866591453552,0.3662109076976776,100.0,135428.0,1.0
14:59:11.924009,176998.203125,183286.734375,196907.796875,175159.8125,174184.828125,195412.640625,688457.1875,172939.921875,0.078125,0.987060546875,-0.196533203125,-2.929687261581421,-0.4272460639476776,0.2441406100988388,100.0,135429.0,1.0
14:59:11.926511,176940.984375,183253.734375,196885.34375,175152.390625,174172.484375,195365.515625,688418.8125,172932.953125,0.078125,0.984619140625,-0.200439453125,-2.929687261581421,-0.3967284858226776,0.1525878757238388,100.0,135430.0,1.0
14:59:11.929021,176901.453125,183225.578125,196866.671875,175147.296875,174157.921875,195302.484375,688382.625,172928.21875,0.078857421875,0.98388671875,-0.198486328125,-2.868652105331421,-0.1525878757238388,0.03051757626235485,100.0,135431.0,1.0
14:59:11.932112,176928.109375,183240.421875,196876.765625,175149.078125,174161.578125,195324.84375,688342.0,172929.109375,0.081298828125,0.984375,-0.196044921875,-2.777099370956421,-0.0610351525247097,0.1525878757238388,100.0,135432.0,1.0
14:59:11.932145,176981.390625,183255.171875,196889.1875,175144.515625,174165.78125,195374.015625,688453.5,172926.25,0.07958984375,0.985107421875,-0.198486328125,-2.807616949081421,0.1525878757238388,0.03051757626235485,100.0,135433.0,1.0
14:59:11.933946,176945.0,183258.65625,196887.859375,175155.078125,174171.859375,195369.015625,688433.375,172933.9375,0.078369140625,0.984619140625,-0.19775390625,-2.685546636581421,0.2746581733226776,0.0,100.0,135434.0,1.0
14:59:11.937715,176908.515625,183231.203125,196870.234375,175156.234375,174160.0625,195311.15625,688384.875,172931.703125,0.07666015625,0.98388671875,-0.19677734375,-2.532958745956421,0.3967284858226776,0.03051757626235485,100.0,135435.0,1.0
14:59:11.948333,176922.921875,183259.546875,196881.6875,175156.953125,174168.203125,195329.40625,688333.375,172933.3125,0.076904296875,0.983642578125,-0.199462890625,-2.471923589706421,0.5187987685203552,0.03051757626235485,100.0,135436.0,1.0
14:59:11.948339,176993.453125,183303.453125,196904.21875,175152.75,174179.203125,195389.84375,688440.125,172934.296875,0.07666015625,0.984619140625,-0.202392578125,-2.319335699081421,0.6408690810203552,0.03051757626235485,100.0,135437.0,1.0
14:59:11.950876,176951.34375,183248.546875,196887.5,175152.125,174169.359375,195369.09375,688437.875,172930.359375,0.07275390625,0.984619140625,-0.200927734375,-2.319335699081421,0.6103515028953552,0.03051757626235485,100.0,135438.0,1.0
14:59:11.950895,176907.625,183217.703125,196861.921875,175147.5625,174149.0625,195310.359375,688375.125,172923.296875,0.071533203125,0.985595703125,-0.201416015625,-2.166747808456421,0.7629393935203552,0.1220703050494194,100.0,135439.0,1.0
14:59:11.959095,176899.765625,183220.484375,196859.953125,175146.84375,174146.5625,195295.78125,688324.75,172920.609375,0.0703125,0.9853515625,-0.20068359375,-2.105712652206421,0.7629393935203552,0.1831054538488388,100.0,135440.0,1.0
14:59:11.967277,176973.25,183243.28125,196883.734375,175147.46875,174158.359375,195350.59375,688408.125,172926.328125,0.070556640625,0.984375,-0.200927734375,-1.9531248807907104,0.7629393935203552,0.1525878757238388,100.0,135441.0,1.0
14:59:11.967349,176957.96875,183260.171875,196889.90625,175151.765625,174167.296875,195379.640625,688442.375,172926.609375,0.069091796875,0.984130859375,-0.20068359375,-1.8005369901657104,0.7629393935203552,0.1831054538488388,100.0,135442.0,1.0
14:59:11.969553,176913.890625,183238.53125,196869.171875,175148.09375,174153.984375,195320.640625,688380.125,172921.0625,0.06787109375,0.98486328125,-0.19873046875,-1.7700194120407104,0.7324218153953552,0.3356933295726776,100.0,135443.0,1.0
14:59:11.969568,176898.234375,183231.828125,196866.125,175149.265625,174152.640625,195298.28125,688342.9375,172921.6875,0.065185546875,0.986572265625,-0.198486328125,-1.5869139432907104,0.7324218153953552,0.2746581733226776,100.0,135444.0,1.0
14:59:11.975349,176958.6875,183229.6875,196875.78125,175144.171875,174151.03125,195322.875,688385.8125,172920.609375,0.065673828125,0.986328125,-0.198974609375,-1.4953612089157104,0.7019042372703552,0.3356933295726776,100.0,135445.0,1.0
14:59:11.984024,176950.28125,183228.703125,196872.5625,175140.859375,174150.140625,195342.984375,688452.1875,172914.796875,0.06494140625,0.988525390625,-0.201171875,-1.4648436307907104,0.5493163466453552,0.3356933295726776,100.0,135446.0,1.0
14:59:11.988333,176907.0,183216.28125,196857.546875,175143.359375,174144.953125,195307.671875,688383.625,172915.703125,0.065185546875,0.986083984375,-0.201416015625,-1.4038084745407104,0.5493163466453552,0.4577636420726776,100.0,135447.0,1.0
14:59:11.988338,176887.59375,183220.203125,196852.625,175146.578125,174145.046875,195290.421875,688340.4375,172918.28125,0.064697265625,0.986328125,-0.20068359375,-1.3427733182907104,0.3662109076976776,0.5798339247703552,100.0,135448.0,1.0
14:59:11.997797,176950.09375,183254.1875,196874.890625,175149.703125,174153.890625,195335.125,688360.375,172924.640625,0.064453125,0.988037109375,-0.201171875,-1.2512205839157104,0.2441406100988388,0.6408690810203552,100.0,135449.0,1.0
14:59:12.002205,176967.078125,183245.328125,196882.75,175154.625,174161.046875,195353.625,688459.4375,172929.546875,0.06298828125,0.988037109375,-0.200439453125,-1.1291502714157104,0.2441406100988388,0.7019042372703552,100.0,135450.0,1.0
14:59:12.002257,176915.40625,183219.671875,196866.21875,175154.0,174154.609375,195316.796875,688401.5625,172927.5,0.062255859375,0.98876953125,-0.20166015625,-1.1596678495407104,0.1220703050494194,0.6713866591453552,100.0,135451.0,1.0
14:59:12.010995,176892.515625,183221.453125,196860.671875,175160.265625,174153.453125,195293.8125,688361.0,172930.890625,0.064453125,0.990478515625,-0.202880859375,-1.0375975370407104,0.0,0.7324218153953552,100.0,135452.0,1.0
14:59:12.011007,176939.640625,183226.734375,196876.40625,175166.96875,174160.234375,195306.0625,688354.75,172939.75,0.066162109375,0.991943359375,-0.202880859375,-1.0375975370407104,-0.0610351525247097,0.7934569716453552,100.0,135453.0,1.0
14:59:12.017138,176972.890625,183235.9375,196885.171875,175160.96875,174162.65625,195345.21875,688460.0625,172934.828125,0.06689453125,0.9912109375,-0.198974609375,-1.0681151151657104,-0.0915527269244194,0.7324218153953552,100.0,135454.0,1.0
14:59:12.017201,176921.75,183228.515625,196871.578125,175155.515625,174154.96875,195325.015625,688418.625,172925.984375,0.0673828125,0.99365234375,-0.199951171875,-1.1901854276657104,-0.1831054538488388,0.7629393935203552,100.0,135455.0,1.0
14:59:12.023475,176888.3125,183213.5,196855.9375,175152.125,174143.171875,195277.09375,688367.3125,172922.671875,0.067626953125,0.9921875,-0.200439453125,-1.0986326932907104,-0.3051757514476776,0.7324218153953552,100.0,135456.0,1.0
14:59:12.023543,176911.203125,183219.140625,196859.78125,175148.09375,174141.375,195289.4375,688334.3125,172918.5625,0.069091796875,0.99072265625,-0.200927734375,-1.1901854276657104,-0.2746581733226776,0.7934569716453552,100.0,135457.0,1.0
14:59:12.025359,176968.78125,183234.25,196875.0625,175147.5625,174148.796875,195336.203125,688457.25,172919.546875,0.071044921875,0.9873046875,-0.201171875,-1.2207030057907104,-0.3356933295726776,0.8239745497703552,100.0,135458.0,1.0
14:59:12.037744,176929.625,183229.5,196871.40625,175154.984375,174153.453125,195333.609375,688439.6875,172923.65625,0.07177734375,0.98681640625,-0.19970703125,-1.2207030057907104,-0.2746581733226776,0.8239745497703552,100.0,135459.0,1.0
14:59:12.042151,176897.34375,183211.890625,196856.734375,175156.6875,174143.078125,195280.40625,688368.125,172924.453125,0.07275390625,0.987060546875,-0.2001953125,-1.3427733182907104,-0.3051757514476776,0.8239745497703552,100.0,135460.0,1.0
14:59:12.042167,176905.390625,183222.0,196862.8125,175156.765625,174145.75,195287.734375,688324.3125,172922.765625,0.07275390625,0.98779296875,-0.20166015625,-1.2817381620407104,-0.3967284858226776,0.7019042372703552,100.0,135461.0,1.0
14:59:12.049733,176972.53125,183235.859375,196882.75,175158.109375,174154.875,195335.390625,688434.8125,172926.421875,0.07373046875,0.989013671875,-0.200439453125,-1.3732908964157104,-0.3051757514476776,0.7629393935203552,100.0,135462.0,1.0
14:59:12.049747,176941.6875,183248.734375,196881.59375,175158.921875,174160.859375,195352.109375,688439.6875,172927.859375,0.07568359375,0.990234375,-0.199462890625,-1.3427733182907104,-0.3051757514476776,0.7019042372703552,100.0,135463.0,1.0
14:59:12.056236,176900.46875,183222.984375,196862.375,175154.359375,174148.53125,195303.109375,688372.625,172925.0,0.076171875,0.991943359375,-0.19873046875,-1.3732908964157104,-0.1220703050494194,0.7629393935203552,100.0,135464.0,1.0
14:59:12.056288,176889.5625,183198.75,196857.28125,175156.859375,174142.265625,195261.546875,688326.75,172923.828125,0.074951171875,0.99072265625,-0.200927734375,-1.5258787870407104,-0.0915527269244194,0.8544921278953552,100.0,135465.0,1.0
14:59:12.057715,176964.671875,183225.03125,196877.21875,175157.75,174150.046875,195317.59375,688398.5625,172924.546875,0.0732421875,0.990966796875,-0.203857421875,-1.5563963651657104,-0.0915527269244194,0.7324218153953552,100.0,135466.0,1.0
14:59:12.065361,176953.21875,183237.28125,196885.171875,175166.421875,174160.859375,195342.71875,688442.25,172930.0,0.0732421875,0.98779296875,-0.20068359375,-1.6479490995407104,-0.0610351525247097,0.7324218153953552,100.0,135467.0,1.0
14:59:12.075833,176910.578125,183220.65625,196865.6875,175162.3125,174149.25,195293.546875,688376.4375,172926.78125,0.072265625,0.98681640625,-0.203125,-1.7089842557907104,0.0,0.6103515028953552,100.0,135468.0,1.0
14:59:12.075843,176897.703125,183224.234375,196864.78125,175163.203125,174149.421875,195276.203125,688331.375,172927.9375,0.069580078125,0.987060546875,-0.197998046875,-1.7089842557907104,-0.03051757626235485,0.5187987685203552,100.0,135469.0,1.0
14:59:12.108623,176967.703125,183240.59375,196884.71875,175167.046875,174157.921875,195322.875,688365.625,172935.09375,0.06689453125,0.98779296875,-0.20068359375,-1.8005369901657104,-0.0915527269244194,0.4882812201976776,100.0,135470.0,1.0
14:59:12.108688,176960.109375,183240.0625,196884.8125,175164.28125,174159.078125,195347.1875,688432.3125,172932.59375,0.06640625,0.98876953125,-0.201416015625,-1.8005369901657104,-0.1220703050494194,0.3967284858226776,100.0,135471.0,1.0
14:59:12.129004,176911.921875,183220.921875,196866.671875,175159.625,174148.53125,195305.4375,688375.8125,172930.890625,0.068359375,0.990234375,-0.201171875,-1.8005369901657104,-0.1831054538488388,0.3051757514476776,100.0,135472.0,1.0
14:59:12.132686,176892.078125,183216.453125,196861.65625,175165.265625,174147.71875,195280.859375,688344.875,172935.984375,0.06787109375,0.990966796875,-0.200927734375,-1.7700194120407104,-0.2746581733226776,0.0915527269244194,100.0,135473.0,1.0
14:59:12.132709,176952.421875,183230.3125,196880.96875,175169.109375,174155.5,195315.453125,688347.5625,172942.421875,0.066162109375,0.988525390625,-0.20166015625,-1.8920897245407104,-0.3662109076976776,0.0,100.0,135474.0,1.0
14:59:12.132722,176965.75,183235.046875,196884.359375,175160.609375,174155.5,195345.21875,688423.6875,172933.578125,0.06494140625,0.988037109375,-0.202880859375,-1.8920897245407104,-0.3051757514476776,-0.0610351525247097,100.0,135475.0,1.0
14:59:12.136954,176916.65625,183213.59375,196869.171875,175160.265625,174149.25,195312.765625,688374.1875,172931.703125,0.067138671875,0.989501953125,-0.20068359375,-1.8920897245407104,-0.4272460639476776,-0.1220703050494194,100.0,135476.0,1.0
14:59:12.136960,176891.984375,183210.640625,196860.5,175162.40625,174144.59375,195282.28125,688347.1875,172933.21875,0.06787109375,0.988037109375,-0.201171875,-1.9226073026657104,-0.4882812201976776,-0.1831054538488388,100.0,135477.0,1.0
14:59:12.136961,176925.15625,183213.40625,196864.609375,175153.46875,174139.671875,195298.203125,688324.625,172927.3125,0.068603515625,0.987548828125,-0.203125,-1.9226073026657104,-0.5493163466453552,-0.2746581733226776,100.0,135478.0,1.0
14:59:12.136962,176961.265625,183225.65625,196874.265625,175152.125,174143.703125,195333.25,688433.875,172923.03125,0.06884765625,0.98876953125,-0.201416015625,-1.8310545682907104,-0.5798339247703552,-0.1220703050494194,100.0,135479.0,1.0
14:59:12.142101,176916.03125,183241.9375,196864.15625,175149.890625,174142.359375,195325.375,688386.0,172918.28125,0.0693359375,0.989013671875,-0.201904296875,-1.8920897245407104,-0.6408690810203552,-0.1831054538488388,100.0,135480.0,1.0
14:59:12.142105,176871.0625,183180.875,196835.8125,175141.21875,174123.046875,195254.5625,688364.125,172910.421875,0.068359375,0.98876953125,-0.201171875,-1.8615721464157104,-0.6103515028953552,-0.1525878757238388,100.0,135481.0,1.0
14:59:12.143928,176902.796875,183202.140625,196851.734375,175143.8125,174133.421875,195279.953125,688325.0625,172915.703125,0.069580078125,0.988037109375,-0.202392578125,-1.8920897245407104,-0.5187987685203552,0.0,100.0,135482.0,1.0
14:59:12.146545,176955.546875,183211.09375,196865.328125,175140.046875,174137.4375,195319.921875,688446.5625,172914.171875,0.071044921875,0.9892578125,-0.19921875,-1.9226073026657104,-0.6103515028953552,0.2136230319738388,100.0,135483.0,1.0
14:59:12.149003,176915.234375,183210.015625,196862.1875,175142.828125,174142.0,195321.71875,688419.125,172914.984375,0.070068359375,0.989013671875,-0.2021484375,-1.8005369901657104,-0.5493163466453552,0.2136230319738388,100.0,135484.0,1.0
14:59:12.152442,176882.859375,183194.640625,196848.875,175142.828125,174134.3125,195276.734375,688362.4375,172917.21875,0.0712890625,0.989501953125,-0.20166015625,-1.7700194120407104,-0.5493163466453552,0.2746581733226776,100.0,135485.0,1.0
14:59:12.154037,176889.65625,183192.578125,196849.859375,175145.0625,174132.796875,195263.5,688315.125,172919.453125,0.07080078125,0.98974609375,-0.2021484375,-1.7700194120407104,-0.5187987685203552,0.2746581733226776,100.0,135486.0,1.0
14:59:12.156624,176961.90625,183226.28125,196871.84375,175147.46875,174143.25,195316.890625,688410.625,172923.921875,0.069580078125,0.989990234375,-0.201416015625,-1.8005369901657104,-0.5187987685203552,0.3967284858226776,100.0,135487.0,1.0
14:59:12.159002,176931.046875,183200.984375,196867.5625,175150.875,174145.21875,195313.84375,688419.625,172926.78125,0.069580078125,0.989990234375,-0.1982421875,-1.8310545682907104,-0.3967284858226776,0.3356933295726776,100.0,135488.0,1.0
14:59:12.162641,176899.40625,183193.125,196857.09375,175156.40625,174142.53125,195272.8125,688363.875,172931.703125,0.066650390625,0.99072265625,-0.2021484375,-1.8005369901657104,-0.3051757514476776,0.3356933295726776,100.0,135489.0,1.0
14:59:12.162654,176896.453125,183201.96875,196861.125,175163.484375,174146.203125,195271.109375,688316.9375,172934.46875,0.068603515625,0.99169921875,-0.203369140625,-1.8310545682907104,-0.4577636420726776,0.4882812201976776,100.0,135490.0,1.0
14:59:12.162655,176968.421875,183228.96875,196879.890625,175162.21875,174150.671875,195326.890625,688388.6875,172932.59375,0.068359375,0.9921875,-0.201416015625,-1.8005369901657104,-0.3967284858226776,0.3967284858226776,100.0,135491.0,1.0
14:59:12.165239,176955.015625,183246.21875,196886.421875,175166.515625,174158.984375,195363.90625,688427.5,172932.421875,0.070068359375,0.990478515625,-0.2001953125,-1.8310545682907104,-0.3967284858226776,0.3662109076976776,100.0,135492.0,1.0
14:59:12.168998,176913.078125,183208.5,196865.5,175164.375,174144.140625,195291.3125,688371.375,172930.0,0.070068359375,0.990234375,-0.20068359375,-1.9226073026657104,-0.4272460639476776,0.3967284858226776,100.0,135493.0,1.0
14:59:12.175389,176895.828125,183207.25,196859.25,175166.0625,174140.75,195271.203125,688335.9375,172929.28125,0.0703125,0.99169921875,-0.1982421875,-1.9531248807907104,-0.4577636420726776,0.3662109076976776,100.0,135494.0,1.0
14:59:12.179556,176954.921875,183214.046875,196870.515625,175157.484375,174140.21875,195309.828125,688373.6875,172925.4375,0.06982421875,0.992919921875,-0.1982421875,-1.9531248807907104,-0.5187987685203552,0.3356933295726776,100.0,135495.0,1.0
14:59:12.179570,176952.6875,183218.953125,196872.828125,175155.25,174142.71875,195334.140625,688442.625,172923.296875,0.071044921875,0.992431640625,-0.2001953125,-2.136230230331421,-0.3662109076976776,0.2441406100988388,100.0,135496.0,1.0
14:59:12.185223,176908.796875,183202.953125,196857.8125,175154.796875,174135.46875,195292.46875,688377.375,172925.171875,0.070068359375,0.993896484375,-0.1982421875,-2.197265386581421,-0.2746581733226776,0.2441406100988388,100.0,135497.0,1.0
14:59:12.200857,176887.328125,183200.984375,196855.40625,175157.390625,174137.625,195269.046875,688336.3125,172932.234375,0.070068359375,0.994384765625,-0.197998046875,-2.258300542831421,-0.3051757514476776,0.3051757514476776,100.0,135498.0,1.0
14:59:12.200869,176945.453125,183219.5,196874.984375,175160.078125,174148.078125,195311.609375,688357.125,172939.484375,0.071533203125,0.994873046875,-0.198486328125,-2.227782964706421,-0.0915527269244194,0.2136230319738388,100.0,135499.0,1.0
14:59:12.203325,176958.140625,183221.8125,196878.828125,175156.40625,174150.578125,195338.34375,688450.1875,172934.65625,0.07080078125,0.992919921875,-0.196533203125,-2.380370855331421,-0.0610351525247097,0.2746581733226776,100.0,135500.0,1.0
14:59:12.203329,176914.15625,183219.140625,196866.125,175154.796875,174145.9375,195311.609375,688394.625,172930.265625,0.071044921875,0.992919921875,-0.1953125,-2.471923589706421,-0.0610351525247097,0.2746581733226776,100.0,135501.0,1.0
14:59:12.207812,176889.484375,183212.703125,196856.375,175157.578125,174138.6875,195278.53125,688350.1875,172929.640625,0.06982421875,0.990234375,-0.19873046875,-2.532958745956421,0.03051757626235485,0.2441406100988388,100.0,135502.0,1.0
14:59:12.214049,176927.65625,183198.21875,196861.125,175153.375,174133.59375,195279.0625,688340.0625,172927.765625,0.0693359375,0.990234375,-0.19921875,-2.563476324081421,-0.0610351525247097,0.1525878757238388,100.0,135503.0,1.0
14:59:12.216526,176965.5625,183211.625,196873.015625,175153.90625,174139.140625,195321.265625,688448.1875,172928.84375,0.06884765625,0.992431640625,-0.20166015625,-2.532958745956421,0.0915527269244194,0.1831054538488388,100.0,135504.0,1.0
14:59:12.219010,176916.390625,183201.875,196859.515625,175154.71875,174135.203125,195300.4375,688398.6875,172925.078125,0.0703125,0.989013671875,-0.197509765625,-2.532958745956421,0.2136230319738388,0.1220703050494194,100.0,135505.0,1.0
14:59:12.221566,176884.734375,183191.421875,196843.15625,175151.234375,174123.765625,195257.421875,688357.75,172918.375,0.070556640625,0.988525390625,-0.198486328125,-2.563476324081421,0.1525878757238388,0.2136230319738388,100.0,135506.0,1.0
14:59:12.228318,176905.65625,183191.328125,196849.234375,175147.109375,174123.578125,195269.40625,688312.6875,172917.03125,0.071044921875,0.988037109375,-0.19775390625,-2.502441167831421,0.1831054538488388,0.1831054538488388,100.0,135507.0,1.0
14:59:12.228329,176962.96875,183201.171875,196866.21875,175145.234375,174131.09375,195312.59375,688423.3125,172917.484375,0.072509765625,0.98779296875,-0.1962890625,-2.441406011581421,0.2746581733226776,0.0915527269244194,100.0,135508.0,1.0
14:59:12.238443,176926.671875,183212.515625,196864.25,175152.125,174138.609375,195321.359375,688403.8125,172920.609375,0.06982421875,0.988525390625,-0.1953125,-2.410888433456421,0.3356933295726776,0.1525878757238388,100.0,135509.0,1.0
14:59:12.238461,176894.03125,183188.015625,196848.96875,175154.890625,174130.296875,195265.828125,688354.8125,172923.5625,0.070068359375,0.9873046875,-0.197509765625,-2.288818120956421,0.3662109076976776,0.2746581733226776,100.0,135510.0,1.0
14:59:12.248374,176905.21875,183197.234375,196856.296875,175159.8125,174135.921875,195271.28125,688307.3125,172928.21875,0.0693359375,0.987060546875,-0.19921875,-2.258300542831421,0.3967284858226776,0.2441406100988388,100.0,135511.0,1.0
14:59:12.248393,176966.015625,183206.4375,196869.078125,175152.21875,174138.0625,195311.4375,688410.0,172926.25,0.06982421875,0.987548828125,-0.197509765625,-2.197265386581421,0.3662109076976776,0.3662109076976776,100.0,135512.0,1.0
14:59:12.252107,176933.828125,183210.46875,196867.828125,175154.890625,174144.953125,195324.65625,688417.5625,172929.375,0.068603515625,0.98681640625,-0.196533203125,-2.044677495956421,0.4577636420726776,0.4577636420726776,100.0,135513.0,1.0
14:59:12.252115,176899.84375,183195.984375,196853.703125,175157.9375,174136.453125,195274.765625,688366.0625,172933.40625,0.06884765625,0.98681640625,-0.197265625,-1.9531248807907104,0.5187987685203552,0.3356933295726776,100.0,135514.0,1.0
14:59:12.260414,176883.84375,183188.296875,196842.34375,175147.65625,174125.109375,195258.046875,688313.4375,172923.46875,0.068359375,0.986083984375,-0.19677734375,-1.8920897245407104,0.4272460639476776,0.4272460639476776,100.0,135515.0,1.0
14:59:12.264771,176947.6875,183192.046875,196857.09375,175144.078125,174127.609375,195296.40625,688400.5,172922.40625,0.068359375,0.986083984375,-0.198486328125,-1.8310545682907104,0.3051757514476776,0.4882812201976776,100.0,135516.0,1.0
14:59:12.264795,176928.90625,183201.875,196859.328125,175151.765625,174135.65625,195320.453125,688439.1875,172925.4375,0.068115234375,0.98583984375,-0.196044921875,-1.7700194120407104,0.4272460639476776,0.4882812201976776,100.0,135517.0,1.0
14:59:12.274781,176885.8125,183181.859375,196838.5,175143.71875,174120.71875,195272.53125,688377.4375,172921.421875,0.06787109375,0.986328125,-0.1982421875,-1.6784666776657104,0.3662109076976776,0.5798339247703552,100.0,135518.0,1.0
14:59:12.274861,176868.734375,183176.84375,196834.296875,175143.1875,174116.96875,195249.828125,688340.4375,172920.171875,0.066162109375,0.98828125,-0.197021484375,-1.5258787870407104,0.3356933295726776,0.5187987685203552,100.0,135519.0,1.0
14:59:12.277256,176940.984375,183195.265625,196854.953125,175143.359375,174125.734375,195296.859375,688381.375,172924.1875,0.064697265625,0.986572265625,-0.199951171875,-1.4038084745407104,0.2136230319738388,0.6103515028953552,100.0,135520.0,1.0
14:59:12.277310,176943.921875,183209.390625,196864.96875,175148.015625,174136.734375,195331.546875,688452.1875,172925.625,0.06591796875,0.986572265625,-0.196533203125,-1.4038084745407104,0.2746581733226776,0.7629393935203552,100.0,135521.0,1.0
14:59:12.285349,176902.71875,183193.125,196852.53125,175152.21875,174131.546875,195285.40625,688391.3125,172926.96875,0.0673828125,0.986572265625,-0.197998046875,-1.3427733182907104,0.2136230319738388,0.6713866591453552,100.0,135522.0,1.0
14:59:12.289639,176881.078125,183190.078125,196848.78125,175155.96875,174130.921875,195257.875,688343.375,172928.390625,0.066162109375,0.98828125,-0.199462890625,-1.1901854276657104,0.2746581733226776,0.6408690810203552,100.0,135523.0,1.0
14:59:12.289656,176934.359375,183198.390625,196862.375,175151.046875,174133.515625,195290.328125,688353.125,172928.484375,0.067626953125,0.988525390625,-0.2001953125,-1.2207030057907104,0.1831054538488388,0.5798339247703552,100.0,135524.0,1.0
14:59:12.299020,176945.71875,183194.546875,196863.625,175141.9375,174132.53125,195317.234375,688440.4375,172921.234375,0.06640625,0.9892578125,-0.199951171875,-1.0681151151657104,0.0610351525247097,0.5187987685203552,100.0,135525.0,1.0
14:59:12.302083,176896.0,183180.59375,196847.4375,175139.96875,174125.546875,195284.875,688383.3125,172919.625,0.06787109375,0.988525390625,-0.19970703125,-1.0986326932907104,0.0915527269244194,0.5798339247703552,100.0,135526.0,1.0
14:59:12.302094,176867.21875,183168.171875,196833.9375,175138.359375,174115.71875,195241.6875,688346.4375,172915.609375,0.0693359375,0.987548828125,-0.199462890625,-1.0986326932907104,0.1525878757238388,0.5493163466453552,100.0,135527.0,1.0
14:59:12.307835,176913.078125,183182.75,196849.046875,175141.390625,174121.078125,195272.53125,688328.1875,172919.1875,0.0693359375,0.98876953125,-0.198486328125,-1.0986326932907104,0.1525878757238388,0.5798339247703552,100.0,135528.0,1.0
14:59:12.317146,176955.28125,183196.609375,196864.078125,175144.703125,174131.625,195317.859375,688441.75,172923.65625,0.068359375,0.987548828125,-0.198974609375,-1.0070799589157104,0.03051757626235485,0.4882812201976776,100.0,135529.0,1.0
14:59:12.317161,176915.046875,183198.75,196858.890625,175151.5,174134.765625,195304.71875,688400.6875,172926.875,0.070068359375,0.986572265625,-0.197021484375,-0.8850097060203552,-0.03051757626235485,0.4882812201976776,100.0,135530.0,1.0
14:59:12.319096,176892.25,183205.28125,196853.609375,175157.21875,174133.59375,195275.21875,688370.1875,172929.90625,0.07080078125,0.988037109375,-0.199462890625,-1.0681151151657104,-0.03051757626235485,0.5187987685203552,100.0,135531.0,1.0
14:59:12.325381,176920.953125,183206.34375,196863.890625,175160.4375,174137.890625,195288.359375,688329.4375,172934.921875,0.071533203125,0.989013671875,-0.19970703125,-0.9460448622703552,0.0610351525247097,0.5187987685203552,100.0,135532.0,1.0
14:59:12.329597,176971.28125,183205.28125,196873.640625,175153.1875,174137.0,195318.765625,688436.5625,172929.46875,0.070556640625,0.98828125,-0.2001953125,-0.9155272841453552,-0.03051757626235485,0.5187987685203552,100.0,135533.0,1.0
14:59:12.329626,176931.140625,183204.46875,196868.28125,175156.765625,174140.03125,195316.609375,688411.75,172928.84375,0.069091796875,0.990966796875,-0.201171875,-1.0375975370407104,0.0,0.5798339247703552,100.0,135534.0,1.0
14:59:12.339342,176897.703125,183192.9375,196853.703125,175155.34375,174132.875,195270.578125,688365.1875,172930.1875,0.06787109375,0.991943359375,-0.19970703125,-1.0375975370407104,0.0610351525247097,0.5798339247703552,100.0,135535.0,1.0
14:59:12.342128,176900.65625,183196.875,196854.59375,175151.9375,174131.8125,195275.484375,688311.375,172928.84375,0.0703125,0.990234375,-0.19775390625,-0.9765624403953552,0.1220703050494194,0.6103515028953552,100.0,135536.0,1.0
14:59:12.342202,176966.28125,183208.234375,196869.171875,175150.609375,174135.65625,195319.921875,688415.8125,172930.359375,0.070556640625,0.99072265625,-0.197509765625,-1.0375975370407104,0.0915527269244194,0.4577636420726776,100.0,135537.0,1.0
14:59:12.347737,176939.71875,183218.0625,196873.28125,175159.28125,174144.953125,195335.125,688426.1875,172937.15625,0.070068359375,0.98974609375,-0.1982421875,-1.0681151151657104,0.1525878757238388,0.5493163466453552,100.0,135538.0,1.0
14:59:12.354176,176904.046875,183202.421875,196858.625,175158.015625,174135.5625,195286.3125,688370.8125,172936.171875,0.069580078125,0.98974609375,-0.197021484375,-1.0986326932907104,0.1525878757238388,0.4882812201976776,100.0,135539.0,1.0
14:59:12.358339,176900.03125,183203.21875,196859.6875,175158.015625,174134.765625,195275.84375,688316.9375,172934.03125,0.068359375,0.99267578125,-0.1982421875,-1.1901854276657104,0.1525878757238388,0.6408690810203552,100.0,135540.0,1.0
14:59:12.358387,176973.515625,183212.78125,196876.859375,175157.3125,174138.6875,195316.96875,688394.9375,172934.375,0.067626953125,0.993408203125,-0.197265625,-1.2207030057907104,0.2136230319738388,0.5798339247703552,100.0,135541.0,1.0
14:59:12.374037,176960.734375,183220.203125,196881.953125,175163.828125,174146.390625,195337.359375,688432.6875,172935.8125,0.067138671875,0.9931640625,-0.199462890625,-1.1291502714157104,0.2136230319738388,0.6713866591453552,100.0,135542.0,1.0
14:59:12.376661,176917.28125,183199.828125,196861.03125,175157.9375,174132.96875,195286.84375,688366.25,172929.546875,0.068603515625,0.991943359375,-0.19970703125,-1.3122557401657104,0.1831054538488388,0.6713866591453552,100.0,135543.0,1.0
14:59:12.379029,176896.8125,183195.171875,196854.140625,175157.9375,174130.109375,195267.796875,688325.5,172928.84375,0.0703125,0.991943359375,-0.198486328125,-1.3732908964157104,0.1831054538488388,0.6103515028953552,100.0,135544.0,1.0
14:59:12.381559,176955.8125,183195.171875,196865.140625,175151.578125,174129.3125,195296.953125,688367.0,172926.78125,0.07080078125,0.991943359375,-0.198486328125,-1.4343260526657104,0.1220703050494194,0.7629393935203552,100.0,135545.0,1.0
14:59:12.384010,176951.890625,183202.953125,196869.078125,175151.578125,174133.421875,195324.9375,688440.3125,172923.46875,0.069091796875,0.9921875,-0.19677734375,-1.5563963651657104,0.1220703050494194,0.8239745497703552,100.0,135546.0,1.0
14:59:12.387730,176911.65625,183190.703125,196855.3125,175153.1875,174128.5,195285.6875,688382.4375,172927.140625,0.07080078125,0.993896484375,-0.195068359375,-1.6174315214157104,0.0610351525247097,0.7324218153953552,100.0,135547.0,1.0
14:59:12.392097,176888.578125,183187.390625,196847.625,175155.78125,174124.484375,195259.3125,688336.9375,172926.328125,0.0712890625,0.992431640625,-0.1962890625,-1.6784666776657104,0.1525878757238388,0.8239745497703552,100.0,135548.0,1.0
14:59:12.392107,176948.671875,183202.140625,196865.40625,175157.3125,174131.359375,195298.46875,688352.6875,172929.546875,0.0703125,0.991943359375,-0.20068359375,-1.7700194120407104,0.1525878757238388,0.8544921278953552,100.0,135549.0,1.0
14:59:12.406521,176977.640625,183223.78125,196884.359375,175166.78125,174147.546875,195350.234375,688451.1875,172938.234375,0.0693359375,0.99267578125,-0.1982421875,-1.8310545682907104,0.2441406100988388,0.8239745497703552,100.0,135550.0,1.0
14:59:12.410206,176931.140625,183199.640625,196868.453125,175165.890625,174140.390625,195300.96875,688394.0625,172939.125,0.0673828125,0.991943359375,-0.197021484375,-1.8005369901657104,0.2136230319738388,0.9765624403953552,100.0,135551.0,1.0
14:59:12.410214,176895.296875,183187.484375,196852.890625,175158.828125,174129.75,195259.390625,688347.1875,172932.234375,0.068115234375,0.990966796875,-0.19921875,-1.7700194120407104,0.1831054538488388,0.8544921278953552,100.0,135552.0,1.0
14:59:12.410216,176936.953125,183204.734375,196867.375,175160.4375,174134.765625,195292.390625,688329.3125,172933.046875,0.068603515625,0.9912109375,-0.2001953125,-1.8310545682907104,0.1831054538488388,0.9460448622703552,100.0,135553.0,1.0
14:59:12.415294,176982.8125,183230.40625,196885.4375,175161.421875,174147.546875,195347.640625,688441.8125,172937.59375,0.0693359375,0.990478515625,-0.201416015625,-1.8005369901657104,0.1831054538488388,0.9460448622703552,100.0,135554.0,1.0
14:59:12.417729,176931.953125,183199.203125,196867.5625,175158.375,174139.046875,195307.5,688404.25,172933.578125,0.06982421875,0.989990234375,-0.198974609375,-1.8310545682907104,0.2136230319738388,0.9765624403953552,100.0,135555.0,1.0
14:59:12.420273,176904.859375,183189.09375,196858.796875,175163.03125,174133.953125,195267.4375,688361.4375,172936.265625,0.0693359375,0.990478515625,-0.20263671875,-1.9226073026657104,0.2136230319738388,0.9460448622703552,100.0,135556.0,1.0
14:59:12.427837,176928.453125,183200.09375,196865.6875,175161.0625,174134.84375,195287.109375,688327.125,172935.28125,0.07080078125,0.990234375,-0.202880859375,-1.9226073026657104,0.1525878757238388,0.8850097060203552,100.0,135557.0,1.0
14:59:12.432441,176979.875,183212.25,196877.125,175156.40625,174137.53125,195333.328125,688439.3125,172931.703125,0.072265625,0.98876953125,-0.200927734375,-1.8005369901657104,0.2136230319738388,0.8544921278953552,100.0,135558.0,1.0
14:59:12.432492,176935.796875,183210.375,196868.1875,175156.6875,174137.171875,195330.734375,688423.75,172931.515625,0.072509765625,0.988037109375,-0.2001953125,-1.8005369901657104,0.2441406100988388,0.8850097060203552,100.0,135559.0,1.0
14:59:12.439069,176902.0,183191.859375,196851.734375,175155.875,174126.625,195279.25,688365.5625,172932.859375,0.073974609375,0.9873046875,-0.19677734375,-1.7395018339157104,0.2441406100988388,0.8850097060203552,100.0,135560.0,1.0
14:59:12.464677,176909.0625,183195.703125,196857.015625,175156.6875,174127.78125,195281.125,688318.6875,172933.578125,0.07568359375,0.987548828125,-0.2001953125,-1.8005369901657104,0.3051757514476776,0.8544921278953552,100.0,135561.0,1.0
14:59:12.464752,176973.875,183209.921875,196873.109375,175153.90625,174132.171875,195325.90625,688411.3125,172932.5,0.076904296875,0.987548828125,-0.200927734375,-1.8310545682907104,0.2746581733226776,0.7629393935203552,100.0,135562.0,1.0
14:59:12.489598,176944.90625,183215.375,196873.109375,175157.484375,174137.796875,195334.5,688430.0,172933.671875,0.074462890625,0.986083984375,-0.19970703125,-1.7395018339157104,0.2441406100988388,0.8239745497703552,100.0,135563.0,1.0
14:59:12.489610,176915.671875,183201.078125,196860.859375,175162.40625,174130.828125,195286.390625,688373.5625,172938.40625,0.075439453125,0.988525390625,-0.198974609375,-1.7089842557907104,0.2746581733226776,0.7934569716453552,100.0,135564.0,1.0
14:59:12.500234,176911.5625,183202.328125,196859.78125,175162.578125,174127.15625,195278.703125,688326.3125,172935.984375,0.07373046875,0.988037109375,-0.1982421875,-1.6479490995407104,0.4577636420726776,0.6713866591453552,100.0,135565.0,1.0
14:59:12.500272,176983.453125,183215.734375,196877.21875,175160.96875,174131.0,195323.5,688397.4375,172934.46875,0.0732421875,0.98828125,-0.203125,-1.5869139432907104,0.4882812201976776,0.6713866591453552,100.0,135566.0,1.0
14:59:12.500283,176973.4375,183224.953125,196882.484375,175170.1875,174139.59375,195342.546875,688445.1875,172940.1875,0.07373046875,0.988037109375,-0.202392578125,-1.6479490995407104,0.5798339247703552,0.5493163466453552,100.0,135567.0,1.0
14:59:12.503945,176938.734375,183211.09375,196869.890625,175174.5625,174132.4375,195298.203125,688381.4375,172943.765625,0.074462890625,0.988037109375,-0.2001953125,-1.6479490995407104,0.6103515028953552,0.4882812201976776,100.0,135568.0,1.0
14:59:12.503961,176923.71875,183210.1875,196868.71875,175178.046875,174131.984375,195278.96875,688331.6875,172946.1875,0.074951171875,0.990234375,-0.198974609375,-1.5869139432907104,0.6713866591453552,0.4272460639476776,100.0,135569.0,1.0
14:59:12.503972,176997.03125,183231.65625,196890.984375,175178.9375,174141.375,195327.34375,688385.0625,172948.78125,0.07568359375,0.988037109375,-0.19775390625,-1.5869139432907104,0.6103515028953552,0.2746581733226776,100.0,135570.0,1.0
14:59:12.507684,177001.0625,183236.390625,196897.234375,175182.34375,174149.25,195352.5625,688456.8125,172949.21875,0.072265625,0.987548828125,-0.1982421875,-1.6174315214157104,0.6408690810203552,0.2441406100988388,100.0,135571.0,1.0
14:59:12.507689,176965.296875,183230.40625,196888.296875,175189.859375,174149.515625,195319.75,688395.4375,172956.5625,0.07177734375,0.9873046875,-0.199951171875,-1.5563963651657104,0.5798339247703552,0.3662109076976776,100.0,135572.0,1.0
14:59:12.507691,176940.984375,183225.578125,196880.703125,175190.296875,174144.6875,195288.1875,688354.125,172957.09375,0.072265625,0.9873046875,-0.197509765625,-1.5563963651657104,0.6408690810203552,0.3967284858226776,100.0,135573.0,1.0
14:59:12.510312,177003.390625,183246.578125,196901.625,175195.84375,174153.265625,195328.59375,688350.4375,172964.421875,0.072265625,0.98681640625,-0.197021484375,-1.4953612089157104,0.6103515028953552,0.3356933295726776,100.0,135574.0,1.0
14:59:12.512875,177031.1875,183263.84375,196914.671875,175201.296875,174162.65625,195369.71875,688443.0,172967.546875,0.071533203125,0.986572265625,-0.20068359375,-1.5258787870407104,0.6103515028953552,0.2746581733226776,100.0,135575.0,1.0
14:59:12.515295,176990.59375,183260.796875,196904.9375,175199.953125,174161.765625,195344.875,688394.6875,172968.796875,0.071044921875,0.986572265625,-0.198486328125,-1.4343260526657104,0.6408690810203552,0.1831054538488388,100.0,135576.0,1.0
14:59:12.517778,176965.75,183256.421875,196895.453125,175201.75,174157.203125,195310.0,688349.875,172968.71875,0.0703125,0.98828125,-0.199462890625,-1.3732908964157104,0.5493163466453552,0.1831054538488388,100.0,135577.0,1.0
14:59:12.520308,177006.515625,183263.390625,196907.34375,175201.46875,174160.421875,195331.71875,688336.5625,172969.96875,0.068603515625,0.98876953125,-0.1962890625,-1.3732908964157104,0.3967284858226776,0.2441406100988388,100.0,135578.0,1.0
14:59:12.525410,177043.34375,183268.75,196918.078125,175198.25,174165.96875,195373.390625,688450.1875,172967.546875,0.069580078125,0.990478515625,-0.197998046875,-1.3732908964157104,0.3967284858226776,0.3662109076976776,100.0,135579.0,1.0
14:59:12.552829,176999.359375,183265.0,196911.1875,175205.5,174168.015625,195359.359375,688399.25,172971.3125,0.071044921875,0.99169921875,-0.196533203125,-1.4038084745407104,0.4577636420726776,0.2441406100988388,100.0,135580.0,1.0
14:59:12.555367,176972.53125,183257.3125,196902.15625,175208.71875,174163.734375,195317.859375,688358.5625,172972.640625,0.069580078125,0.990966796875,-0.197021484375,-1.4648436307907104,0.3356933295726776,0.2441406100988388,100.0,135581.0,1.0
14:59:12.557720,176995.25,183261.78125,196907.796875,175207.203125,174162.125,195328.421875,688311.5625,172970.765625,0.067138671875,0.990966796875,-0.197265625,-1.3732908964157104,0.2746581733226776,0.3356933295726776,100.0,135582.0,1.0
14:59:12.560891,177042.71875,183261.515625,196918.515625,175200.765625,174163.734375,195365.796875,688426.875,172969.078125,0.065673828125,0.991455078125,-0.1982421875,-1.4648436307907104,0.2136230319738388,0.3662109076976776,100.0,135583.0,1.0
14:59:12.560922,176998.375,183262.3125,196911.09375,175204.0625,174166.765625,195362.84375,688399.0,172970.6875,0.066162109375,0.990478515625,-0.19873046875,-1.4038084745407104,0.1525878757238388,0.2441406100988388,100.0,135584.0,1.0
14:59:12.562732,176963.953125,183246.765625,196893.21875,175199.59375,174154.15625,195312.0625,688366.625,172967.109375,0.065185546875,0.9892578125,-0.19873046875,-1.4343260526657104,0.2136230319738388,0.2746581733226776,100.0,135585.0,1.0
14:59:12.565223,176970.125,183248.734375,196897.421875,175200.40625,174155.0625,195309.375,688319.25,172965.765625,0.068603515625,0.990478515625,-0.199462890625,-1.4038084745407104,0.03051757626235485,0.2746581733226776,100.0,135586.0,1.0
14:59:12.567731,177039.140625,183259.09375,196918.34375,175200.84375,174164.890625,195359.984375,688415.8125,172970.40625,0.067626953125,0.9892578125,-0.19775390625,-1.4038084745407104,-0.0915527269244194,0.3051757514476776,100.0,135587.0,1.0
14:59:12.570297,177009.375,183259.546875,196917.53125,175204.6875,174169.8125,195368.828125,688424.75,172971.671875,0.06591796875,0.9892578125,-0.198974609375,-1.3427733182907104,-0.03051757626235485,0.2746581733226776,100.0,135588.0,1.0
14:59:12.572766,176969.3125,183237.203125,196896.609375,175199.0625,174154.4375,195315.0,688371.875,172966.921875,0.06494140625,0.988037109375,-0.199462890625,-1.4343260526657104,-0.0610351525247097,0.3662109076976776,100.0,135589.0,1.0
14:59:12.575293,176959.578125,183239.609375,196893.9375,175196.015625,174151.84375,195307.9375,688324.75,172963.078125,0.067138671875,0.988037109375,-0.2001953125,-1.4343260526657104,-0.2441406100988388,0.3356933295726776,100.0,135590.0,1.0
14:59:12.578349,177028.328125,183251.328125,196912.265625,175193.078125,174157.65625,195351.65625,688399.6875,172963.625,0.067138671875,0.988037109375,-0.20068359375,-1.4953612089157104,-0.3662109076976776,0.3356933295726776,100.0,135591.0,1.0
14:59:12.578360,177014.46875,183262.3125,196920.046875,175201.03125,174168.109375,195375.09375,688441.0,172969.515625,0.066650390625,0.988037109375,-0.19873046875,-1.4343260526657104,-0.3662109076976776,0.3662109076976776,100.0,135592.0,1.0
14:59:12.580315,176969.3125,183239.4375,196898.046875,175196.734375,174152.640625,195321.0,688373.75,172963.96875,0.068115234375,0.987060546875,-0.197265625,-1.4648436307907104,-0.3967284858226776,0.3662109076976776,100.0,135593.0,1.0
14:59:12.583358,176948.84375,183233.625,196890.71875,175195.03125,174146.5625,195297.03125,688326.125,172958.96875,0.069091796875,0.988525390625,-0.197509765625,-1.5563963651657104,-0.4577636420726776,0.4272460639476776,100.0,135594.0,1.0
14:59:12.583376,177021.0,183251.765625,196914.765625,175199.234375,174159.796875,195342.09375,688366.0625,172968.796875,0.068115234375,0.9892578125,-0.1982421875,-1.5869139432907104,-0.5187987685203552,0.4272460639476776,100.0,135595.0,1.0
14:59:12.585335,177022.609375,183261.515625,196922.0,175202.90625,174169.546875,195372.859375,688439.375,172971.578125,0.068115234375,0.990478515625,-0.1982421875,-1.5869139432907104,-0.7019042372703552,0.3356933295726776,100.0,135596.0,1.0
14:59:12.588414,176971.640625,183244.53125,196900.453125,175195.484375,174155.0625,195329.765625,688377.625,172963.703125,0.067626953125,0.990478515625,-0.1982421875,-1.6174315214157104,-0.6408690810203552,0.4577636420726776,100.0,135597.0,1.0
14:59:12.588427,176942.046875,183236.5625,196889.46875,175192.4375,174147.546875,195297.125,688344.375,172959.234375,0.06982421875,0.989990234375,-0.19921875,-1.6174315214157104,-0.6103515028953552,0.5187987685203552,100.0,135598.0,1.0
14:59:12.597821,176994.53125,183242.734375,196901.625,175189.5,174150.046875,195325.90625,688340.625,172959.0625,0.071044921875,0.9921875,-0.197509765625,-1.5563963651657104,-0.6713866591453552,0.5493163466453552,100.0,135599.0,1.0
14:59:12.600881,177016.078125,183252.75,196911.90625,175191.109375,174158.453125,195363.109375,688433.875,172960.75,0.07177734375,0.991943359375,-0.197509765625,-1.6174315214157104,-0.6713866591453552,0.4272460639476776,100.0,135600.0,1.0
14:59:12.600950,176972.359375,183244.078125,196900.375,175195.3125,174155.859375,195335.5625,688387.0625,172962.1875,0.071044921875,0.990966796875,-0.197998046875,-1.6479490995407104,-0.7324218153953552,0.3967284858226776,100.0,135601.0,1.0
14:59:12.602807,176942.9375,183230.125,196888.5625,175193.609375,174147.8125,195291.765625,688369.0,172959.78125,0.07275390625,0.99169921875,-0.197998046875,-1.6479490995407104,-0.6408690810203552,0.4272460639476776,100.0,135602.0,1.0
14:59:12.628370,176982.90625,183249.625,196900.375,175190.75,174151.296875,195327.96875,688346.5625,172957.984375,0.07177734375,0.990478515625,-0.199951171875,-1.5563963651657104,-0.6713866591453552,0.3356933295726776,100.0,135603.0,1.0
14:59:12.628394,177017.59375,183246.21875,196907.796875,175189.3125,174153.453125,195356.3125,688460.875,172956.109375,0.069580078125,0.989990234375,-0.19921875,-1.6479490995407104,-0.6408690810203552,0.3662109076976776,100.0,135604.0,1.0
14:59:12.630855,176971.640625,183237.734375,196897.6875,175190.828125,174153.265625,195338.15625,688413.125,172956.828125,0.070556640625,0.98876953125,-0.19775390625,-1.6174315214157104,-0.6408690810203552,0.3967284858226776,100.0,135605.0,1.0
14:59:12.630879,176938.203125,183224.234375,196881.234375,175182.875,174142.1875,195291.765625,688373.5,172951.015625,0.070556640625,0.989501953125,-0.19970703125,-1.6479490995407104,-0.5798339247703552,0.4272460639476776,100.0,135606.0,1.0
14:59:12.635426,176967.359375,183238.171875,196894.734375,175187.265625,174150.140625,195315.546875,688339.25,172955.75,0.071044921875,0.988037109375,-0.201904296875,-1.6784666776657104,-0.5798339247703552,0.3967284858226776,100.0,135607.0,1.0
14:59:12.637790,177026.359375,183255.25,196914.859375,175191.1875,174161.578125,195367.046875,688456.1875,172962.09375,0.072021484375,0.98779296875,-0.19775390625,-1.7700194120407104,-0.5493163466453552,0.4882812201976776,100.0,135608.0,1.0
14:59:12.640270,176988.0,183254.265625,196911.71875,175197.265625,174167.21875,195365.15625,688451.5625,172966.484375,0.0712890625,0.990234375,-0.1982421875,-1.6479490995407104,-0.4577636420726776,0.5187987685203552,100.0,135609.0,1.0
14:59:12.642739,176953.21875,183234.0625,196894.375,175193.875,174155.40625,195310.171875,688382.875,172963.625,0.07080078125,0.992919921875,-0.201416015625,-1.6174315214157104,-0.3662109076976776,0.4577636420726776,100.0,135610.0,1.0
14:59:12.645269,176967.796875,183250.25,196906.0,175202.015625,174161.3125,195320.015625,688341.5,172971.484375,0.070068359375,0.992919921875,-0.200439453125,-1.6174315214157104,-0.2746581733226776,0.5187987685203552,100.0,135611.0,1.0
14:59:12.647774,177033.25,183266.875,196924.328125,175200.84375,174168.28125,195370.53125,688441.0625,172973.8125,0.070556640625,0.990478515625,-0.198486328125,-1.6479490995407104,-0.1831054538488388,0.5798339247703552,100.0,135612.0,1.0
14:59:12.651009,176988.984375,183252.21875,196910.734375,175195.125,174164.171875,195367.484375,688439.6875,172966.65625,0.0703125,0.989990234375,-0.197265625,-1.6479490995407104,-0.1220703050494194,0.5493163466453552,100.0,135613.0,1.0
14:59:12.651031,176940.265625,183222.0,196883.03125,175185.203125,174144.234375,195305.4375,688377.0625,172958.078125,0.069580078125,0.989013671875,-0.19580078125,-1.7089842557907104,-0.2136230319738388,0.5798339247703552,100.0,135614.0,1.0
14:59:12.658041,176925.234375,183216.71875,196874.984375,175179.125,174136.8125,195290.328125,688317.875,172949.21875,0.068603515625,0.989990234375,-0.19775390625,-1.6479490995407104,-0.0915527269244194,0.6103515028953552,100.0,135615.0,1.0
14:59:12.664578,176993.09375,183229.328125,196891.78125,175175.640625,174140.484375,195335.5625,688401.8125,172948.6875,0.069091796875,0.9892578125,-0.197021484375,-1.6479490995407104,-0.1831054538488388,0.4882812201976776,100.0,135616.0,1.0
14:59:12.664587,176978.53125,183238.8125,196897.0625,175179.921875,174149.78125,195357.5625,688443.25,172951.640625,0.07080078125,0.990478515625,-0.198486328125,-1.6174315214157104,-0.1525878757238388,0.5798339247703552,100.0,135617.0,1.0
14:59:12.670870,176942.59375,183223.875,196883.203125,175183.5,174144.328125,195311.703125,688377.6875,172956.28125,0.071044921875,0.990966796875,-0.197998046875,-1.6784666776657104,-0.1525878757238388,0.4882812201976776,100.0,135618.0,1.0
14:59:12.670878,176918.453125,183216.1875,196871.84375,175177.15625,174136.09375,195287.203125,688324.3125,172950.125,0.069091796875,0.989501953125,-0.197509765625,-1.5869139432907104,-0.0610351525247097,0.5187987685203552,100.0,135619.0,1.0
14:59:12.676588,176983.53125,183229.328125,196887.3125,175173.671875,174140.125,195326.8125,688375.0,172950.5625,0.06787109375,0.988525390625,-0.199951171875,-1.5563963651657104,-0.0610351525247097,0.6408690810203552,100.0,135620.0,1.0
14:59:12.680326,176984.78125,183240.859375,196892.859375,175176.703125,174145.9375,195358.28125,688452.25,172950.75,0.069580078125,0.989013671875,-0.19921875,-1.5563963651657104,-0.0915527269244194,0.5493163466453552,100.0,135621.0,1.0
14:59:12.687087,176938.109375,183224.59375,196873.90625,175174.03125,174134.046875,195317.0625,688385.6875,172946.453125,0.07080078125,0.989013671875,-0.201171875,-1.4343260526657104,-0.0915527269244194,0.5493163466453552,100.0,135622.0,1.0
14:59:12.687098,176918.09375,183225.03125,196868.546875,175177.328125,174130.5625,195288.453125,688335.5,172948.0625,0.071533203125,0.987548828125,-0.197509765625,-1.4953612089157104,0.0,0.5493163466453552,100.0,135623.0,1.0
14:59:12.694215,176971.640625,183226.828125,196877.484375,175170.1875,174128.140625,195315.546875,688349.8125,172944.578125,0.072021484375,0.987548828125,-0.194091796875,-1.4953612089157104,0.0610351525247097,0.4882812201976776,100.0,135624.0,1.0
14:59:12.700952,176987.640625,183236.125,196884.90625,175166.703125,174132.875,195353.1875,688450.8125,172941.984375,0.071044921875,0.987548828125,-0.197021484375,-1.4953612089157104,0.0915527269244194,0.4882812201976776,100.0,135625.0,1.0
14:59:12.700969,176942.3125,183226.375,196872.390625,175169.5625,174129.578125,195325.5625,688404.5,172942.515625,0.0712890625,0.985595703125,-0.196533203125,-1.5869139432907104,0.03051757626235485,0.4882812201976776,100.0,135626.0,1.0
14:59:12.704074,176914.609375,183208.234375,196860.40625,175172.0625,174121.890625,195282.8125,688370.4375,172943.59375,0.0693359375,0.983154296875,-0.19921875,-1.4648436307907104,0.1220703050494194,0.5798339247703552,100.0,135627.0,1.0
14:59:12.713363,176957.703125,183224.671875,196875.96875,175172.15625,174128.765625,195313.578125,688348.9375,172944.9375,0.070556640625,0.9833984375,-0.19873046875,-1.2207030057907104,0.1525878757238388,0.5798339247703552,100.0,135628.0,1.0
14:59:12.713371,177004.015625,183251.046875,196898.21875,175179.65625,174146.828125,195371.78125,688465.125,172954.3125,0.07080078125,0.9833984375,-0.198486328125,-1.1291502714157104,0.1220703050494194,0.6408690810203552,100.0,135629.0,1.0
14:59:12.719658,176951.703125,183228.609375,196883.390625,175179.484375,174141.640625,195336.828125,688420.25,172954.859375,0.07177734375,0.983642578125,-0.19970703125,-1.0070799589157104,0.1525878757238388,0.5187987685203552,100.0,135630.0,1.0
14:59:12.719676,176916.21875,183208.3125,196863.53125,175171.53125,174126.890625,195284.421875,688380.125,172945.203125,0.0693359375,0.98388671875,-0.20068359375,-0.8239745497703552,0.1831054538488388,0.5493163466453552,100.0,135631.0,1.0
14:59:12.734639,176944.546875,183215.5625,196873.1875,175170.09375,174130.640625,195301.328125,688335.6875,172946.625,0.072021484375,0.984619140625,-0.20263671875,-0.6408690810203552,0.2441406100988388,0.5187987685203552,100.0,135632.0,1.0
14:59:12.734653,176998.46875,183230.125,196888.484375,175167.953125,174135.203125,195346.484375,688439.9375,172946.71875,0.073486328125,0.984375,-0.2041015625,-0.5493163466453552,0.3051757514476776,0.5798339247703552,100.0,135633.0,1.0
14:59:12.734655,176958.234375,183231.921875,196884.28125,175170.265625,174137.625,195342.1875,688418.125,172946.359375,0.07275390625,0.987060546875,-0.200439453125,-0.4577636420726776,0.2746581733226776,0.5187987685203552,100.0,135634.0,1.0
14:59:12.736526,176925.15625,183211.171875,196867.640625,175168.65625,174124.5625,195287.015625,688366.4375,172943.40625,0.072021484375,0.9873046875,-0.201171875,-0.4272460639476776,0.2136230319738388,0.5187987685203552,100.0,135635.0,1.0
14:59:12.740261,176930.515625,183213.59375,196870.421875,175167.234375,174122.875,195284.609375,688312.5,172941.890625,0.0703125,0.987060546875,-0.201171875,-0.4882812201976776,0.4272460639476776,0.5798339247703552,100.0,135636.0,1.0
14:59:12.747111,176994.625,183223.875,196885.890625,175165.796875,174128.140625,195328.234375,688411.75,172942.875,0.070556640625,0.984619140625,-0.202392578125,-0.3662109076976776,0.4272460639476776,0.5187987685203552,100.0,135637.0,1.0
14:59:12.747132,176961.546875,183216.453125,196883.03125,175170.265625,174133.859375,195333.609375,688415.25,172945.203125,0.068115234375,0.986572265625,-0.203857421875,-0.3967284858226776,0.5187987685203552,0.5493163466453552,100.0,135638.0,1.0
14:59:12.752897,176921.75,183199.203125,196864.515625,175167.046875,174121.796875,195280.5,688362.875,172941.71875,0.070556640625,0.986083984375,-0.2041015625,-0.3967284858226776,0.4272460639476776,0.5493163466453552,100.0,135639.0,1.0
14:59:12.763465,176919.78125,183212.15625,196871.3125,175170.265625,174126.71875,195282.546875,688315.1875,172945.640625,0.070068359375,0.989501953125,-0.201904296875,-0.3051757514476776,0.4577636420726776,0.4882812201976776,100.0,135640.0,1.0
14:59:12.763529,176988.09375,183227.1875,196889.015625,175164.375,174131.453125,195327.796875,688395.125,172945.5625,0.069580078125,0.990478515625,-0.204833984375,-0.2441406100988388,0.3662109076976776,0.6103515028953552,100.0,135641.0,1.0
14:59:12.768400,176968.96875,183230.578125,196888.5625,175165.171875,174135.921875,195348.796875,688429.5625,172943.40625,0.06982421875,0.991455078125,-0.2041015625,-0.1831054538488388,0.4272460639476776,0.6408690810203552,100.0,135642.0,1.0
14:59:12.768464,176930.515625,183211.796875,196872.203125,175166.0625,174128.0625,195300.703125,688377.375,172944.484375,0.0693359375,0.991943359375,-0.203125,-0.3051757514476776,0.3662109076976776,0.6408690810203552,100.0,135643.0,1.0
14:59:12.770308,176917.375,183225.484375,196870.953125,175170.71875,174127.078125,195292.65625,688337.5,172945.46875,0.06884765625,0.99462890625,-0.20263671875,-0.4272460639476776,0.3356933295726776,0.6103515028953552,100.0,135644.0,1.0
14:59:12.780282,176986.671875,183227.984375,196889.46875,175174.65625,174133.0625,195325.46875,688374.375,172951.375,0.068603515625,0.994140625,-0.20458984375,-0.5187987685203552,0.3051757514476776,0.6408690810203552,100.0,135645.0,1.0
14:59:12.784580,176986.3125,183240.6875,196896.53125,175176.078125,174141.828125,195361.234375,688439.6875,172952.359375,0.069091796875,0.99365234375,-0.202880859375,-0.5187987685203552,0.3967284858226776,0.6408690810203552,100.0,135646.0,1.0
14:59:12.784602,176941.25,183224.234375,196878.109375,175174.03125,174134.3125,195320.109375,688379.0625,172952.53125,0.070068359375,0.99462890625,-0.20361328125,-0.6713866591453552,0.3356933295726776,0.6408690810203552,100.0,135647.0,1.0
14:59:12.786594,176913.890625,183215.375,196867.109375,175170.984375,174127.78125,195287.46875,688348.125,172948.234375,0.067138671875,0.994384765625,-0.20263671875,-0.7934569716453552,0.4577636420726776,0.5493163466453552,100.0,135648.0,1.0
14:59:12.797779,176974.0625,183222.984375,196885.625,175174.109375,174133.59375,195319.125,688350.0,172951.90625,0.06298828125,0.993408203125,-0.1982421875,-0.8850097060203552,0.2746581733226776,0.4882812201976776,100.0,135649.0,1.0
14:59:12.802221,176991.046875,183229.6875,196894.5625,175172.953125,174139.5,195355.59375,688439.5,172948.234375,0.06298828125,0.993408203125,-0.19677734375,-0.9765624403953552,0.1831054538488388,0.2746581733226776,100.0,135650.0,1.0
14:59:12.802255,176945.0,183221.28125,196881.140625,175172.78125,174133.421875,195329.046875,688383.6875,172945.5625,0.0625,0.99609375,-0.195556640625,-1.1291502714157104,0.0610351525247097,0.2746581733226776,100.0,135651.0,1.0
14:59:12.802268,176919.25,183209.5625,196869.53125,175170.0,174125.015625,195287.109375,688360.4375,172943.234375,0.064453125,0.995849609375,-0.198486328125,-1.2817381620407104,-0.03051757626235485,0.1525878757238388,100.0,135652.0,1.0
14:59:12.807906,176963.15625,183224.765625,196884.546875,175169.734375,174130.921875,195316.34375,688340.3125,172946.8125,0.064697265625,0.99755859375,-0.2001953125,-1.4038084745407104,-0.0915527269244194,0.0610351525247097,100.0,135653.0,1.0
14:59:12.814652,176995.6875,183232.28125,196893.125,175165.0,174133.234375,195348.359375,688451.4375,172941.359375,0.0654296875,0.99853515625,-0.20166015625,-1.5563963651657104,-0.1220703050494194,0.0915527269244194,100.0,135654.0,1.0
14:59:12.814735,176954.484375,183232.375,196888.125,175171.703125,174135.75,195335.390625,688401.75,172945.640625,0.06884765625,0.998291015625,-0.203857421875,-1.6784666776657104,-0.1831054538488388,0.0,100.0,135655.0,1.0
14:59:12.840366,176921.84375,183208.234375,196870.78125,175172.0625,174124.484375,195285.765625,688360.625,172944.84375,0.069091796875,1.00146484375,-0.200439453125,-1.7700194120407104,-0.1831054538488388,0.1831054538488388,100.0,135656.0,1.0
14:59:12.867746,176950.546875,183222.0,196883.828125,175178.59375,174131.71875,195305.4375,688324.4375,172953.0625,0.072998046875,1.000244140625,-0.198486328125,-1.8920897245407104,-0.3051757514476776,0.3356933295726776,100.0,135657.0,1.0
14:59:12.884075,177006.515625,183234.875,196900.734375,175175.640625,174139.140625,195350.765625,688445.75,172953.421875,0.073486328125,0.99951171875,-0.197021484375,-2.105712652206421,-0.2441406100988388,0.3967284858226776,100.0,135658.0,1.0
14:59:12.886772,176968.515625,183236.75,196895.28125,175179.484375,174142.359375,195348.890625,688424.625,172952.53125,0.074462890625,0.996826171875,-0.199951171875,-2.258300542831421,-0.1831054538488388,0.5493163466453552,100.0,135659.0,1.0
14:59:12.889056,176932.75,183213.59375,196877.21875,175176.265625,174131.1875,195294.4375,688390.6875,172948.515625,0.07373046875,0.995849609375,-0.197509765625,-2.319335699081421,-0.03051757626235485,0.7019042372703552,100.0,135660.0,1.0
14:59:12.891623,176943.5625,183225.390625,196885.34375,175178.5,174137.078125,195306.15625,688339.0625,172953.0625,0.071044921875,0.9951171875,-0.19775390625,-2.471923589706421,0.0,0.7324218153953552,100.0,135661.0,1.0
14:59:12.894020,177007.578125,183238.359375,196901.984375,175173.21875,174143.078125,195355.953125,688433.875,172951.640625,0.070068359375,0.99169921875,-0.197265625,-2.502441167831421,0.0915527269244194,0.8850097060203552,100.0,135662.0,1.0
14:59:12.896620,176981.484375,183246.671875,196905.375,175180.109375,174152.109375,195373.65625,688452.25,172955.75,0.0703125,0.9912109375,-0.199462890625,-2.410888433456421,0.1220703050494194,0.8850097060203552,100.0,135663.0,1.0
14:59:12.898954,176947.421875,183237.015625,196893.484375,175182.703125,174146.390625,195334.3125,688402.125,172957.625,0.0703125,0.98876953125,-0.19775390625,-2.441406011581421,0.1220703050494194,0.9155272841453552,100.0,135664.0,1.0
14:59:12.901559,176938.296875,183220.390625,196889.734375,175182.609375,174142.453125,195304.90625,688349.4375,172958.171875,0.069091796875,0.987548828125,-0.197021484375,-2.471923589706421,0.1220703050494194,0.9765624403953552,100.0,135665.0,1.0
14:59:12.904088,177017.78125,183244.4375,196914.3125,175187.265625,174154.15625,195357.65625,688433.375,172965.5,0.068115234375,0.98583984375,-0.195556640625,-2.532958745956421,0.0610351525247097,0.9155272841453552,100.0,135666.0,1.0
14:59:12.906719,177005.96875,183266.703125,196921.828125,175196.296875,174165.25,195395.296875,688476.9375,172969.96875,0.068115234375,0.987548828125,-0.19189453125,-2.532958745956421,0.1831054538488388,0.8239745497703552,100.0,135667.0,1.0
14:59:12.910089,176962.53125,183247.296875,196902.15625,175191.109375,174152.1875,195347.375,688408.375,172965.671875,0.06689453125,0.986083984375,-0.194091796875,-2.563476324081421,0.0610351525247097,0.8239745497703552,100.0,135668.0,1.0
14:59:12.910154,176941.25,183226.90625,196895.1875,175195.484375,174146.921875,195307.40625,688355.1875,172966.21875,0.06884765625,0.987060546875,-0.194580078125,-2.441406011581421,0.0,0.7629393935203552,100.0,135669.0,1.0
14:59:12.912099,177003.5625,183235.859375,196907.609375,175190.65625,174149.0625,195343.796875,688403.25,172964.875,0.0693359375,0.986572265625,-0.19580078125,-2.441406011581421,-0.03051757626235485,0.6713866591453552,100.0,135670.0,1.0
14:59:12.912165,176997.484375,183244.796875,196909.578125,175182.4375,174151.21875,195376.515625,688472.0,172957.71875,0.0693359375,0.986328125,-0.195556640625,-2.441406011581421,-0.0915527269244194,0.6103515028953552,100.0,135671.0,1.0
14:59:12.914627,176952.78125,183228.25,196893.21875,175180.828125,174141.5625,195329.9375,688412.375,172957.265625,0.071044921875,0.985107421875,-0.1953125,-2.380370855331421,-0.0610351525247097,0.5798339247703552,100.0,135672.0,1.0
14:59:12.914700,176929.984375,183226.015625,196885.4375,175182.25,174137.625,195303.203125,688370.8125,172955.65625,0.07177734375,0.98388671875,-0.19580078125,-2.288818120956421,0.0610351525247097,0.4577636420726776,100.0,135673.0,1.0
14:59:12.917242,176981.921875,183230.125,196893.671875,175174.828125,174135.828125,195328.859375,688376.125,172949.765625,0.073486328125,0.983154296875,-0.198974609375,-2.258300542831421,-0.03051757626235485,0.3662109076976776,100.0,135674.0,1.0
14:59:12.917296,177002.484375,183238.09375,196903.140625,175175.1875,174142.625,195364.0,688471.6875,172949.578125,0.07275390625,0.984130859375,-0.19677734375,-2.166747808456421,0.03051757626235485,0.3051757514476776,100.0,135675.0,1.0
14:59:12.917306,176959.84375,183231.65625,196893.390625,175179.921875,174141.734375,195341.203125,688410.4375,172954.046875,0.0732421875,0.985107421875,-0.195556640625,-2.105712652206421,0.0610351525247097,0.2746581733226776,100.0,135676.0,1.0
14:59:12.919061,176929.625,183215.375,196879.890625,175178.234375,174133.78125,195297.578125,688361.1875,172951.640625,0.072509765625,0.9833984375,-0.1962890625,-2.014159917831421,0.03051757626235485,0.3051757514476776,100.0,135677.0,1.0
14:59:12.922129,176970.296875,183221.109375,196891.078125,175178.140625,174139.234375,195318.671875,688340.875,172953.875,0.072509765625,0.9833984375,-0.19873046875,-1.8615721464157104,0.03051757626235485,0.2746581733226776,100.0,135678.0,1.0
14:59:12.922197,177008.921875,183230.484375,196904.9375,175177.6875,174147.1875,195357.921875,688456.625,172954.3125,0.072021484375,0.986083984375,-0.19873046875,-1.7700194120407104,0.0610351525247097,0.3356933295726776,100.0,135679.0,1.0
14:59:12.924068,176961.09375,183227.1875,196893.3125,175180.46875,174144.6875,195342.546875,688412.9375,172953.0625,0.074462890625,0.98583984375,-0.1982421875,-1.6479490995407104,0.1220703050494194,0.3356933295726776,100.0,135680.0,1.0
14:59:12.927159,176929.4375,183216.90625,196877.84375,175179.03125,174135.203125,195300.515625,688386.5625,172951.90625,0.07275390625,0.984619140625,-0.194091796875,-1.5258787870407104,0.1220703050494194,0.2746581733226776,100.0,135681.0,1.0
14:59:12.927169,176951.078125,183225.578125,196885.0,175175.640625,174135.5625,195318.578125,688325.0625,172950.390625,0.072998046875,0.985107421875,-0.1962890625,-1.4953612089157104,0.1525878757238388,0.3051757514476776,100.0,135682.0,1.0
14:59:12.929706,176998.640625,183216.984375,196890.171875,175167.671875,174131.453125,195338.875,688426.5,172944.3125,0.0732421875,0.988037109375,-0.197509765625,-1.3732908964157104,0.1525878757238388,0.4272460639476776,100.0,135683.0,1.0
14:59:12.929780,176966.015625,183229.859375,196892.234375,175176.359375,174140.65625,195345.40625,688404.375,172951.015625,0.071533203125,0.9873046875,-0.19921875,-1.3427733182907104,0.1220703050494194,0.3356933295726776,100.0,135684.0,1.0
14:59:12.939157,176926.046875,183204.65625,196871.765625,175172.0625,174126.171875,195286.84375,688368.125,172945.375,0.07080078125,0.98779296875,-0.197509765625,-1.2512205839157104,0.0915527269244194,0.2746581733226776,100.0,135685.0,1.0
14:59:12.945918,176934.546875,183209.125,196876.671875,175177.78125,174128.953125,195286.3125,688307.0,172948.78125,0.068359375,0.98779296875,-0.198486328125,-1.0681151151657104,0.1525878757238388,0.3662109076976776,100.0,135686.0,1.0
14:59:12.945974,176993.546875,183213.6875,196885.53125,175170.625,174126.453125,195324.390625,688414.8125,172943.40625,0.06884765625,0.987060546875,-0.197509765625,-0.9155272841453552,0.0915527269244194,0.3662109076976776,100.0,135687.0,1.0
14:59:12.950888,176959.03125,183216.1875,196879.984375,175167.859375,174127.25,195336.015625,688409.5625,172940.28125,0.069580078125,0.986083984375,-0.19873046875,-0.8850097060203552,0.1831054538488388,0.3662109076976776,100.0,135688.0,1.0
14:59:12.950944,176923.90625,183204.65625,196864.875,175171.171875,174119.03125,195291.40625,688371.4375,172942.96875,0.070068359375,0.987548828125,-0.20166015625,-0.7934569716453552,0.1525878757238388,0.3356933295726776,100.0,135689.0,1.0
14:59:12.960420,176922.203125,183213.140625,196869.25,175174.109375,174123.140625,195290.234375,688317.4375,172945.109375,0.069580078125,0.987060546875,-0.20166015625,-0.7324218153953552,0.0915527269244194,0.3967284858226776,100.0,135690.0,1.0
14:59:12.968080,176987.734375,183218.0625,196883.734375,175166.609375,174125.90625,195327.078125,688377.8125,172940.1875,0.070068359375,0.98974609375,-0.201904296875,-0.6103515028953552,0.0915527269244194,0.4272460639476776,100.0,135691.0,1.0
14:59:12.968100,176974.765625,183232.8125,196889.828125,175172.0625,174137.796875,195351.84375,688415.625,172944.03125,0.0703125,0.98974609375,-0.19921875,-0.4882812201976776,0.0610351525247097,0.3967284858226776,100.0,135692.0,1.0
14:59:12.968107,176934.0,183214.484375,196872.828125,175169.203125,174129.84375,195308.03125,688358.6875,172944.21875,0.070068359375,0.99072265625,-0.19970703125,-0.3356933295726776,0.0610351525247097,0.3967284858226776,100.0,135693.0,1.0
14:59:12.972803,176913.171875,183209.296875,196866.484375,175168.578125,174125.8125,195286.03125,688318.8125,172943.59375,0.0693359375,0.99169921875,-0.203369140625,-0.3662109076976776,0.0610351525247097,0.3967284858226776,100.0,135694.0,1.0
14:59:12.975359,176977.1875,183218.6875,196881.0625,175164.90625,174129.21875,195324.390625,688350.8125,172944.65625,0.0703125,0.992919921875,-0.201904296875,-0.3662109076976776,0.0,0.3051757514476776,100.0,135695.0,1.0
14:59:12.979251,176978.34375,183226.46875,196888.5625,175164.546875,174136.015625,195352.375,688418.3125,172942.25,0.068115234375,0.99267578125,-0.198486328125,-0.3356933295726776,-0.0610351525247097,0.3051757514476776,100.0,135696.0,1.0
14:59:12.989572,176935.4375,183212.078125,196876.953125,175165.796875,174131.359375,195314.5625,688363.25,172943.140625,0.06884765625,0.99462890625,-0.197265625,-0.3967284858226776,-0.0610351525247097,0.2441406100988388,100.0,135697.0,1.0
14:59:12.989603,176908.796875,183202.140625,196868.28125,175166.15625,174124.65625,195281.296875,688343.4375,172940.90625,0.067626953125,0.993896484375,-0.197998046875,-0.5187987685203552,-0.0915527269244194,0.1831054538488388,100.0,135698.0,1.0
14:59:12.995860,176964.765625,183224.234375,196884.546875,175163.828125,174128.859375,195321.890625,688336.3125,172938.234375,0.069091796875,0.9951171875,-0.200439453125,-0.6408690810203552,0.0,0.2746581733226776,100.0,135699.0,1.0
14:59:12.995888,176988.984375,183233.265625,196896.890625,175167.40625,174138.96875,195358.375,688439.375,172940.109375,0.068359375,0.99462890625,-0.19775390625,-0.7324218153953552,0.0610351525247097,0.3356933295726776,100.0,135700.0,1.0
14:59:13.001537,176943.5625,183221.8125,196883.203125,175166.96875,174135.5625,195327.515625,688387.625,172941.09375,0.06787109375,0.99267578125,-0.197998046875,-0.7934569716453552,-0.03051757626235485,0.3356933295726776,100.0,135701.0,1.0
14:59:13.012214,176919.875,183244.4375,196878.015625,175168.03125,174133.78125,195304.09375,688368.875,172942.34375,0.070068359375,0.990478515625,-0.19873046875,-0.8850097060203552,-0.03051757626235485,0.3967284858226776,100.0,135702.0,1.0
14:59:13.012278,176963.78125,183232.546875,196891.25,175171.4375,174137.796875,195321.4375,688336.5,172948.234375,0.06787109375,0.990478515625,-0.19921875,-0.8850097060203552,-0.03051757626235485,0.3967284858226776,100.0,135703.0,1.0
14:59:13.018370,177003.03125,183224.046875,196901.796875,175174.296875,174144.234375,195353.984375,688448.6875,172951.640625,0.071533203125,0.9912109375,-0.20361328125,-0.9460448622703552,-0.0915527269244194,0.3967284858226776,100.0,135704.0,1.0
14:59:13.018423,176951.96875,183217.078125,196885.171875,175168.484375,174136.453125,195334.234375,688405.4375,172942.875,0.072509765625,0.9912109375,-0.203369140625,-0.9765624403953552,-0.0915527269244194,0.4272460639476776,100.0,135705.0,1.0
14:59:13.020915,176920.0625,183200.625,196868.90625,175165.796875,174124.5625,195283.359375,688369.1875,172940.015625,0.07470703125,0.990234375,-0.201171875,-0.9460448622703552,-0.1220703050494194,0.5798339247703552,100.0,135706.0,1.0
14:59:13.020967,176946.96875,183214.125,196881.234375,175171.34375,174130.203125,195303.390625,688324.75,172946.359375,0.074462890625,0.99267578125,-0.19921875,-0.9765624403953552,-0.03051757626235485,0.5187987685203552,100.0,135707.0,1.0
14:59:13.032781,176995.15625,183220.296875,196890.796875,175165.09375,174130.46875,195342.546875,688426.4375,172942.25,0.07373046875,0.99267578125,-0.201171875,-1.0375975370407104,0.0,0.6408690810203552,100.0,135708.0,1.0
14:59:13.035929,176950.546875,183215.375,196882.046875,175167.859375,174129.75,195335.75,688409.25,172941.53125,0.071533203125,0.990478515625,-0.202392578125,-1.0986326932907104,0.03051757626235485,0.6103515028953552,100.0,135709.0,1.0
14:59:13.035955,176920.40625,183201.796875,196867.015625,175170.453125,174119.46875,195286.75,688370.0,172942.078125,0.07177734375,0.98876953125,-0.203369140625,-1.2207030057907104,0.0915527269244194,0.6713866591453552,100.0,135710.0,1.0
14:59:13.041693,176939.71875,183216.453125,196880.34375,175178.671875,174128.40625,195296.953125,688315.125,172950.5625,0.071533203125,0.987548828125,-0.2001953125,-1.1901854276657104,0.2136230319738388,0.6713866591453552,100.0,135711.0,1.0
14:59:13.049816,177007.859375,183231.5625,196898.671875,175174.921875,174135.65625,195342.640625,688402.375,172950.203125,0.070068359375,0.98583984375,-0.203369140625,-1.2817381620407104,0.2136230319738388,0.6713866591453552,100.0,135712.0,1.0
14:59:13.049830,176968.78125,183229.234375,196890.09375,175169.828125,174134.046875,195345.578125,688409.625,172943.765625,0.06982421875,0.9873046875,-0.19970703125,-1.2207030057907104,0.2441406100988388,0.5798339247703552,100.0,135713.0,1.0
14:59:13.051535,176935.609375,183216.359375,196876.3125,175170.890625,174128.6875,195308.03125,688354.125,172945.828125,0.06787109375,0.988525390625,-0.20068359375,-1.2512205839157104,0.0915527269244194,0.5187987685203552,100.0,135714.0,1.0
14:59:13.062114,176933.828125,183215.828125,196879.1875,175176.078125,174131.453125,195297.484375,688309.1875,172948.953125,0.065673828125,0.991943359375,-0.2001953125,-1.3427733182907104,0.0915527269244194,0.3967284858226776,100.0,135715.0,1.0
14:59:13.062126,177000.4375,183225.296875,196893.390625,175168.65625,174132.078125,195331.8125,688397.625,172944.03125,0.066162109375,0.99169921875,-0.201904296875,-1.4343260526657104,0.1525878757238388,0.2746581733226776,100.0,135716.0,1.0
14:59:13.064089,176983.890625,183234.609375,196895.984375,175173.21875,174138.6875,195355.421875,688427.0625,172945.640625,0.066162109375,0.990234375,-0.200927734375,-1.4953612089157104,0.1831054538488388,0.2136230319738388,100.0,135717.0,1.0
14:59:13.070263,176943.5625,183216.625,196878.28125,175171.875,174128.5,195307.3125,688366.25,172946.09375,0.0654296875,0.990966796875,-0.20166015625,-1.5563963651657104,0.1525878757238388,0.0610351525247097,100.0,135718.0,1.0
14:59:13.074636,176923.1875,183213.0625,196871.84375,175170.1875,174124.484375,195287.296875,688323.0625,172944.75,0.06640625,0.9912109375,-0.200439453125,-1.5563963651657104,0.0610351525247097,0.0610351525247097,100.0,135719.0,1.0
14:59:13.074645,176988.1875,183229.59375,196888.390625,175167.59375,174129.75,195328.0625,688358.0625,172945.640625,0.067626953125,0.99169921875,-0.20361328125,-1.5869139432907104,0.1525878757238388,0.0610351525247097,100.0,135720.0,1.0
14:59:13.084730,176986.484375,183232.453125,196892.40625,175168.03125,174135.5625,195354.171875,688423.5625,172946.0,0.071533203125,0.989990234375,-0.202880859375,-1.5563963651657104,0.1831054538488388,0.0915527269244194,100.0,135721.0,1.0
14:59:13.084773,176940.796875,183214.9375,196875.96875,175168.9375,174127.34375,195312.953125,688368.375,172946.265625,0.0712890625,0.98974609375,-0.2041015625,-1.6479490995407104,0.1831054538488388,0.0,100.0,135722.0,1.0
14:59:13.088233,176915.140625,183207.328125,196868.28125,175167.5,174120.90625,195280.3125,688337.9375,172942.421875,0.072265625,0.989990234375,-0.2021484375,-1.6174315214157104,0.2746581733226776,0.1220703050494194,100.0,135723.0,1.0
14:59:13.096999,176966.640625,183216.625,196880.25,175161.15625,174121.796875,195311.875,688315.125,172938.671875,0.07275390625,0.989990234375,-0.20166015625,-1.6479490995407104,0.2136230319738388,0.1525878757238388,100.0,135724.0,1.0
14:59:13.099723,176987.203125,183233.890625,196891.515625,175164.640625,174130.921875,195353.09375,688389.625,172941.890625,0.071044921875,0.989501953125,-0.200927734375,-1.5869139432907104,0.2136230319738388,0.2441406100988388,100.0,135725.0,1.0
14:59:13.099782,176938.46875,183228.515625,196877.125,175163.390625,174125.375,195329.671875,688390.125,172941.171875,0.06982421875,0.99169921875,-0.20263671875,-1.5869139432907104,0.2136230319738388,0.2746581733226776,100.0,135726.0,1.0
14:59:13.106605,176907.0,183200.890625,196862.1875,175159.71875,174114.109375,195272.984375,688384.125,172937.15625,0.0693359375,0.993408203125,-0.202880859375,-1.6479490995407104,0.2441406100988388,0.3662109076976776,100.0,135727.0,1.0
14:59:13.117058,176947.6875,183209.84375,196872.390625,175158.109375,174117.328125,195298.734375,688294.5625,172937.6875,0.06787109375,0.99365234375,-0.20263671875,-1.7700194120407104,0.2746581733226776,0.4272460639476776,100.0,135728.0,1.0
14:59:13.117067,176984.34375,183218.953125,196881.421875,175158.46875,174122.515625,195340.3125,688409.6875,172937.78125,0.065185546875,0.9931640625,-0.202392578125,-1.8005369901657104,0.2441406100988388,0.4577636420726776,100.0,135729.0,1.0
14:59:13.119581,176938.5625,183213.0625,196870.515625,175161.953125,174120.546875,195325.015625,688362.125,172938.40625,0.064453125,0.99365234375,-0.2041015625,-1.8920897245407104,0.2136230319738388,0.5798339247703552,100.0,135730.0,1.0
14:59:13.119598,176908.609375,183200.8125,196857.09375,175165.359375,174111.875,195280.765625,688365.4375,172940.640625,0.066162109375,0.994140625,-0.20166015625,-2.044677495956421,0.1831054538488388,0.5187987685203552,100.0,135731.0,1.0
14:59:13.129124,176938.46875,183218.6875,196872.03125,175174.296875,174121.625,195305.34375,688299.5,172949.578125,0.06640625,0.9931640625,-0.2041015625,-2.105712652206421,0.2441406100988388,0.6103515028953552,100.0,135732.0,1.0
14:59:13.133331,176991.3125,183225.578125,196884.09375,175167.328125,174126.09375,195348.984375,688424.0,172946.71875,0.067138671875,0.994140625,-0.201904296875,-2.166747808456421,0.2136230319738388,0.6713866591453552,100.0,135733.0,1.0
14:59:13.133343,176947.859375,183220.03125,196874.984375,175164.90625,174126.0,195342.09375,688398.625,172941.71875,0.067138671875,0.994140625,-0.203369140625,-2.197265386581421,0.1831054538488388,0.7324218153953552,100.0,135734.0,1.0
14:59:13.143353,176919.515625,183209.125,196863.71875,175168.21875,174120.359375,195297.296875,688360.0,172944.390625,0.06494140625,0.994140625,-0.20263671875,-2.319335699081421,0.03051757626235485,0.6713866591453552,100.0,135735.0,1.0
14:59:13.143372,176930.515625,183209.484375,196871.5,175172.78125,174125.015625,195300.609375,688311.0,172947.96875,0.06640625,0.9931640625,-0.200439453125,-2.441406011581421,0.0,0.5798339247703552,100.0,135736.0,1.0
14:59:13.145389,176998.46875,183224.234375,196890.359375,175170.890625,174133.859375,195350.234375,688414.0,172948.78125,0.06591796875,0.994384765625,-0.20068359375,-2.502441167831421,-0.0610351525247097,0.7629393935203552,100.0,135737.0,1.0
14:59:13.159016,176963.515625,183227.09375,196886.15625,175167.671875,174135.5625,195360.25,688438.5625,172944.484375,0.06689453125,0.994140625,-0.197998046875,-2.593993902206421,-0.1220703050494194,0.7019042372703552,100.0,135738.0,1.0
14:59:13.159062,176926.046875,183204.390625,196868.453125,175166.96875,174123.234375,195305.703125,688372.875,172943.5,0.065673828125,0.99365234375,-0.197265625,-2.655029058456421,-0.1220703050494194,0.7019042372703552,100.0,135739.0,1.0
14:59:13.159076,176924.53125,183210.1875,196873.1875,175176.078125,174126.796875,195301.59375,688329.125,172951.09375,0.065673828125,0.990966796875,-0.19873046875,-2.746581792831421,-0.1525878757238388,0.6408690810203552,100.0,135740.0,1.0
14:59:13.164550,176987.921875,183221.1875,196883.203125,175166.515625,174124.203125,195347.8125,688406.5625,172943.6875,0.067138671875,0.990966796875,-0.197998046875,-2.777099370956421,-0.1220703050494194,0.6408690810203552,100.0,135741.0,1.0
14:59:13.164557,176969.3125,183230.578125,196882.75,175163.5625,174128.765625,195368.375,688466.1875,172939.390625,0.066650390625,0.990478515625,-0.196533203125,-2.777099370956421,-0.1525878757238388,0.5187987685203552,100.0,135742.0,1.0
14:59:13.191641,176926.84375,183197.234375,196863.984375,175162.671875,174115.8125,195299.1875,688402.3125,172939.5625,0.067626953125,0.990478515625,-0.199951171875,-2.777099370956421,-0.1831054538488388,0.3967284858226776,100.0,135743.0,1.0
14:59:13.222874,176906.28125,183197.40625,196857.546875,175163.828125,174111.328125,195281.203125,688342.5,172937.59375,0.069091796875,0.98779296875,-0.19921875,-2.746581792831421,0.0,0.5187987685203552,100.0,135744.0,1.0
14:59:13.240308,176974.0625,183207.515625,196874.4375,175161.234375,174117.59375,195322.875,688408.75,172940.1875,0.06982421875,0.989013671875,-0.19677734375,-2.746581792831421,-0.0610351525247097,0.5493163466453552,100.0,135745.0,1.0
14:59:13.242821,176975.75,183220.65625,196883.65625,175163.390625,174126.890625,195356.40625,688494.75,172941.796875,0.07177734375,0.98828125,-0.197265625,-2.746581792831421,-0.03051757626235485,0.6103515028953552,100.0,135746.0,1.0
14:59:13.245282,176932.84375,183207.515625,196870.234375,175166.875,174122.25,195317.328125,688430.5625,172942.96875,0.072509765625,0.988525390625,-0.199951171875,-2.685546636581421,0.0,0.6713866591453552,100.0,135747.0,1.0
14:59:13.247948,176912.8125,183199.28125,196868.359375,175176.078125,174122.6875,195287.640625,688372.0625,172949.21875,0.07275390625,0.989013671875,-0.19921875,-2.655029058456421,0.03051757626235485,0.7934569716453552,100.0,135748.0,1.0
14:59:13.250254,176973.796875,183216.90625,196887.234375,175177.421875,174128.765625,195323.40625,688402.125,172952.890625,0.07275390625,0.990966796875,-0.19970703125,-2.563476324081421,0.0610351525247097,0.5798339247703552,100.0,135749.0,1.0
14:59:13.252906,176987.296875,183219.9375,196888.125,175164.90625,174127.421875,195353.359375,688500.9375,172942.078125,0.072509765625,0.98876953125,-0.19775390625,-2.502441167831421,0.1831054538488388,0.5187987685203552,100.0,135750.0,1.0
14:59:13.255324,176942.140625,183212.875,196876.59375,175166.0625,174126.09375,195327.796875,688457.75,172943.5,0.0693359375,0.987548828125,-0.19677734375,-2.563476324081421,0.03051757626235485,0.4577636420726776,100.0,135751.0,1.0
14:59:13.261477,176918.71875,183207.15625,196870.0625,175170.09375,174125.375,195292.921875,688384.5625,172946.265625,0.068115234375,0.985595703125,-0.19482421875,-2.380370855331421,0.1525878757238388,0.4272460639476776,100.0,135752.0,1.0
14:59:13.261532,176967.0,183222.0,196888.390625,175176.703125,174135.390625,195324.578125,688379.3125,172952.0,0.06787109375,0.98779296875,-0.1943359375,-2.319335699081421,0.1525878757238388,0.4882812201976776,100.0,135753.0,1.0
14:59:13.261557,177005.703125,183231.390625,196898.5,175174.03125,174138.421875,195364.890625,688495.75,172949.578125,0.0673828125,0.987548828125,-0.19677734375,-2.288818120956421,0.0915527269244194,0.3662109076976776,100.0,135754.0,1.0
14:59:13.261578,176960.203125,183226.015625,196889.640625,175177.421875,174137.625,195350.328125,688504.3125,172952.265625,0.068359375,0.989501953125,-0.1962890625,-2.258300542831421,0.1525878757238388,0.3662109076976776,100.0,135755.0,1.0
14:59:13.261598,176928.90625,183215.109375,196877.578125,175178.40625,174130.5625,195305.703125,688429.75,172952.171875,0.06689453125,0.988037109375,-0.19384765625,-2.258300542831421,0.2136230319738388,0.2441406100988388,100.0,135756.0,1.0
14:59:13.263389,176956.796875,183229.953125,196890.71875,175182.96875,174136.28125,195326.1875,688391.1875,172956.46875,0.0654296875,0.988525390625,-0.1962890625,-2.166747808456421,0.1220703050494194,0.2441406100988388,100.0,135757.0,1.0
14:59:13.263443,177009.015625,183237.640625,196901.796875,175179.75,174138.34375,195365.703125,688484.1875,172954.953125,0.064453125,0.989013671875,-0.19384765625,-2.197265386581421,0.0915527269244194,0.2746581733226776,100.0,135758.0,1.0
14:59:13.266655,176965.46875,183236.5625,196893.484375,175182.703125,174138.15625,195359.4375,688496.4375,172953.875,0.06591796875,0.989013671875,-0.19580078125,-2.197265386581421,-0.03051757626235485,0.2136230319738388,100.0,135759.0,1.0
14:59:13.266712,176924.265625,183212.4375,196870.421875,175170.359375,174121.078125,195301.0625,688412.5625,172944.65625,0.0654296875,0.989013671875,-0.195068359375,-2.166747808456421,-0.1831054538488388,0.1831054538488388,100.0,135760.0,1.0
14:59:13.266737,176928.015625,183218.59375,196870.953125,175165.984375,174120.8125,195307.859375,688361.5,172941.796875,0.0634765625,0.989990234375,-0.19384765625,-2.197265386581421,-0.1220703050494194,0.1525878757238388,100.0,135761.0,1.0
14:59:13.271606,176991.3125,183222.53125,196884.90625,175162.21875,174123.765625,195349.0625,688462.75,172940.640625,0.0654296875,0.990234375,-0.19775390625,-2.166747808456421,-0.0915527269244194,0.2136230319738388,100.0,135762.0,1.0
14:59:13.274624,176962.078125,183228.796875,196884.71875,175167.046875,174129.75,195351.03125,688490.875,172942.875,0.06640625,0.990478515625,-0.196044921875,-2.136230230331421,-0.0610351525247097,0.1220703050494194,100.0,135763.0,1.0
14:59:13.274678,176922.203125,183202.5,196865.59375,175165.359375,174116.34375,195296.40625,688406.875,172940.546875,0.066162109375,0.98876953125,-0.196533203125,-2.105712652206421,-0.0915527269244194,0.3051757514476776,100.0,135764.0,1.0
14:59:13.276663,176912.90625,183203.21875,196863.796875,175163.75,174113.578125,195289.609375,688344.6875,172938.859375,0.065673828125,0.98828125,-0.19580078125,-2.044677495956421,-0.1220703050494194,0.2441406100988388,100.0,135765.0,1.0
14:59:13.279718,176981.296875,183215.828125,196878.5625,175159.546875,174116.875,195331.375,688415.625,172938.046875,0.065185546875,0.990478515625,-0.1953125,-2.136230230331421,-0.1525878757238388,0.2441406100988388,100.0,135766.0,1.0
14:59:13.279775,176973.078125,183232.8125,196888.921875,175171.703125,174131.359375,195359.796875,688476.75,172947.875,0.063720703125,0.98974609375,-0.19384765625,-2.075195074081421,-0.1831054538488388,0.4577636420726776,100.0,135767.0,1.0
14:59:13.281625,176933.46875,183213.953125,196874.71875,175174.109375,174123.046875,195312.328125,688405.25,172950.828125,0.064453125,0.992431640625,-0.193359375,-2.044677495956421,-0.1831054538488388,0.4577636420726776,100.0,135768.0,1.0
14:59:13.284061,176915.046875,183204.296875,196869.078125,175172.328125,174118.578125,195287.46875,688344.625,172948.328125,0.065673828125,0.9892578125,-0.19287109375,-1.9836424589157104,-0.2441406100988388,0.5187987685203552,100.0,135769.0,1.0
14:59:13.286711,176982.015625,183214.3125,196884.09375,175167.59375,174122.328125,195325.5625,688379.75,172945.828125,0.063720703125,0.98974609375,-0.1953125,-1.8920897245407104,-0.1831054538488388,0.4882812201976776,100.0,135770.0,1.0
14:59:13.289548,176988.09375,183229.859375,196894.65625,175171.4375,174134.140625,195360.421875,688456.0,172949.21875,0.067138671875,0.990234375,-0.194091796875,-1.8310545682907104,-0.2136230319738388,0.5798339247703552,100.0,135771.0,1.0
14:59:13.289563,176943.296875,183211.359375,196876.40625,175168.65625,174123.234375,195318.046875,688388.8125,172946.265625,0.06787109375,0.9892578125,-0.192626953125,-1.8005369901657104,-0.2746581733226776,0.6103515028953552,100.0,135772.0,1.0
14:59:13.291564,176916.921875,183198.21875,196864.703125,175167.5,174115.453125,195281.03125,688343.1875,172943.40625,0.0654296875,0.989501953125,-0.19482421875,-1.8615721464157104,-0.3051757514476776,0.7324218153953552,100.0,135773.0,1.0
14:59:13.295856,176977.28125,183217.078125,196882.578125,175168.390625,174121.796875,195314.015625,688353.75,172947.171875,0.066162109375,0.989501953125,-0.193603515625,-1.8920897245407104,-0.2746581733226776,0.7934569716453552,100.0,135774.0,1.0
14:59:13.295887,176995.78125,183231.390625,196891.15625,175167.859375,174128.234375,195355.328125,688445.9375,172946.546875,0.068115234375,0.991455078125,-0.19287109375,-1.7700194120407104,-0.3662109076976776,0.7934569716453552,100.0,135775.0,1.0
14:59:13.305811,176950.359375,183219.84375,196878.734375,175170.265625,174124.203125,195326.984375,688399.6875,172948.953125,0.06640625,0.991943359375,-0.196044921875,-1.8310545682907104,-0.3662109076976776,0.7629393935203552,100.0,135776.0,1.0
14:59:13.305821,176919.15625,183203.75,196864.78125,175167.859375,174115.09375,195284.15625,688354.125,172945.203125,0.06689453125,0.990234375,-0.1953125,-1.6784666776657104,-0.3662109076976776,0.9460448622703552,100.0,135777.0,1.0
14:59:13.308403,176957.078125,183216.453125,196876.234375,175166.421875,174117.5,195309.90625,688342.8125,172946.453125,0.0693359375,0.990966796875,-0.196044921875,-1.6784666776657104,-0.4272460639476776,0.9765624403953552,100.0,135778.0,1.0
14:59:13.308407,176995.96875,183235.5,196890.453125,175167.765625,174125.546875,195360.609375,688458.875,172947.4375,0.069091796875,0.98974609375,-0.192138671875,-1.7395018339157104,-0.3356933295726776,0.9460448622703552,100.0,135779.0,1.0
14:59:13.317780,176951.4375,183223.34375,196881.0625,175170.984375,174125.28125,195340.75,688423.5625,172949.671875,0.070068359375,0.990478515625,-0.194091796875,-1.7700194120407104,-0.2441406100988388,0.9460448622703552,100.0,135780.0,1.0
14:59:13.322095,176918.796875,183203.671875,196866.390625,175170.0,174115.265625,195285.765625,688370.375,172948.78125,0.071044921875,0.990234375,-0.194091796875,-1.7700194120407104,-0.2136230319738388,0.9460448622703552,100.0,135781.0,1.0
14:59:13.322109,176939.640625,183215.109375,196872.828125,175163.828125,174114.109375,195303.921875,688330.9375,172943.5,0.07080078125,0.991455078125,-0.1943359375,-1.7089842557907104,-0.1220703050494194,0.8850097060203552,100.0,135782.0,1.0
14:59:13.324077,176996.59375,183227.09375,196888.390625,175164.640625,174122.59375,195350.046875,688451.9375,172947.4375,0.0703125,0.990478515625,-0.197998046875,-1.6479490995407104,-0.0610351525247097,0.9155272841453552,100.0,135783.0,1.0
14:59:13.330302,176955.46875,183225.21875,196882.484375,175170.625,174127.515625,195345.84375,688450.375,172950.65625,0.070068359375,0.99072265625,-0.194091796875,-1.6784666776657104,-0.0915527269244194,0.9460448622703552,100.0,135784.0,1.0
14:59:13.340392,176915.671875,183199.46875,196862.015625,175163.5625,174113.75,195286.125,688390.5,172946.359375,0.070556640625,0.98974609375,-0.195068359375,-1.6479490995407104,0.03051757626235485,0.9460448622703552,100.0,135785.0,1.0
14:59:13.344678,176926.046875,183209.390625,196868.625,175166.515625,174118.40625,195294.625,688351.625,172950.65625,0.07177734375,0.989013671875,-0.194580078125,-1.5258787870407104,0.0,1.0681151151657104,100.0,135786.0,1.0
14:59:13.344699,176988.1875,183217.078125,196880.171875,175159.359375,174118.484375,195334.859375,688451.3125,172946.453125,0.072998046875,0.98876953125,-0.1953125,-1.5563963651657104,0.03051757626235485,0.9765624403953552,100.0,135787.0,1.0
14:59:13.346551,176954.203125,183216.453125,196874.4375,175158.015625,174117.328125,195340.3125,688480.8125,172940.46875,0.07373046875,0.9892578125,-0.2001953125,-1.4648436307907104,0.0610351525247097,1.0070799589157104,100.0,135788.0,1.0
14:59:13.354383,176923.09375,183208.234375,196863.09375,175161.59375,174109.8125,195302.21875,688405.4375,172940.28125,0.072021484375,0.98828125,-0.196533203125,-1.4953612089157104,0.1831054538488388,0.9155272841453552,100.0,135789.0,1.0
14:59:13.364727,176918.265625,183204.5625,196865.59375,175161.953125,174109.1875,195288.71875,688359.625,172941.53125,0.07275390625,0.988525390625,-0.19970703125,-1.4343260526657104,0.1831054538488388,0.9155272841453552,100.0,135790.0,1.0
14:59:13.364820,176987.296875,183216.28125,196880.96875,175159.546875,174110.625,195323.859375,688452.0625,172941.265625,0.072509765625,0.98828125,-0.19921875,-1.3732908964157104,0.2136230319738388,0.9155272841453552,100.0,135791.0,1.0
14:59:13.377151,176972.453125,183227.984375,196886.328125,175164.1875,174121.171875,195349.609375,688505.375,172943.328125,0.072265625,0.98828125,-0.198974609375,-1.4038084745407104,0.3662109076976776,0.9460448622703552,100.0,135792.0,1.0
14:59:13.377227,176933.828125,183211.359375,196873.453125,175168.3125,174115.09375,195307.140625,688430.1875,172946.71875,0.070556640625,0.988525390625,-0.197509765625,-1.4038084745407104,0.3967284858226776,0.8239745497703552,100.0,135793.0,1.0
14:59:13.381613,176920.59375,183207.78125,196873.109375,175175.375,174117.765625,195294.890625,688370.9375,172952.0,0.070068359375,0.989501953125,-0.196044921875,-1.4038084745407104,0.4272460639476776,0.8544921278953552,100.0,135794.0,1.0
14:59:13.384101,176985.234375,183215.375,196885.4375,175170.265625,174117.59375,195316.53125,688434.5625,172950.03125,0.070556640625,0.9921875,-0.196044921875,-1.1901854276657104,0.4882812201976776,0.7629393935203552,100.0,135795.0,1.0
14:59:13.386613,176990.859375,183230.40625,196896.796875,175178.3125,174130.640625,195354.4375,688517.25,172955.921875,0.070068359375,0.990966796875,-0.193359375,-1.2817381620407104,0.4882812201976776,0.7934569716453552,100.0,135796.0,1.0
14:59:13.389637,176947.953125,183218.515625,196881.234375,175178.59375,174122.25,195319.296875,688445.75,172955.125,0.07275390625,0.990478515625,-0.19287109375,-1.2512205839157104,0.4882812201976776,0.8239745497703552,100.0,135797.0,1.0
14:59:13.391545,176922.921875,183212.34375,196872.296875,175179.921875,174115.359375,195287.203125,688374.125,172954.953125,0.072021484375,0.988037109375,-0.196533203125,-1.2817381620407104,0.4882812201976776,0.7019042372703552,100.0,135798.0,1.0
14:59:13.394677,176982.109375,183227.984375,196890.796875,175180.109375,174122.875,195324.84375,688398.4375,172956.828125,0.070068359375,0.990234375,-0.19970703125,-1.4038084745407104,0.6103515028953552,0.7324218153953552,100.0,135799.0,1.0
14:59:13.394727,176998.734375,183238.359375,196898.9375,175176.0,174129.3125,195363.546875,688497.3125,172953.0625,0.068603515625,0.990966796875,-0.198974609375,-1.3427733182907104,0.5493163466453552,0.5798339247703552,100.0,135800.0,1.0
14:59:13.400323,176951.53125,183219.140625,196884.546875,175177.15625,174125.28125,195330.921875,688447.25,172952.171875,0.068603515625,0.989013671875,-0.194580078125,-1.3427733182907104,0.5493163466453552,0.6713866591453552,100.0,135801.0,1.0
14:59:13.411031,176928.1875,183216.09375,196878.5625,175184.75,174125.375,195296.953125,688383.625,172957.71875,0.067138671875,0.98876953125,-0.197509765625,-1.3122557401657104,0.5798339247703552,0.7324218153953552,100.0,135802.0,1.0
14:59:13.411113,176966.015625,183222.09375,196885.0,175179.921875,174125.734375,195316.078125,688371.0625,172956.28125,0.06982421875,0.987548828125,-0.198486328125,-1.3732908964157104,0.4882812201976776,0.7629393935203552,100.0,135803.0,1.0
14:59:13.412949,177000.34375,183231.109375,196892.328125,175173.40625,174128.5,195358.375,688476.25,172952.703125,0.070068359375,0.987060546875,-0.197998046875,-1.2207030057907104,0.5798339247703552,0.6713866591453552,100.0,135804.0,1.0
14:59:13.421546,176952.78125,183223.78125,196881.59375,175175.1875,174126.71875,195338.78125,688448.1875,172952.078125,0.069580078125,0.98779296875,-0.19873046875,-1.3122557401657104,0.6408690810203552,0.6713866591453552,100.0,135805.0,1.0
14:59:13.421636,176918.171875,183204.5625,196862.8125,175173.578125,174114.109375,195288.546875,688382.6875,172948.859375,0.068359375,0.990966796875,-0.196533203125,-1.2207030057907104,0.5798339247703552,0.6713866591453552,100.0,135806.0,1.0
14:59:13.427168,176939.015625,183206.890625,196868.09375,175173.765625,174112.765625,195299.8125,688349.875,172949.40625,0.0673828125,0.99169921875,-0.19580078125,-1.2207030057907104,0.5493163466453552,0.7324218153953552,100.0,135807.0,1.0
14:59:13.427227,176995.0625,183220.03125,196883.65625,175170.265625,174118.9375,195348.265625,688466.0625,172950.03125,0.066650390625,0.990478515625,-0.197021484375,-1.3122557401657104,0.4272460639476776,0.7629393935203552,100.0,135808.0,1.0
14:59:13.432880,176954.390625,183216.1875,196878.90625,175173.21875,174122.59375,195344.328125,688452.4375,172951.546875,0.06640625,0.989990234375,-0.197265625,-1.3122557401657104,0.5187987685203552,0.7019042372703552,100.0,135809.0,1.0
14:59:13.437596,176913.96875,183192.3125,196855.75,175166.25,174105.53125,195286.484375,688384.0625,172944.578125,0.068115234375,0.99072265625,-0.19775390625,-1.2512205839157104,0.5798339247703552,0.7934569716453552,100.0,135810.0,1.0
14:59:13.437654,176921.578125,183199.109375,196859.421875,175165.890625,174106.59375,195292.203125,688335.125,172943.6875,0.0673828125,0.992431640625,-0.195556640625,-1.2207030057907104,0.5493163466453552,0.7934569716453552,100.0,135811.0,1.0
14:59:13.452193,176987.375,183212.078125,196878.640625,175164.453125,174113.75,195335.84375,688442.875,172945.5625,0.069091796875,0.98974609375,-0.197265625,-1.2817381620407104,0.4272460639476776,0.7019042372703552,100.0,135812.0,1.0
14:59:13.452244,176960.015625,183219.5,196881.140625,175171.4375,174122.515625,195349.25,688448.1875,172949.140625,0.068115234375,0.990478515625,-0.19921875,-1.3732908964157104,0.3967284858226776,0.7934569716453552,100.0,135813.0,1.0
14:59:13.454035,176934.453125,183220.5625,196874.265625,175179.75,174120.90625,195316.96875,688384.875,172957.09375,0.070068359375,0.99169921875,-0.19873046875,-1.2817381620407104,0.3356933295726776,0.8239745497703552,100.0,135814.0,1.0
14:59:13.456545,176931.859375,183222.71875,196876.234375,175183.5,174121.703125,195304.71875,688340.3125,172958.609375,0.069091796875,0.99267578125,-0.19921875,-1.2817381620407104,0.3356933295726776,1.0070799589157104,100.0,135815.0,1.0
14:59:13.458996,177001.6875,183223.875,196892.234375,175182.609375,174126.359375,195336.734375,688411.125,172959.953125,0.069091796875,0.9921875,-0.198486328125,-1.4038084745407104,0.3051757514476776,1.0070799589157104,100.0,135816.0,1.0
14:59:13.470308,176984.34375,183232.28125,196894.015625,175184.75,174133.328125,195362.75,688459.75,172958.796875,0.068359375,0.99169921875,-0.197998046875,-1.4038084745407104,0.2441406100988388,0.9765624403953552,100.0,135817.0,1.0
14:59:13.473325,176943.390625,183213.5,196876.5,175184.75,174122.421875,195313.671875,688387.25,172954.953125,0.069091796875,0.9931640625,-0.19775390625,-1.4648436307907104,0.2136230319738388,0.9460448622703552,100.0,135818.0,1.0
14:59:13.473329,176926.40625,183212.875,196872.46875,175185.109375,174118.671875,195295.0625,688329.875,172953.34375,0.06884765625,0.9921875,-0.197021484375,-1.5258787870407104,0.3051757514476776,0.9460448622703552,100.0,135819.0,1.0
14:59:13.473331,176996.140625,183227.1875,196892.6875,175186.359375,174126.984375,195338.4375,688375.8125,172959.5,0.068359375,0.991943359375,-0.196044921875,-1.5563963651657104,0.2441406100988388,1.0070799589157104,100.0,135820.0,1.0
14:59:13.479022,176995.78125,183240.234375,196896.34375,175185.921875,174132.96875,195373.75,688451.0,172958.515625,0.068603515625,0.99169921875,-0.19580078125,-1.5563963651657104,0.1525878757238388,1.0375975370407104,100.0,135821.0,1.0
14:59:13.489567,176948.671875,183222.984375,196877.578125,175181.71875,174123.40625,195330.203125,688397.625,172954.5,0.069580078125,0.991455078125,-0.198974609375,-1.5258787870407104,0.1831054538488388,0.9155272841453552,100.0,135822.0,1.0
14:59:13.489582,176914.609375,183199.203125,196859.59375,175172.859375,174107.21875,195279.875,688356.0625,172945.015625,0.06982421875,0.990234375,-0.197265625,-1.6784666776657104,0.0915527269244194,1.0070799589157104,100.0,135823.0,1.0
14:59:13.491507,176965.65625,183209.296875,196872.75,175168.21875,174108.390625,195311.609375,688359.375,172944.21875,0.0703125,0.990966796875,-0.197509765625,-1.7089842557907104,0.0610351525247097,0.9460448622703552,100.0,135824.0,1.0
14:59:13.494195,176990.0625,183226.203125,196888.125,175173.21875,174122.0625,195356.765625,688460.375,172948.328125,0.0712890625,0.989990234375,-0.193603515625,-1.7700194120407104,0.03051757626235485,0.9460448622703552,100.0,135825.0,1.0
14:59:13.504109,176948.75,183219.21875,196879.359375,175181.171875,174122.328125,195331.8125,688403.75,172952.4375,0.070068359375,0.989990234375,-0.196044921875,-1.7395018339157104,-0.03051757626235485,0.8850097060203552,100.0,135826.0,1.0
14:59:13.508339,176921.390625,183209.03125,196867.734375,175182.34375,174115.359375,195287.640625,688359.0,172952.171875,0.069580078125,0.9921875,-0.199951171875,-1.6784666776657104,0.0,0.9460448622703552,100.0,135827.0,1.0
14:59:13.508348,176962.703125,183219.84375,196878.734375,175178.140625,174118.671875,195312.59375,688330.5625,172953.515625,0.071044921875,0.99072265625,-0.197265625,-1.8310545682907104,0.0,0.8544921278953552,100.0,135828.0,1.0
14:59:13.514127,176999.8125,183229.859375,196889.734375,175174.109375,174124.65625,195354.078125,688438.9375,172952.265625,0.072509765625,0.9892578125,-0.197998046875,-1.7089842557907104,-0.1220703050494194,0.8850097060203552,100.0,135829.0,1.0
14:59:13.522146,176953.40625,183229.234375,196882.84375,175174.75,174127.703125,195342.546875,688412.0625,172953.875,0.072509765625,0.98974609375,-0.19775390625,-1.6479490995407104,-0.0915527269244194,0.9155272841453552,100.0,135830.0,1.0
14:59:13.522183,176918.359375,183211.796875,196866.484375,175170.890625,174118.125,195291.046875,688370.625,172951.375,0.0703125,0.9892578125,-0.197509765625,-1.6784666776657104,-0.0915527269244194,0.8850097060203552,100.0,135831.0,1.0
14:59:13.524585,176940.078125,183215.109375,196873.453125,175170.546875,174119.734375,195303.03125,688328.0625,172951.375,0.0712890625,0.9892578125,-0.198974609375,-1.6479490995407104,-0.0610351525247097,0.8239745497703552,100.0,135832.0,1.0
14:59:13.524597,176995.875,183226.46875,196887.9375,175168.65625,174124.390625,195347.8125,688449.75,172951.015625,0.071533203125,0.9892578125,-0.195556640625,-1.6174315214157104,-0.0915527269244194,0.7934569716453552,100.0,135833.0,1.0
14:59:13.536576,176960.640625,183228.796875,196883.734375,175176.078125,174128.40625,195345.40625,688432.75,172955.03125,0.072021484375,0.988525390625,-0.19677734375,-1.6784666776657104,-0.0610351525247097,0.7019042372703552,100.0,135834.0,1.0
14:59:13.539655,176924.34375,183210.015625,196865.5,175173.84375,174116.4375,195292.5625,688372.9375,172953.34375,0.072265625,0.989990234375,-0.198486328125,-1.6479490995407104,-0.03051757626235485,0.6713866591453552,100.0,135835.0,1.0
14:59:13.539676,176929.4375,183213.328125,196868.0,175171.796875,174115.625,195292.921875,688320.75,172950.75,0.07080078125,0.98974609375,-0.1982421875,-1.7089842557907104,-0.03051757626235485,0.7019042372703552,100.0,135836.0,1.0
14:59:13.541533,176999.8125,183231.390625,196888.03125,175170.0,174123.9375,195344.421875,688428.6875,172954.953125,0.072265625,0.99072265625,-0.19775390625,-1.6174315214157104,0.0,0.7324218153953552,100.0,135837.0,1.0
14:59:13.548968,176962.703125,183238.453125,196881.6875,175168.125,174125.1875,195355.953125,688431.875,172950.828125,0.072021484375,0.989990234375,-0.19775390625,-1.5869139432907104,0.0,0.6103515028953552,100.0,135838.0,1.0
14:59:13.595938,176917.734375,183201.96875,196857.984375,175163.296875,174107.765625,195290.859375,688374.125,172945.640625,0.072265625,0.98876953125,-0.19873046875,-1.5258787870407104,-0.03051757626235485,0.5798339247703552,100.0,135839.0,1.0
14:59:13.595952,176913.625,183203.9375,196859.78125,175167.140625,174107.3125,195282.8125,688325.25,172947.796875,0.073486328125,0.990478515625,-0.2001953125,-1.5563963651657104,-0.1220703050494194,0.5798339247703552,100.0,135840.0,1.0
14:59:13.598335,176983.171875,183218.515625,196874.71875,175163.828125,174108.390625,195325.109375,688388.5,172945.46875,0.071044921875,0.990234375,-0.1962890625,-1.4648436307907104,-0.03051757626235485,0.6713866591453552,100.0,135841.0,1.0
14:59:13.598351,176972.71875,183226.5625,196879.453125,175169.109375,174116.15625,195345.140625,688431.375,172949.484375,0.07080078125,0.990478515625,-0.19580078125,-1.5563963651657104,0.0,0.5798339247703552,100.0,135842.0,1.0
14:59:13.600833,176933.5625,183205.09375,196864.25,175170.0,174106.0625,195296.40625,688377.25,172949.765625,0.0703125,0.98974609375,-0.195556640625,-1.6174315214157104,0.0915527269244194,0.5187987685203552,100.0,135843.0,1.0
14:59:13.600847,176920.140625,183205.359375,196862.640625,175170.359375,174104.453125,195278.796875,688344.0,172948.6875,0.07177734375,0.989501953125,-0.1962890625,-1.5258787870407104,0.0,0.4577636420726776,100.0,135844.0,1.0
14:59:13.600851,176992.65625,183224.328125,196883.390625,175171.34375,174113.296875,195322.96875,688386.8125,172953.15625,0.071044921875,0.9921875,-0.1943359375,-1.5258787870407104,0.0610351525247097,0.5187987685203552,100.0,135845.0,1.0
14:59:13.604611,176993.453125,183230.125,196890.171875,175176.265625,174122.59375,195353.71875,688465.75,172956.28125,0.07080078125,0.9892578125,-0.196044921875,-1.4343260526657104,0.0610351525247097,0.5798339247703552,100.0,135846.0,1.0
14:59:13.604620,176951.703125,183219.21875,196876.59375,175177.6875,174118.21875,195319.203125,688403.875,172955.921875,0.0703125,0.989013671875,-0.196044921875,-1.4648436307907104,0.1220703050494194,0.6103515028953552,100.0,135847.0,1.0
14:59:13.604623,176929.625,183217.703125,196871.3125,175178.59375,174116.96875,195293.28125,688360.4375,172957.265625,0.071533203125,0.989013671875,-0.1962890625,-1.4953612089157104,0.0915527269244194,0.5493163466453552,100.0,135848.0,1.0
14:59:13.604626,176985.859375,183233.703125,196888.75,175179.921875,174124.390625,195331.546875,688382.875,172961.65625,0.070556640625,0.99169921875,-0.19482421875,-1.4953612089157104,0.1220703050494194,0.4577636420726776,100.0,135849.0,1.0
14:59:13.606522,177002.484375,183242.03125,196896.265625,175178.5,174129.390625,195366.953125,688472.75,172961.296875,0.07080078125,0.9921875,-0.196044921875,-1.4343260526657104,0.1525878757238388,0.4577636420726776,100.0,135850.0,1.0
14:59:13.609014,176953.3125,183225.296875,196881.59375,175179.03125,174123.671875,195335.484375,688409.0625,172958.515625,0.06982421875,0.99072265625,-0.196044921875,-1.4953612089157104,0.1220703050494194,0.6103515028953552,100.0,135851.0,1.0
14:59:13.611508,176918.984375,183205.90625,196864.421875,175174.109375,174111.0625,195287.734375,688366.25,172951.375,0.06982421875,0.99169921875,-0.196044921875,-1.4343260526657104,0.0915527269244194,0.6408690810203552,100.0,135852.0,1.0
14:59:13.614081,176955.640625,183217.609375,196872.921875,175167.59375,174111.25,195313.9375,688323.1875,172946.359375,0.0693359375,0.990234375,-0.20068359375,-1.4953612089157104,0.1831054538488388,0.5493163466453552,100.0,135853.0,1.0
14:59:13.617220,176999.09375,183240.140625,196889.828125,175168.3125,174123.3125,195368.46875,688429.1875,172949.765625,0.06884765625,0.9912109375,-0.1953125,-1.5563963651657104,0.1220703050494194,0.6713866591453552,100.0,135854.0,1.0
14:59:13.617231,176952.328125,183216.0,196876.765625,175168.21875,174118.75,195331.90625,688391.5625,172950.125,0.069091796875,0.99169921875,-0.197265625,-1.5869139432907104,0.1831054538488388,0.7324218153953552,100.0,135855.0,1.0
14:59:13.618996,176918.171875,183201.703125,196861.125,175167.765625,174109.015625,195285.234375,688358.5625,172947.96875,0.07177734375,0.991943359375,-0.1953125,-1.6174315214157104,0.1831054538488388,0.7019042372703552,100.0,135856.0,1.0
14:59:13.625416,176939.71875,183208.671875,196866.84375,175166.421875,174110.53125,195298.828125,688318.5,172946.90625,0.072265625,0.98974609375,-0.196044921875,-1.5563963651657104,0.1831054538488388,0.7629393935203552,100.0,135857.0,1.0
14:59:13.632215,176992.65625,183219.765625,196878.640625,175160.34375,174114.375,195344.421875,688443.625,172943.140625,0.0712890625,0.990478515625,-0.1953125,-1.4953612089157104,0.2746581733226776,0.6713866591453552,100.0,135858.0,1.0
14:59:13.632228,176948.3125,183213.765625,196868.90625,175159.1875,174112.59375,195337.09375,688416.125,172940.375,0.07080078125,0.989501953125,-0.192626953125,-1.5258787870407104,0.2441406100988388,0.6713866591453552,100.0,135859.0,1.0
14:59:13.639535,176913.890625,183199.015625,196851.46875,175156.234375,174100.875,195285.5,688362.125,172939.125,0.07080078125,0.993408203125,-0.194580078125,-1.5563963651657104,0.2136230319738388,0.6713866591453552,100.0,135860.0,1.0
14:59:13.639542,176928.640625,183214.390625,196863.984375,175161.953125,174110.890625,195298.734375,688320.1875,172946.265625,0.070556640625,0.99365234375,-0.1953125,-1.6174315214157104,0.2441406100988388,0.6713866591453552,100.0,135861.0,1.0
14:59:13.645320,176997.484375,183231.46875,196885.265625,175161.328125,174120.28125,195350.671875,688440.0,172948.421875,0.071044921875,0.9931640625,-0.19482421875,-1.5869139432907104,0.1220703050494194,0.7324218153953552,100.0,135862.0,1.0
14:59:13.653441,176968.875,183234.25,196885.703125,175168.65625,174126.53125,195358.71875,688447.5,172951.734375,0.072265625,0.993408203125,-0.195068359375,-1.7089842557907104,0.0610351525247097,0.7324218153953552,100.0,135863.0,1.0
14:59:13.653453,176929.796875,183210.734375,196866.75,175169.734375,174113.484375,195301.78125,688382.1875,172952.265625,0.07177734375,0.9931640625,-0.193359375,-1.6784666776657104,0.2136230319738388,0.7019042372703552,100.0,135864.0,1.0
14:59:13.655372,176922.296875,183215.734375,196869.078125,175172.953125,174115.09375,195298.734375,688329.125,172955.921875,0.072021484375,0.99169921875,-0.1943359375,-1.7395018339157104,0.1831054538488388,0.7019042372703552,100.0,135865.0,1.0
14:59:13.663997,176990.859375,183227.453125,196883.828125,175165.265625,174118.046875,195341.5625,688411.5625,172955.03125,0.073974609375,0.991455078125,-0.194091796875,-1.7700194120407104,0.2136230319738388,0.7934569716453552,100.0,135866.0,1.0
14:59:13.668318,176974.6875,183232.375,196885.171875,175169.109375,174122.875,195362.390625,688461.75,172955.21875,0.0732421875,0.992919921875,-0.197509765625,-1.7700194120407104,0.1831054538488388,0.7629393935203552,100.0,135867.0,1.0
14:59:13.668333,176925.953125,183209.65625,196862.1875,175162.84375,174107.046875,195312.0625,688386.625,172947.25,0.072021484375,0.98974609375,-0.19580078125,-1.6784666776657104,0.1220703050494194,0.7019042372703552,100.0,135868.0,1.0
14:59:13.678379,176910.578125,183206.890625,196857.984375,175165.09375,174104.453125,195281.296875,688336.6875,172947.4375,0.07275390625,0.98681640625,-0.193359375,-1.6479490995407104,0.2136230319738388,0.6713866591453552,100.0,135869.0,1.0
14:59:13.678390,176982.375,183227.71875,196878.5625,175166.515625,174112.234375,195327.796875,688378.125,172952.265625,0.071533203125,0.98583984375,-0.196533203125,-1.6784666776657104,0.1831054538488388,0.7324218153953552,100.0,135870.0,1.0
14:59:13.680237,176987.109375,183240.421875,196886.875,175170.984375,174122.421875,195359.703125,688449.0625,172956.640625,0.0712890625,0.984375,-0.196044921875,-1.6479490995407104,0.1831054538488388,0.7934569716453552,100.0,135871.0,1.0
14:59:13.686521,176947.765625,183235.40625,196878.109375,175175.09375,174121.96875,195329.9375,688389.5,172963.53125,0.072021484375,0.984130859375,-0.196044921875,-1.6784666776657104,0.2441406100988388,0.6408690810203552,100.0,135872.0,1.0
14:59:13.690881,176928.015625,183233.890625,196875.0625,175178.3125,174121.890625,195301.953125,688355.25,172965.9375,0.06982421875,0.9853515625,-0.19580078125,-1.5258787870407104,0.1831054538488388,0.6103515028953552,100.0,135873.0,1.0
14:59:13.690893,176980.5,183241.21875,196887.765625,175175.1875,174124.390625,195330.203125,688359.1875,172965.671875,0.0693359375,0.984375,-0.19677734375,-1.4953612089157104,0.1220703050494194,0.5798339247703552,100.0,135874.0,1.0
14:59:13.695255,176997.125,183241.671875,196891.96875,175171.34375,174126.265625,195358.8125,688446.8125,172961.46875,0.0693359375,0.984130859375,-0.196044921875,-1.3732908964157104,0.1220703050494194,0.4577636420726776,100.0,135875.0,1.0
14:59:13.701500,176955.1875,183230.578125,196881.421875,175173.84375,174125.28125,195333.609375,688395.6875,172962.71875,0.070068359375,0.984375,-0.196533203125,-1.3427733182907104,0.03051757626235485,0.3662109076976776,100.0,135876.0,1.0
14:59:13.705791,176925.15625,183217.078125,196870.6875,175173.484375,174117.59375,195291.765625,688369.5,172960.125,0.070068359375,0.986572265625,-0.19921875,-1.2817381620407104,0.1220703050494194,0.4882812201976776,100.0,135877.0,1.0
14:59:13.705797,176966.90625,183229.59375,196884.359375,175174.03125,174123.671875,195318.84375,688341.0625,172960.75,0.072021484375,0.986328125,-0.197509765625,-1.2512205839157104,0.1220703050494194,0.2746581733226776,100.0,135878.0,1.0
14:59:13.731075,177005.96875,183240.6875,196894.828125,175171.171875,174129.84375,195360.328125,688449.9375,172958.25,0.07421875,0.989990234375,-0.19873046875,-1.1596678495407104,0.03051757626235485,0.3967284858226776,100.0,135879.0,1.0
14:59:13.731148,176961.359375,183235.5,196885.890625,175169.375,174130.015625,195345.140625,688409.6875,172958.25,0.0732421875,0.990234375,-0.197509765625,-1.1291502714157104,0.0610351525247097,0.4882812201976776,100.0,135880.0,1.0
14:59:13.732839,176926.21875,183216.28125,196866.484375,175163.484375,174115.71875,195292.828125,688359.375,172951.640625,0.074951171875,0.98779296875,-0.199462890625,-1.0375975370407104,0.0915527269244194,0.3356933295726776,100.0,135881.0,1.0
14:59:13.735308,176948.21875,183230.3125,196873.1875,175162.21875,174115.453125,195308.21875,688316.75,172949.40625,0.073974609375,0.987548828125,-0.2021484375,-1.0070799589157104,0.1220703050494194,0.3662109076976776,100.0,135882.0,1.0
14:59:13.738355,177002.484375,183244.265625,196885.171875,175156.859375,174117.0625,195354.34375,688429.9375,172945.828125,0.071044921875,0.9873046875,-0.200439453125,-0.8850097060203552,0.0915527269244194,0.5798339247703552,100.0,135883.0,1.0
14:59:13.738373,176953.765625,183229.5,196869.96875,175151.578125,174110.625,195342.453125,688411.3125,172939.5625,0.068359375,0.98828125,-0.19921875,-0.8850097060203552,0.0915527269244194,0.5493163466453552,100.0,135884.0,1.0
14:59:13.740314,176921.484375,183213.0625,196857.453125,175153.375,174103.828125,195293.28125,688370.8125,172941.796875,0.065185546875,0.989990234375,-0.197021484375,-0.9460448622703552,0.1220703050494194,0.3356933295726776,100.0,135885.0,1.0
14:59:13.742749,176941.15625,183226.5625,196875.15625,175167.59375,174118.84375,195305.078125,688322.25,172956.734375,0.063720703125,0.99169921875,-0.19580078125,-0.9765624403953552,0.03051757626235485,0.3662109076976776,100.0,135886.0,1.0
14:59:13.746622,177008.5625,183239.96875,196893.671875,175166.34375,174125.015625,195348.984375,688413.3125,172956.640625,0.0634765625,0.993896484375,-0.19384765625,-0.9765624403953552,0.0,0.2441406100988388,100.0,135887.0,1.0
14:59:13.753599,176978.703125,183242.375,196894.015625,175170.984375,174131.1875,195357.65625,688415.0625,172956.828125,0.06396484375,0.99560546875,-0.19287109375,-1.1291502714157104,-0.0915527269244194,0.03051757626235485,100.0,135888.0,1.0
14:59:13.753649,176946.78125,183226.734375,196881.421875,175176.984375,174126.09375,195309.640625,688365.375,172962.359375,0.06396484375,0.998046875,-0.197021484375,-1.1596678495407104,-0.1831054538488388,-0.0610351525247097,100.0,135889.0,1.0
14:59:13.763486,176943.484375,183233.265625,196884.28125,175182.15625,174128.0625,195302.046875,688317.5625,172966.75,0.06640625,1.001220703125,-0.195556640625,-1.3732908964157104,-0.2136230319738388,-0.1525878757238388,100.0,135890.0,1.0
14:59:13.763557,177013.671875,183244.890625,196901.984375,175182.34375,174131.28125,195345.21875,688385.3125,172968.0,0.0673828125,1.00146484375,-0.1962890625,-1.3732908964157104,-0.2746581733226776,-0.0610351525247097,100.0,135891.0,1.0
14:59:13.765854,176989.53125,183248.8125,196897.875,175175.90625,174129.3125,195363.28125,688419.25,172961.203125,0.067626953125,1.000732421875,-0.197509765625,-1.5258787870407104,-0.3662109076976776,-0.0610351525247097,100.0,135892.0,1.0
14:59:13.765918,176951.4375,183239.96875,196883.65625,175177.0625,174121.796875,195325.640625,688362.6875,172962.546875,0.07080078125,0.999267578125,-0.197509765625,-1.5869139432907104,-0.3356933295726776,0.03051757626235485,100.0,135893.0,1.0
14:59:13.775302,176932.9375,183222.890625,196879.453125,175179.921875,174117.953125,195291.3125,688329.875,172963.171875,0.072265625,1.00048828125,-0.198974609375,-1.7395018339157104,-0.3051757514476776,0.1525878757238388,100.0,135894.0,1.0
14:59:13.779739,176999.359375,183234.78125,196897.0625,175179.84375,174123.5,195328.234375,688379.5625,172966.296875,0.071533203125,0.99951171875,-0.19775390625,-1.8005369901657104,-0.3356933295726776,0.2441406100988388,100.0,135895.0,1.0
14:59:13.779807,176999.1875,183246.21875,196902.78125,175181.171875,174131.984375,195361.671875,688442.625,172967.109375,0.07080078125,0.995849609375,-0.196044921875,-1.9531248807907104,-0.2136230319738388,0.3356933295726776,100.0,135896.0,1.0
14:59:13.785338,176956.359375,183237.28125,196888.03125,175180.375,174127.96875,195327.796875,688375.8125,172967.109375,0.0712890625,0.9951171875,-0.19384765625,-2.014159917831421,-0.1220703050494194,0.5798339247703552,100.0,135897.0,1.0
14:59:13.792101,176930.96875,183225.484375,196878.46875,175180.828125,174123.9375,195295.6875,688347.5625,172966.65625,0.071533203125,0.993408203125,-0.192138671875,-2.105712652206421,-0.1220703050494194,0.6713866591453552,100.0,135898.0,1.0
14:59:13.792122,176979.0625,183231.203125,196885.625,175174.203125,174122.328125,195322.15625,688349.875,172960.9375,0.070068359375,0.99267578125,-0.193603515625,-2.075195074081421,-0.1831054538488388,0.7934569716453552,100.0,135899.0,1.0
14:59:13.802198,176998.109375,183241.75,196894.734375,175174.921875,174128.5,195358.8125,688450.5625,172960.484375,0.0693359375,0.991943359375,-0.1953125,-2.166747808456421,-0.1220703050494194,0.9460448622703552,100.0,135900.0,1.0
14:59:13.802216,176952.421875,183235.859375,196881.140625,175175.453125,174123.9375,195336.90625,688400.5,172960.125,0.068115234375,0.992919921875,-0.196044921875,-2.166747808456421,-0.03051757626235485,0.8544921278953552,100.0,135901.0,1.0
14:59:13.804598,176926.21875,183222.265625,196868.28125,175173.140625,174115.453125,195295.515625,688378.5,172957.71875,0.06884765625,0.99072265625,-0.193359375,-2.319335699081421,-0.1220703050494194,0.9765624403953552,100.0,135902.0,1.0
14:59:13.804609,176967.4375,183230.578125,196881.0625,175172.953125,174119.109375,195319.390625,688350.625,172957.453125,0.067138671875,0.98876953125,-0.192138671875,-2.288818120956421,-0.03051757626235485,1.0070799589157104,100.0,135903.0,1.0
14:59:13.831615,177013.390625,183246.5,196899.03125,175176.265625,174130.109375,195364.8125,688464.875,172960.671875,0.06884765625,0.989501953125,-0.1884765625,-2.380370855331421,-0.0915527269244194,1.0070799589157104,100.0,135904.0,1.0
14:59:13.834021,176967.796875,183237.015625,196888.125,175175.8125,174125.90625,195343.609375,688423.1875,172958.609375,0.068115234375,0.989990234375,-0.194091796875,-2.471923589706421,-0.0610351525247097,1.0070799589157104,100.0,135905.0,1.0
14:59:13.837268,176932.390625,183215.296875,196871.765625,175174.296875,174113.484375,195291.765625,688373.5,172956.203125,0.068603515625,0.98974609375,-0.194091796875,-2.319335699081421,-0.1220703050494194,0.9460448622703552,100.0,135906.0,1.0
14:59:13.839043,176949.46875,183217.078125,196874.796875,175170.359375,174112.234375,195299.8125,688336.75,172953.25,0.07080078125,0.989990234375,-0.189697265625,-2.319335699081421,-0.1831054538488388,0.8850097060203552,100.0,135907.0,1.0
14:59:13.841871,177005.53125,183231.03125,196890.171875,175168.9375,174119.03125,195345.671875,688454.6875,172955.296875,0.06982421875,0.9892578125,-0.1904296875,-2.349853277206421,-0.1220703050494194,0.8239745497703552,100.0,135908.0,1.0
14:59:13.844064,176967.625,183234.328125,196886.0625,175172.59375,174122.0625,195346.03125,688441.875,172955.578125,0.0693359375,0.989013671875,-0.19287109375,-2.349853277206421,-0.1831054538488388,0.7629393935203552,100.0,135909.0,1.0
14:59:13.846598,176940.0,183221.1875,196873.8125,175175.640625,174115.265625,195296.859375,688383.5,172956.203125,0.0732421875,0.988037109375,-0.1904296875,-2.319335699081421,-0.1220703050494194,0.6713866591453552,100.0,135910.0,1.0
14:59:13.849020,176950.1875,183234.15625,196879.8125,175174.203125,174117.328125,195306.78125,688338.4375,172956.015625,0.07470703125,0.98779296875,-0.191650390625,-2.319335699081421,-0.1220703050494194,0.5493163466453552,100.0,135911.0,1.0
14:59:13.851609,177009.375,183229.234375,196887.046875,175166.0625,174114.546875,195333.515625,688445.1875,172950.5625,0.077392578125,0.984619140625,-0.191650390625,-2.227782964706421,0.0610351525247097,0.3967284858226776,100.0,135912.0,1.0
14:59:13.854607,176985.140625,183239.25,196890.09375,175176.890625,174125.375,195347.1875,688462.3125,172958.078125,0.076416015625,0.98291015625,-0.18994140625,-2.136230230331421,0.1831054538488388,0.3967284858226776,100.0,135913.0,1.0
14:59:13.854660,176957.25,183230.21875,196881.140625,175184.390625,174123.3125,195308.5625,688403.125,172966.65625,0.076171875,0.984375,-0.189208984375,-2.105712652206421,0.3662109076976776,0.4577636420726776,100.0,135914.0,1.0
14:59:13.856571,176948.3125,183228.875,196879.1875,175185.203125,174120.984375,195299.8125,688347.75,172965.9375,0.075439453125,0.984130859375,-0.189453125,-1.9531248807907104,0.3356933295726776,0.4272460639476776,100.0,135915.0,1.0
14:59:13.860326,177013.84375,183239.078125,196890.984375,175176.625,174121.265625,195339.859375,688422.4375,172958.4375,0.07763671875,0.985107421875,-0.1953125,-1.8615721464157104,0.3356933295726776,0.3662109076976776,100.0,135916.0,1.0
14:59:13.871015,177004.71875,183252.03125,196898.671875,175184.75,174132.875,195366.59375,688470.6875,172962.09375,0.077392578125,0.98486328125,-0.193603515625,-1.8005369901657104,0.4577636420726776,0.3356933295726776,100.0,135917.0,1.0
14:59:13.871091,176968.0625,183237.640625,196883.828125,175187.703125,174124.84375,195322.15625,688400.5,172963.4375,0.076416015625,0.9853515625,-0.1953125,-1.6479490995407104,0.5187987685203552,0.4882812201976776,100.0,135918.0,1.0
14:59:13.873525,176958.859375,183242.65625,196884.546875,175196.828125,174126.53125,195306.953125,688351.5,172969.078125,0.07421875,0.985107421875,-0.195068359375,-1.5258787870407104,0.5493163466453552,0.5187987685203552,100.0,135919.0,1.0
14:59:13.873588,177026.359375,183257.765625,196901.984375,175197.359375,174130.203125,195346.484375,688406.5625,172970.40625,0.072998046875,0.985595703125,-0.193359375,-1.2817381620407104,0.6713866591453552,0.5798339247703552,100.0,135920.0,1.0
14:59:13.880286,177031.71875,183271.4375,196912.0,175201.921875,174138.609375,195380.8125,688480.625,172972.828125,0.07177734375,0.984619140625,-0.195068359375,-1.2817381620407104,0.7324218153953552,0.6103515028953552,100.0,135921.0,1.0
14:59:13.889794,176991.21875,183259.375,196900.8125,175207.5625,174134.84375,195341.734375,688409.625,172977.03125,0.0712890625,0.986572265625,-0.193359375,-1.1291502714157104,0.5798339247703552,0.6103515028953552,100.0,135922.0,1.0
14:59:13.889883,176962.171875,183245.515625,196890.09375,175207.28125,174126.53125,195301.59375,688355.0,172973.8125,0.069580078125,0.985595703125,-0.194091796875,-0.9765624403953552,0.6408690810203552,0.5187987685203552,100.0,135923.0,1.0
14:59:13.892146,177019.484375,183259.8125,196904.9375,175206.03125,174129.671875,195332.703125,688364.5625,172972.296875,0.070068359375,0.9853515625,-0.196533203125,-0.8544921278953552,0.6103515028953552,0.4882812201976776,100.0,135924.0,1.0
14:59:13.892164,177051.03125,183280.46875,196923.265625,175213.90625,174144.421875,195378.9375,688459.0,172977.390625,0.068359375,0.986083984375,-0.19482421875,-0.7019042372703552,0.5798339247703552,0.3967284858226776,100.0,135925.0,1.0
