Timestamp,Fz,FC3,FCz,FC4,Cz,C3,C4
15:03:48.972110,177332.84375,181184.859375,195039.453125,173368.453125,168767.484375,192945.09375,688548.0,174142.71875,0.061279296875,0.991943359375,-0.194580078125,-1.5258787870407104,-0.6713866591453552,0.4577636420726776,100.0,204735.0,1.0
15:03:48.972127,177419.21875,181194.6875,195053.21875,173349.953125,168766.234375,192991.40625,688698.875,174130.734375,0.063232421875,0.993408203125,-0.194091796875,-1.6174315214157104,-0.6408690810203552,0.4577636420726776,100.0,204736.0,1.0
15:03:48.981561,177413.046875,181208.90625,195061.890625,173364.515625,168777.5,193017.15625,688923.0,174138.875,0.064453125,0.9931640625,-0.192626953125,-1.5869139432907104,-0.5798339247703552,0.4272460639476776,100.0,204737.0,1.0
15:03:48.985147,177355.109375,181195.40625,195046.96875,173374.984375,168772.125,192962.171875,688830.4375,174144.140625,0.0634765625,0.989501953125,-0.196533203125,-1.6174315214157104,-0.4882812201976776,0.4882812201976776,100.0,204738.0,1.0
15:03:48.985156,177335.4375,181193.4375,195044.546875,173374.984375,168771.59375,192942.859375,688574.5625,174142.8125,0.064697265625,0.98974609375,-0.1962890625,-1.6174315214157104,-0.5798339247703552,0.5798339247703552,100.0,204739.0,1.0
15:03:48.985158,177425.921875,181207.5625,195067.34375,173374.0,168779.90625,192996.859375,688670.5,174149.421875,0.064453125,0.9892578125,-0.19482421875,-1.6174315214157104,-0.5187987685203552,0.5187987685203552,100.0,204740.0,1.0
15:03:48.987850,177437.1875,181220.265625,195077.359375,173382.765625,168791.796875,193034.328125,688926.75,174159.078125,0.065673828125,0.98779296875,-0.192626953125,-1.5563963651657104,-0.4272460639476776,0.5187987685203552,100.0,204741.0,1.0
15:03:49.016483,177378.453125,181209.0,195062.15625,173388.65625,168786.34375,192986.3125,688874.1875,174161.578125,0.0634765625,0.9873046875,-0.194091796875,-1.5258787870407104,-0.3662109076976776,0.5187987685203552,100.0,204742.0,1.0
15:03:49.043677,177344.109375,181206.140625,195054.390625,173387.046875,168782.234375,192957.96875,688617.5625,174157.015625,0.065673828125,0.9873046875,-0.19677734375,-1.4648436307907104,-0.3356933295726776,0.6713866591453552,100.0,204743.0,1.0
15:03:49.043694,177421.8125,181220.796875,195069.765625,173379.265625,168784.109375,193003.203125,688630.5625,174155.0625,0.064697265625,0.98974609375,-0.19580078125,-1.4038084745407104,-0.3051757514476776,0.5187987685203552,100.0,204744.0,1.0
15:03:49.043696,177448.625,181230.09375,195078.078125,173379.265625,168789.203125,193045.765625,688911.125,174151.75,0.06396484375,0.989501953125,-0.196533203125,-1.4038084745407104,-0.1525878757238388,0.5798339247703552,100.0,204745.0,1.0
15:03:49.043698,177387.65625,181214.1875,195062.15625,173383.03125,168783.65625,193004.015625,688921.75,174151.921875,0.064697265625,0.989013671875,-0.19677734375,-1.3732908964157104,-0.1220703050494194,0.4272460639476776,100.0,204746.0,1.0
15:03:49.043726,177328.734375,181188.875,195036.5,173369.609375,168765.25,192945.0,688681.0,174137.0,0.06640625,0.989990234375,-0.197509765625,-1.3732908964157104,-0.1220703050494194,0.5187987685203552,100.0,204747.0,1.0
15:03:49.045824,177395.25,181204.34375,195056.4375,173374.0,168773.65625,192982.828125,688593.0,174145.484375,0.06494140625,0.98828125,-0.196533203125,-1.3427733182907104,0.0,0.4882812201976776,100.0,204748.0,1.0
15:03:49.045834,177442.546875,181211.6875,195067.53125,173368.546875,168777.9375,193028.25,688874.25,174143.703125,0.06396484375,0.988525390625,-0.1962890625,-1.3732908964157104,-0.03051757626235485,0.5493163466453552,100.0,204749.0,1.0
15:03:49.049459,177388.375,181202.296875,195057.875,173376.046875,168779.453125,193003.65625,688943.5625,174149.421875,0.06298828125,0.98779296875,-0.195068359375,-1.3122557401657104,0.0915527269244194,0.5493163466453552,100.0,204750.0,1.0
15:03:49.049469,177336.0625,181187.625,195042.046875,173376.953125,168771.140625,192950.546875,688719.625,174147.359375,0.06396484375,0.98779296875,-0.195556640625,-1.2512205839157104,0.1220703050494194,0.6103515028953552,100.0,204751.0,1.0
15:03:49.049471,177379.703125,181196.21875,195055.71875,173380.609375,168774.09375,192972.8125,688571.8125,174152.109375,0.065185546875,0.98876953125,-0.19677734375,-1.1596678495407104,0.1525878757238388,0.5187987685203552,100.0,204752.0,1.0
15:03:49.049472,177436.734375,181198.625,195061.265625,173364.15625,168766.5,193013.671875,688830.375,174137.890625,0.061767578125,0.988037109375,-0.194091796875,-1.1901854276657104,0.3356933295726776,0.4577636420726776,100.0,204753.0,1.0
15:03:49.052028,177382.015625,181186.46875,195044.546875,173358.171875,168756.65625,192992.84375,688939.0,174129.390625,0.06201171875,0.991943359375,-0.1953125,-1.1596678495407104,0.1525878757238388,0.4882812201976776,100.0,204754.0,1.0
15:03:49.052034,177331.953125,181177.609375,195031.765625,173363.09375,168753.796875,192939.28125,688761.0,174130.015625,0.06201171875,0.990478515625,-0.19384765625,-1.0375975370407104,0.2746581733226776,0.4577636420726776,100.0,204755.0,1.0
15:03:49.053936,177364.5,181200.0625,195052.59375,173375.0625,168769.984375,192960.203125,688555.625,174142.53125,0.06298828125,0.9912109375,-0.193359375,-1.0681151151657104,0.2746581733226776,0.5493163466453552,100.0,204756.0,1.0
15:03:49.056458,177455.96875,181220.359375,195079.0625,173373.546875,168783.21875,193020.640625,688777.0,174146.921875,0.062255859375,0.99169921875,-0.1962890625,-1.0375975370407104,0.3051757514476776,0.4882812201976776,100.0,204757.0,1.0
15:03:49.058911,177423.328125,181218.203125,195075.21875,173378.734375,168786.34375,193023.0625,688950.625,174150.9375,0.06298828125,0.990966796875,-0.195556640625,-1.0986326932907104,0.3662109076976776,0.3967284858226776,100.0,204758.0,1.0
15:03:49.063297,177359.21875,181194.78125,195051.875,173378.28125,168774.359375,192958.421875,688806.5625,174147.1875,0.06298828125,0.9921875,-0.195068359375,-1.0070799589157104,0.3662109076976776,0.3051757514476776,100.0,204759.0,1.0
15:03:49.063307,177354.3125,181195.671875,195054.65625,173382.3125,168775.4375,192955.109375,688566.6875,174153.625,0.063232421875,0.991943359375,-0.194091796875,-1.0375975370407104,0.4272460639476776,0.4272460639476776,100.0,204760.0,1.0
15:03:49.078266,177444.703125,181209.265625,195075.65625,173381.78125,168781.78125,193010.984375,688726.5625,174158.71875,0.062744140625,0.990966796875,-0.193359375,-1.1901854276657104,0.4882812201976776,0.3356933295726776,100.0,204761.0,1.0
15:03:49.078276,177430.390625,181214.453125,195075.484375,173384.28125,168785.265625,193032.09375,688948.6875,174160.6875,0.0625,0.989990234375,-0.196533203125,-1.2207030057907104,0.4882812201976776,0.3967284858226776,100.0,204762.0,1.0
15:03:49.080216,177354.125,181181.109375,195041.515625,173373.375,168762.5625,192959.84375,688849.125,174146.390625,0.060791015625,0.989990234375,-0.19677734375,-1.1291502714157104,0.4577636420726776,0.5798339247703552,100.0,204763.0,1.0
15:03:49.082729,177322.5625,181175.203125,195028.90625,173361.296875,168752.375,192935.703125,688591.5,174137.4375,0.061279296875,0.990478515625,-0.197998046875,-1.0681151151657104,0.4272460639476776,0.5493163466453552,100.0,204764.0,1.0
15:03:49.088995,177406.34375,181188.25,195044.375,173353.796875,168753.984375,192985.6875,688661.5625,174135.03125,0.060302734375,0.990234375,-0.195556640625,-1.0375975370407104,0.5187987685203552,0.4577636420726776,100.0,204765.0,1.0
15:03:49.095948,177419.84375,181203.71875,195055.71875,173359.0625,168767.03125,193026.359375,688921.5625,174138.875,0.060302734375,0.991943359375,-0.1943359375,-1.0681151151657104,0.4272460639476776,0.5187987685203552,100.0,204766.0,1.0
15:03:49.095981,177366.734375,181198.71875,195048.390625,173369.25,168771.859375,192990.15625,688887.25,174147.71875,0.061767578125,0.9921875,-0.197265625,-1.0681151151657104,0.3967284858226776,0.5493163466453552,100.0,204767.0,1.0
15:03:49.103323,177331.953125,181189.953125,195041.234375,173373.375,168769.09375,192957.609375,688630.8125,174148.171875,0.060791015625,0.992431640625,-0.1962890625,-1.1291502714157104,0.4272460639476776,0.4882812201976776,100.0,204768.0,1.0
15:03:49.103333,177415.734375,181210.15625,195066.71875,173379.625,168779.1875,193008.65625,688613.5625,174156.84375,0.060791015625,0.99169921875,-0.197998046875,-1.1596678495407104,0.4272460639476776,0.5798339247703552,100.0,204769.0,1.0
15:03:49.105288,177449.34375,181226.703125,195080.484375,173374.796875,168789.296875,193057.03125,688887.5,174157.46875,0.0595703125,0.9931640625,-0.197265625,-1.1596678495407104,0.3967284858226776,0.6103515028953552,100.0,204770.0,1.0
15:03:49.117762,177389.171875,181213.828125,195065.46875,173377.65625,168785.265625,193018.3125,688905.625,174156.84375,0.05908203125,0.990234375,-0.195556640625,-1.0986326932907104,0.3662109076976776,0.6408690810203552,100.0,204771.0,1.0
15:03:49.120878,177344.46875,181207.203125,195054.46875,173384.1875,168779.453125,192975.40625,688664.5,174159.96875,0.059326171875,0.9912109375,-0.19580078125,-1.1596678495407104,0.2746581733226776,0.6103515028953552,100.0,204772.0,1.0
15:03:49.120970,177402.9375,181217.21875,195069.046875,173383.65625,168781.515625,193006.78125,688586.125,174163.1875,0.05908203125,0.991943359375,-0.195556640625,-1.1901854276657104,0.3356933295726776,0.5798339247703552,100.0,204773.0,1.0
15:03:49.122791,177443.71875,181212.390625,195069.859375,173372.46875,168775.171875,193040.5,688865.6875,174153.265625,0.05810546875,0.991943359375,-0.19677734375,-1.1596678495407104,0.2136230319738388,0.6713866591453552,100.0,204774.0,1.0
15:03:49.135284,177371.65625,181184.140625,195039.8125,173357.359375,168758.1875,192996.859375,688931.75,174137.171875,0.0595703125,0.992431640625,-0.1982421875,-1.3122557401657104,0.1831054538488388,0.7019042372703552,100.0,204775.0,1.0
15:03:49.138266,177317.109375,181170.640625,195024.703125,173355.84375,168752.109375,192941.96875,688726.8125,174137.0,0.059814453125,0.994384765625,-0.19677734375,-1.3732908964157104,0.2441406100988388,0.6713866591453552,100.0,204776.0,1.0
15:03:49.138284,177353.59375,181179.3125,195037.125,173355.3125,168754.25,192962.53125,688550.6875,174135.828125,0.060791015625,0.99267578125,-0.197021484375,-1.4648436307907104,0.1525878757238388,0.6713866591453552,100.0,204777.0,1.0
15:03:49.140210,177427.796875,181195.140625,195056.0,173354.328125,168760.859375,193015.09375,688802.5625,174135.390625,0.06201171875,0.9921875,-0.1982421875,-1.4648436307907104,0.0610351525247097,0.5798339247703552,100.0,204778.0,1.0
15:03:49.142820,177391.140625,181199.515625,195053.21875,173364.78125,168767.390625,193010.359375,688945.4375,174142.359375,0.06103515625,0.99267578125,-0.197265625,-1.4343260526657104,0.0610351525247097,0.7019042372703552,100.0,204779.0,1.0
15:03:49.146598,177332.578125,181183.609375,195033.109375,173363.53125,168753.796875,192946.34375,688767.8125,174138.15625,0.06005859375,0.99267578125,-0.199951171875,-1.4343260526657104,0.03051757626235485,0.6408690810203552,100.0,204780.0,1.0
15:03:49.153380,177350.90625,181192.1875,195041.15625,173365.953125,168755.5,192950.546875,688546.125,174141.46875,0.0595703125,0.99169921875,-0.197998046875,-1.4343260526657104,0.0,0.7019042372703552,100.0,204781.0,1.0
15:03:49.153449,177438.796875,181205.0625,195062.875,173365.328125,168763.015625,193005.0,688752.3125,174145.125,0.060546875,0.990478515625,-0.19775390625,-1.4648436307907104,-0.03051757626235485,0.7324218153953552,100.0,204782.0,1.0
15:03:49.155274,177408.75,181204.96875,195056.796875,173365.328125,168764.265625,193011.171875,688933.125,174141.375,0.0615234375,0.990966796875,-0.197021484375,-1.5563963651657104,-0.1525878757238388,0.6103515028953552,100.0,204783.0,1.0
15:03:49.165322,177340.453125,181178.6875,195029.53125,173359.15625,168748.53125,192942.859375,688797.9375,174133.78125,0.061767578125,0.99072265625,-0.198486328125,-1.5869139432907104,-0.0915527269244194,0.7019042372703552,100.0,204784.0,1.0
15:03:49.169620,177331.59375,181179.5,195029.796875,173359.875,168748.4375,192937.046875,688553.0,174136.453125,0.06298828125,0.990234375,-0.197509765625,-1.5869139432907104,-0.1525878757238388,0.7934569716453552,100.0,204785.0,1.0
15:03:49.169658,177408.75,181177.609375,195036.6875,173343.6875,168740.5625,192977.1875,688705.8125,174125.734375,0.0625,0.989013671875,-0.200439453125,-1.5869139432907104,-0.1220703050494194,0.7629393935203552,100.0,204786.0,1.0
15:03:49.199087,177391.5,181178.328125,195034.265625,173341.359375,168742.53125,192997.125,688932.75,174123.046875,0.0634765625,0.98876953125,-0.196044921875,-1.5258787870407104,-0.1525878757238388,0.7324218153953552,100.0,204787.0,1.0
15:03:49.224576,177326.328125,181158.484375,195014.0625,173341.1875,168734.75,192940.09375,688839.3125,174123.140625,0.063232421875,0.988525390625,-0.19580078125,-1.6174315214157104,-0.1831054538488388,0.7934569716453552,100.0,204788.0,1.0
15:03:49.224612,177306.390625,181162.59375,195012.984375,173347.984375,168737.4375,192922.65625,688586.5625,174130.5625,0.062744140625,0.988525390625,-0.198486328125,-1.5258787870407104,-0.1220703050494194,0.7324218153953552,100.0,204789.0,1.0
15:03:49.250234,177396.59375,181181.734375,195034.265625,173347.4375,168743.78125,192977.015625,688657.75,174134.21875,0.06298828125,0.98974609375,-0.194580078125,-1.5258787870407104,-0.1831054538488388,0.7629393935203552,100.0,204790.0,1.0
15:03:49.252702,177409.921875,181194.0625,195042.3125,173345.03125,168752.015625,193015.90625,688919.625,174130.921875,0.0634765625,0.98876953125,-0.19580078125,-1.4953612089157104,-0.2441406100988388,0.7324218153953552,100.0,204791.0,1.0
15:03:49.255213,177346.890625,181175.296875,195023.984375,173346.734375,168744.953125,192965.21875,688883.8125,174132.609375,0.06396484375,0.989013671875,-0.19677734375,-1.4953612089157104,-0.0915527269244194,0.7019042372703552,100.0,204792.0,1.0
15:03:49.257866,177313.359375,181171.8125,195020.40625,173355.671875,168746.828125,192932.9375,688633.875,174138.0625,0.063720703125,0.990966796875,-0.19921875,-1.5563963651657104,-0.0915527269244194,0.5798339247703552,100.0,204793.0,1.0
15:03:49.260186,177390.78125,181191.65625,195041.6875,173353.796875,168753.984375,192980.40625,688620.4375,174139.671875,0.06494140625,0.98974609375,-0.199462890625,-1.5869139432907104,-0.1525878757238388,0.5493163466453552,100.0,204794.0,1.0
15:03:49.263383,177426.71875,181202.296875,195053.765625,173350.125,168762.65625,193025.109375,688910.8125,174136.09375,0.06494140625,0.9912109375,-0.19873046875,-1.5258787870407104,-0.1220703050494194,0.5493163466453552,100.0,204795.0,1.0
15:03:49.265200,177374.328125,181196.21875,195044.375,173358.078125,168765.25,192994.890625,688931.6875,174141.109375,0.06494140625,0.989990234375,-0.19775390625,-1.5869139432907104,-0.1220703050494194,0.6408690810203552,100.0,204796.0,1.0
15:03:49.267770,177327.9375,181187.546875,195032.484375,173363.359375,168761.84375,192949.75,688686.8125,174144.0625,0.06494140625,0.991943359375,-0.199462890625,-1.5258787870407104,-0.0610351525247097,0.6103515028953552,100.0,204797.0,1.0
15:03:49.270183,177380.140625,181193.171875,195041.59375,173358.265625,168759.96875,192975.40625,688592.375,174139.953125,0.063720703125,0.99267578125,-0.200927734375,-1.6174315214157104,0.03051757626235485,0.6713866591453552,100.0,204798.0,1.0
15:03:49.272735,177429.59375,181201.40625,195052.59375,173354.140625,168762.65625,193020.5625,688871.125,174136.546875,0.064697265625,0.9931640625,-0.2021484375,-1.6479490995407104,0.0610351525247097,0.7019042372703552,100.0,204799.0,1.0
15:03:49.275214,177373.96875,181191.5625,195038.921875,173356.828125,168761.125,192997.390625,688945.5,174137.171875,0.064697265625,0.99072265625,-0.198486328125,-1.7395018339157104,0.1525878757238388,0.6408690810203552,100.0,204800.0,1.0
15:03:49.277829,177313.984375,181170.109375,195019.78125,173356.65625,168751.828125,192943.3125,688725.6875,174135.75,0.063720703125,0.989990234375,-0.198974609375,-1.7395018339157104,0.0915527269244194,0.4882812201976776,100.0,204801.0,1.0
15:03:49.280353,177349.03125,181182.09375,195032.84375,173357.71875,168754.875,192957.4375,688559.375,174138.78125,0.064453125,0.989501953125,-0.19677734375,-1.7700194120407104,0.1525878757238388,0.6103515028953552,100.0,204802.0,1.0
15:03:49.282837,177420.828125,181194.609375,195049.375,173354.859375,168760.234375,193008.3125,688819.4375,174139.59375,0.06396484375,0.99072265625,-0.19384765625,-1.7395018339157104,0.3356933295726776,0.6103515028953552,100.0,204803.0,1.0
15:03:49.285367,177380.234375,181192.453125,195042.765625,173359.421875,168761.21875,193002.140625,688953.9375,174141.203125,0.06396484375,0.9912109375,-0.1953125,-1.7395018339157104,0.2746581733226776,0.7019042372703552,100.0,204804.0,1.0
15:03:49.287763,177322.921875,181179.046875,195022.203125,173360.40625,168748.890625,192940.71875,688772.625,174139.671875,0.0634765625,0.989990234375,-0.197509765625,-1.8310545682907104,0.1525878757238388,0.7324218153953552,100.0,204805.0,1.0
15:03:49.290260,177337.046875,181183.609375,195027.734375,173358.0,168747.90625,192945.90625,688555.375,174139.859375,0.065185546875,0.991943359375,-0.196044921875,-1.8005369901657104,0.2746581733226776,0.8239745497703552,100.0,204806.0,1.0
15:03:49.292967,177417.25,181191.46875,195040.96875,173345.921875,168745.046875,192994.53125,688760.0,174130.203125,0.064453125,0.99169921875,-0.19482421875,-1.8310545682907104,0.2441406100988388,0.7629393935203552,100.0,204807.0,1.0
15:03:49.296722,177387.75,181189.6875,195037.578125,173348.96875,168746.828125,193000.53125,688946.75,174130.375,0.06591796875,0.9921875,-0.19580078125,-1.8920897245407104,0.3356933295726776,0.7019042372703552,100.0,204808.0,1.0
15:03:49.296736,177328.921875,181174.046875,195022.203125,173353.875,168743.515625,192944.640625,688809.25,174135.390625,0.06494140625,0.9921875,-0.19580078125,-1.8920897245407104,0.4272460639476776,0.6713866591453552,100.0,204809.0,1.0
15:03:49.296739,177326.765625,181181.109375,195031.140625,173363.53125,168753.0,192941.421875,688563.25,174145.046875,0.06689453125,0.99072265625,-0.1962890625,-1.9226073026657104,0.3662109076976776,0.7019042372703552,100.0,204810.0,1.0
15:03:49.300746,177415.640625,181192.453125,195049.46875,173362.640625,168758.625,192992.03125,688709.5,174148.4375,0.067138671875,0.990966796875,-0.198486328125,-1.9531248807907104,0.3967284858226776,0.7934569716453552,100.0,204811.0,1.0
15:03:49.300752,177411.078125,181201.21875,195054.203125,173364.609375,168768.734375,193019.03125,688943.9375,174150.859375,0.06494140625,0.992919921875,-0.1982421875,-1.8920897245407104,0.5187987685203552,0.8544921278953552,100.0,204812.0,1.0
15:03:49.300754,177343.9375,181179.140625,195030.78125,173358.34375,168756.84375,192958.859375,688856.5,174144.234375,0.0634765625,0.991943359375,-0.19580078125,-1.9836424589157104,0.5187987685203552,0.7934569716453552,100.0,204813.0,1.0
15:03:49.300755,177320.234375,181180.65625,195029.703125,173361.296875,168757.828125,192941.078125,688604.5,174147.09375,0.064453125,0.989013671875,-0.1962890625,-1.9226073026657104,0.4882812201976776,0.6713866591453552,100.0,204814.0,1.0
15:03:49.303256,177414.65625,181203.28125,195056.625,173367.640625,168770.34375,192997.046875,688655.875,174157.921875,0.0615234375,0.989013671875,-0.196533203125,-2.014159917831421,0.4577636420726776,0.7324218153953552,100.0,204815.0,1.0
15:03:49.303259,177428.6875,181210.96875,195065.375,173372.203125,168779.8125,193032.71875,688916.75,174162.828125,0.0625,0.987548828125,-0.19580078125,-2.014159917831421,0.4882812201976776,0.5798339247703552,100.0,204816.0,1.0
15:03:49.305184,177361.90625,181192.453125,195044.109375,173369.53125,168769.984375,192981.578125,688887.4375,174158.90625,0.062255859375,0.98779296875,-0.197265625,-2.014159917831421,0.5493163466453552,0.5798339247703552,100.0,204817.0,1.0
15:03:49.307827,177322.125,181188.875,195033.109375,173365.59375,168762.65625,192947.0625,688635.9375,174150.046875,0.061767578125,0.989990234375,-0.19677734375,-2.014159917831421,0.4882812201976776,0.5187987685203552,100.0,204818.0,1.0
15:03:49.310192,177399.015625,181208.375,195053.671875,173364.078125,168768.734375,192993.546875,688606.3125,174151.5625,0.062255859375,0.991455078125,-0.193603515625,-2.014159917831421,0.4882812201976776,0.5187987685203552,100.0,204819.0,1.0
15:03:49.315228,177433.78125,181211.6875,195063.859375,173363.625,168772.578125,193032.0,688877.5625,174151.921875,0.06201171875,0.990478515625,-0.1923828125,-2.014159917831421,0.3662109076976776,0.5493163466453552,100.0,204820.0,1.0
15:03:49.317837,177375.859375,181196.921875,195048.84375,173366.671875,168766.671875,192992.65625,688905.625,174150.671875,0.06298828125,0.9921875,-0.19384765625,-2.044677495956421,0.3051757514476776,0.5187987685203552,100.0,204821.0,1.0
15:03:49.323968,177335.0,181189.859375,195042.765625,173377.296875,168767.296875,192949.125,688679.4375,174158.90625,0.06298828125,0.992431640625,-0.1962890625,-2.136230230331421,0.3662109076976776,0.5493163466453552,100.0,204822.0,1.0
15:03:49.327162,177391.59375,181203.640625,195056.4375,173374.796875,168770.078125,192983.890625,688582.625,174157.734375,0.06494140625,0.992431640625,-0.19580078125,-2.136230230331421,0.2746581733226776,0.5187987685203552,100.0,204823.0,1.0
15:03:49.327191,177452.828125,181220.53125,195072.71875,173373.015625,168774.8125,193038.171875,688872.125,174154.875,0.061279296875,0.99267578125,-0.193603515625,-2.105712652206421,0.2136230319738388,0.5187987685203552,100.0,204824.0,1.0
15:03:49.330272,177405.0,181219.734375,195064.75,173378.375,168775.609375,193024.578125,688966.5625,174157.46875,0.061767578125,0.992431640625,-0.195068359375,-2.044677495956421,0.1525878757238388,0.4882812201976776,100.0,204825.0,1.0
15:03:49.330296,177347.515625,181205.0625,195046.78125,173381.421875,168768.546875,192967.625,688754.75,174159.4375,0.0625,0.9892578125,-0.194580078125,-2.105712652206421,0.1525878757238388,0.6713866591453552,100.0,204826.0,1.0
15:03:49.339185,177377.546875,181211.0625,195053.765625,173377.84375,168768.734375,192980.859375,688583.0625,174156.9375,0.061279296875,0.989013671875,-0.193115234375,-2.014159917831421,0.0,0.5798339247703552,100.0,204827.0,1.0
15:03:49.346641,177441.828125,181211.59375,195062.15625,173361.390625,168764.625,193022.078125,688817.5625,174146.921875,0.060546875,0.986572265625,-0.1923828125,-2.014159917831421,0.03051757626235485,0.5798339247703552,100.0,204828.0,1.0
15:03:49.346675,177390.515625,181200.765625,195047.140625,173358.171875,168757.109375,193005.625,688951.1875,174142.0,0.0625,0.9873046875,-0.19287109375,-2.014159917831421,-0.03051757626235485,0.6713866591453552,100.0,204829.0,1.0
15:03:49.346680,177327.21875,181176.359375,195024.171875,173356.203125,168743.4375,192936.25,688774.875,174141.640625,0.0625,0.987548828125,-0.19189453125,-1.9531248807907104,0.0,0.6713866591453552,100.0,204830.0,1.0
15:03:49.350190,177336.25,181176.359375,195026.046875,173352.890625,168741.734375,192934.640625,688545.1875,174138.96875,0.062744140625,0.988525390625,-0.1943359375,-1.9531248807907104,-0.1220703050494194,0.5798339247703552,100.0,204831.0,1.0
15:03:49.357087,177423.59375,181187.1875,195044.1875,173351.109375,168747.984375,192985.6875,688757.0625,174141.90625,0.063720703125,0.988525390625,-0.194580078125,-1.8615721464157104,-0.1525878757238388,0.6713866591453552,100.0,204832.0,1.0
15:03:49.357114,177402.578125,181193.625,195049.015625,173357.09375,168760.0625,193002.21875,688940.25,174148.0,0.062744140625,0.988037109375,-0.195556640625,-1.8615721464157104,-0.2136230319738388,0.7629393935203552,100.0,204833.0,1.0
15:03:49.359014,177340.265625,181174.75,195029.34375,173354.6875,168753.71875,192943.84375,688809.25,174145.75,0.0634765625,0.987548828125,-0.19677734375,-1.8615721464157104,-0.2746581733226776,0.7019042372703552,100.0,204834.0,1.0
15:03:49.371590,177337.3125,181184.328125,195034.453125,173364.96875,168760.6875,192943.671875,688569.3125,174153.53125,0.064453125,0.98828125,-0.1943359375,-1.8310545682907104,-0.2441406100988388,0.7324218153953552,100.0,204835.0,1.0
15:03:49.376384,177428.515625,181200.328125,195055.09375,173363.53125,168766.671875,193000.53125,688718.1875,174156.671875,0.064697265625,0.989990234375,-0.191162109375,-1.7700194120407104,-0.2441406100988388,0.7629393935203552,100.0,204836.0,1.0
15:03:49.376394,177427.4375,181214.453125,195063.5,173370.421875,168777.859375,193031.8125,688955.75,174162.03125,0.06494140625,0.99267578125,-0.1943359375,-1.8615721464157104,-0.1220703050494194,0.7934569716453552,100.0,204837.0,1.0
15:03:49.376396,177364.234375,181197.375,195045.890625,173370.953125,168769.265625,192977.640625,688869.0625,174160.59375,0.06591796875,0.9912109375,-0.191650390625,-1.9226073026657104,-0.1220703050494194,0.8544921278953552,100.0,204838.0,1.0
15:03:49.379006,177329.890625,181187.546875,195035.34375,173366.484375,168759.609375,192947.78125,688604.875,174153.359375,0.065673828125,0.989990234375,-0.19384765625,-1.8615721464157104,-0.1831054538488388,0.7629393935203552,100.0,204839.0,1.0
15:03:49.385362,177413.5,181201.40625,195051.53125,173360.9375,168758.0,192991.046875,688662.4375,174151.125,0.0673828125,0.990966796875,-0.1923828125,-1.8005369901657104,-0.1525878757238388,0.7934569716453552,100.0,204840.0,1.0
15:03:49.389089,177435.84375,181216.234375,195063.6875,173364.515625,168768.546875,193031.8125,688931.375,174152.828125,0.06689453125,0.991455078125,-0.192138671875,-1.8005369901657104,-0.0915527269244194,0.7934569716453552,100.0,204841.0,1.0
15:03:49.396535,177373.890625,181197.828125,195047.671875,173368.71875,168764.265625,192984.25,688906.125,174155.765625,0.06787109375,0.990966796875,-0.19091796875,-1.7395018339157104,-0.1220703050494194,0.7629393935203552,100.0,204842.0,1.0
15:03:49.403307,177328.640625,181183.609375,195031.859375,173366.046875,168752.453125,192938.125,688650.1875,174148.625,0.0693359375,0.99365234375,-0.19140625,-1.6784666776657104,-0.0610351525247097,0.8239745497703552,100.0,204843.0,1.0
15:03:49.403317,177400.796875,181197.375,195048.125,173363.09375,168755.328125,192977.453125,688613.8125,174146.828125,0.070556640625,0.99462890625,-0.18994140625,-1.7395018339157104,-0.0610351525247097,0.8544921278953552,100.0,204844.0,1.0
15:03:49.410974,177442.546875,181214.8125,195062.703125,173364.4375,168765.328125,193027.96875,688895.375,174148.34375,0.069580078125,0.990966796875,-0.193115234375,-1.7700194120407104,0.0,0.7629393935203552,100.0,204845.0,1.0
15:03:49.410988,177381.578125,181198.71875,195046.15625,173364.96875,168759.796875,192989.984375,688928.5625,174145.84375,0.071044921875,0.989013671875,-0.197021484375,-1.8310545682907104,0.1525878757238388,0.6713866591453552,100.0,204846.0,1.0
15:03:49.412732,177328.734375,181185.3125,195028.90625,173363.71875,168750.84375,192938.921875,688694.625,174144.0625,0.069091796875,0.987548828125,-0.197509765625,-1.8005369901657104,0.1220703050494194,0.5798339247703552,100.0,204847.0,1.0
15:03:49.424613,177381.03125,181195.765625,195041.59375,173359.609375,168752.453125,192968.78125,688581.125,174145.40625,0.068115234375,0.98681640625,-0.196044921875,-1.6479490995407104,0.1220703050494194,0.5493163466453552,100.0,204848.0,1.0
15:03:49.424623,177439.78125,181206.578125,195054.390625,173353.171875,168755.59375,193017.875,688858.6875,174140.578125,0.067626953125,0.985595703125,-0.19482421875,-1.5869139432907104,0.1831054538488388,0.4272460639476776,100.0,204849.0,1.0
15:03:49.432090,177382.640625,181193.796875,195039.0,173351.28125,168750.578125,192993.015625,688949.75,174137.890625,0.067138671875,0.985107421875,-0.197509765625,-1.5869139432907104,0.1525878757238388,0.3356933295726776,100.0,204850.0,1.0
15:03:49.432115,177315.59375,181164.109375,195009.328125,173343.0625,168730.46875,192921.140625,688743.5625,174128.5,0.067626953125,0.984375,-0.195068359375,-1.5869139432907104,0.3051757514476776,0.3051757514476776,100.0,204851.0,1.0
15:03:49.438329,177348.21875,181171.890625,195020.40625,173349.140625,168734.578125,192935.890625,688552.5625,174135.65625,0.06640625,0.982666015625,-0.1953125,-1.4648436307907104,0.3967284858226776,0.3356933295726776,100.0,204852.0,1.0
15:03:49.438339,177427.53125,181184.40625,195042.140625,173348.875,168743.25,192990.609375,688790.6875,174141.109375,0.066650390625,0.983642578125,-0.1953125,-1.4038084745407104,0.4272460639476776,0.1831054538488388,100.0,204853.0,1.0
15:03:49.447037,177387.296875,181180.390625,195036.59375,173350.21875,168746.46875,192987.921875,688943.125,174142.09375,0.068603515625,0.98583984375,-0.197509765625,-1.3732908964157104,0.4272460639476776,0.1220703050494194,100.0,204854.0,1.0
15:03:49.447047,177329.0,181164.390625,195019.6875,173353.96875,168740.5625,192930.875,688772.6875,174143.25,0.069580078125,0.988037109375,-0.1982421875,-1.3122557401657104,0.3356933295726776,0.0610351525247097,100.0,204855.0,1.0
15:03:49.454584,177343.84375,181172.609375,195028.90625,173359.78125,168746.828125,192939.015625,688544.8125,174150.5,0.06982421875,0.989990234375,-0.198486328125,-1.2207030057907104,0.2746581733226776,0.0610351525247097,100.0,204856.0,1.0
15:03:49.454594,177435.21875,181194.6875,195053.578125,173354.328125,168756.21875,193000.53125,688742.9375,174149.609375,0.068603515625,0.99169921875,-0.198974609375,-1.1596678495407104,0.3051757514476776,0.0,100.0,204857.0,1.0
15:03:49.456445,177418.140625,181207.75,195062.4375,173362.109375,168769.53125,193021.53125,688945.5,174154.515625,0.0673828125,0.990234375,-0.197021484375,-1.1596678495407104,0.4577636420726776,0.03051757626235485,100.0,204858.0,1.0
15:03:49.467182,177358.328125,181191.109375,195043.5625,173367.203125,168760.0625,192959.578125,688820.0,174156.84375,0.06396484375,0.9873046875,-0.1982421875,-1.0986326932907104,0.4577636420726776,0.0610351525247097,100.0,204859.0,1.0
15:03:49.467194,177346.53125,181195.859375,195042.046875,173367.640625,168757.375,192948.578125,688567.9375,174156.390625,0.0634765625,0.987060546875,-0.19384765625,-1.0375975370407104,0.4577636420726776,-0.03051757626235485,100.0,204860.0,1.0
15:03:49.474563,177431.640625,181204.625,195056.265625,173359.15625,168754.875,192993.90625,688697.0,174152.546875,0.060302734375,0.986572265625,-0.195068359375,-0.9765624403953552,0.3967284858226776,-0.1220703050494194,100.0,204861.0,1.0
15:03:49.474573,177431.203125,181213.203125,195061.265625,173362.46875,168762.921875,193022.078125,688939.375,174155.328125,0.057861328125,0.98681640625,-0.197509765625,-0.9765624403953552,0.2746581733226776,-0.0915527269244194,100.0,204862.0,1.0
15:03:49.480789,177367.1875,181194.0625,195041.515625,173361.21875,168753.796875,192966.546875,688870.5,174150.859375,0.056640625,0.98974609375,-0.1962890625,-0.8850097060203552,0.1831054538488388,-0.1831054538488388,100.0,204863.0,1.0
15:03:49.480799,177329.984375,181182.796875,195027.46875,173356.65625,168743.25,192931.5,688609.375,174143.171875,0.054931640625,0.9921875,-0.1953125,-0.8850097060203552,-0.03051757626235485,-0.3051757514476776,100.0,204864.0,1.0
15:03:49.482751,177412.421875,181194.0625,195045.4375,173354.59375,168745.671875,192976.75,688654.0625,174143.4375,0.0537109375,0.9970703125,-0.194580078125,-0.8850097060203552,-0.1525878757238388,-0.3051757514476776,100.0,204865.0,1.0
15:03:49.492783,177430.125,181200.765625,195051.25,173354.6875,168749.0625,193011.25,688920.25,174141.90625,0.052734375,0.99853515625,-0.1962890625,-1.0375975370407104,-0.2441406100988388,-0.5187987685203552,100.0,204866.0,1.0
15:03:49.497094,177370.671875,181189.78125,195034.984375,173356.921875,168742.796875,192967.796875,688899.5625,174137.359375,0.05419921875,1.000732421875,-0.192626953125,-1.1596678495407104,-0.3356933295726776,-0.4577636420726776,100.0,204867.0,1.0
15:03:49.497106,177330.609375,181186.734375,195026.9375,173359.515625,168739.046875,192931.421875,688650.375,174134.3125,0.05615234375,1.001220703125,-0.192138671875,-1.3122557401657104,-0.4882812201976776,-0.3662109076976776,100.0,204868.0,1.0
15:03:49.506427,177402.765625,181201.21875,195045.171875,173355.75,168743.96875,192970.84375,688606.75,174133.234375,0.05712890625,1.001220703125,-0.19091796875,-1.4648436307907104,-0.5798339247703552,-0.2136230319738388,100.0,204869.0,1.0
15:03:49.513905,177446.84375,181215.875,195060.015625,173356.828125,168754.609375,193020.015625,688889.1875,174135.828125,0.058349609375,1.001220703125,-0.19140625,-1.6174315214157104,-0.6713866591453552,-0.3051757514476776,100.0,204870.0,1.0
15:03:49.513911,177386.140625,181201.9375,195042.578125,173353.96875,168748.890625,192985.0625,688928.75,174133.328125,0.060302734375,0.999755859375,-0.195068359375,-1.7089842557907104,-0.7629393935203552,-0.1525878757238388,100.0,204871.0,1.0
15:03:49.513913,177333.921875,181187.359375,195025.15625,173352.359375,168740.125,192932.578125,688705.375,174131.8125,0.06298828125,0.999267578125,-0.194091796875,-1.8005369901657104,-0.7934569716453552,-0.0915527269244194,100.0,204872.0,1.0
15:03:49.516712,177379.421875,181193.796875,195033.90625,173348.875,168740.5625,192957.078125,688580.3125,174133.78125,0.064697265625,0.99755859375,-0.192138671875,-1.8310545682907104,-0.8850097060203552,0.0915527269244194,100.0,204873.0,1.0
15:03:49.522868,177436.5625,181199.15625,195044.015625,173344.40625,168742.890625,193003.03125,688858.25,174133.78125,0.06298828125,0.997314453125,-0.193115234375,-2.044677495956421,-0.8544921278953552,0.3356933295726776,100.0,204874.0,1.0
15:03:49.530825,177388.546875,181193.0,195036.0625,173352.453125,168744.765625,192986.140625,688952.5625,174140.125,0.06298828125,0.994140625,-0.1923828125,-2.105712652206421,-0.7629393935203552,0.3967284858226776,100.0,204875.0,1.0
15:03:49.530835,177330.96875,181176.0,195019.34375,173356.828125,168738.515625,192928.375,688748.5625,174143.703125,0.0615234375,0.994384765625,-0.1962890625,-2.014159917831421,-0.8239745497703552,0.5187987685203552,100.0,204876.0,1.0
15:03:49.539574,177360.46875,181187.265625,195031.765625,173360.859375,168747.71875,192949.296875,688556.1875,174150.140625,0.060302734375,0.99267578125,-0.193603515625,-2.075195074081421,-0.7019042372703552,0.6408690810203552,100.0,204877.0,1.0
15:03:49.539584,177441.296875,181202.5625,195051.703125,173357.546875,168756.578125,193004.90625,688793.625,174151.75,0.061767578125,0.994384765625,-0.192138671875,-2.044677495956421,-0.7629393935203552,0.7019042372703552,100.0,204878.0,1.0
15:03:49.579553,177412.59375,181211.234375,195053.84375,173367.5625,168767.65625,193012.78125,688957.3125,174159.96875,0.0615234375,0.9912109375,-0.19189453125,-2.136230230331421,-0.7629393935203552,0.8239745497703552,100.0,204879.0,1.0
15:03:49.579576,177351.4375,181191.03125,195034.53125,173368.0,168759.796875,192950.546875,688800.6875,174158.625,0.0625,0.989990234375,-0.189208984375,-2.197265386581421,-0.7629393935203552,0.8544921278953552,100.0,204880.0,1.0
15:03:49.586466,177357.53125,181197.90625,195039.71875,173369.609375,168763.453125,192954.578125,688571.8125,174162.03125,0.062255859375,0.9912109375,-0.1904296875,-2.258300542831421,-0.7629393935203552,0.8544921278953552,100.0,204881.0,1.0
15:03:49.589675,177442.28125,181215.078125,195057.328125,173361.296875,168766.046875,193012.328125,688765.125,174158.359375,0.059326171875,0.990478515625,-0.190185546875,-2.197265386581421,-0.7324218153953552,0.7629393935203552,100.0,204882.0,1.0
15:03:49.589701,177415.8125,181211.953125,195052.5,173355.75,168765.328125,193021.359375,688959.375,174148.796875,0.063232421875,0.989990234375,-0.18798828125,-2.166747808456421,-0.8239745497703552,0.7324218153953552,100.0,204883.0,1.0
15:03:49.591539,177354.9375,181191.203125,195033.640625,173359.953125,168757.109375,192959.3125,688831.0625,174149.6875,0.06298828125,0.986083984375,-0.188232421875,-2.105712652206421,-0.8850097060203552,0.6103515028953552,100.0,204884.0,1.0
15:03:49.594282,177345.359375,181197.28125,195039.625,173365.765625,168764.625,192951.796875,688578.4375,174154.703125,0.064208984375,0.986328125,-0.187744140625,-2.075195074081421,-0.8544921278953552,0.6408690810203552,100.0,204885.0,1.0
15:03:49.596556,177440.859375,181214.90625,195065.296875,173366.578125,168774.453125,193007.859375,688687.5,174158.8125,0.06494140625,0.98583984375,-0.188720703125,-2.136230230331421,-1.0070799589157104,0.4882812201976776,100.0,204886.0,1.0
15:03:49.599031,177443.265625,181224.90625,195071.46875,173368.28125,168781.96875,193037.71875,688941.25,174158.984375,0.065673828125,0.98681640625,-0.188232421875,-2.014159917831421,-0.9155272841453552,0.4577636420726776,100.0,204887.0,1.0
15:03:49.602061,177374.59375,181200.140625,195046.0625,173361.75,168765.953125,192974.875,688871.4375,174151.296875,0.06689453125,0.986083984375,-0.189208984375,-1.7700194120407104,-0.7934569716453552,0.4577636420726776,100.0,204888.0,1.0
15:03:49.602068,177345.09375,181197.90625,195038.921875,173364.875,168761.765625,192945.09375,688610.25,174151.65625,0.065673828125,0.986572265625,-0.1904296875,-1.7700194120407104,-0.6408690810203552,0.3967284858226776,100.0,204889.0,1.0
15:03:49.604081,177416.984375,181200.140625,195045.625,173350.125,168752.109375,192977.8125,688640.125,174139.5,0.0673828125,0.984130859375,-0.190185546875,-1.7089842557907104,-0.4577636420726776,0.2441406100988388,100.0,204890.0,1.0
15:03:49.606438,177438.265625,181212.484375,195053.9375,173348.34375,168755.140625,193017.0625,688918.4375,174133.15625,0.069580078125,0.98486328125,-0.1904296875,-1.6479490995407104,-0.3356933295726776,0.1831054538488388,100.0,204891.0,1.0
15:03:49.608952,177383.453125,181204.890625,195041.421875,173354.859375,168752.90625,192977.90625,688911.1875,174136.015625,0.071044921875,0.984375,-0.18994140625,-1.5258787870407104,-0.1525878757238388,0.1525878757238388,100.0,204892.0,1.0
15:03:49.611437,177341.703125,181194.0625,195029.984375,173354.234375,168747.28125,192935.53125,688665.875,174131.546875,0.071044921875,0.983642578125,-0.193359375,-1.4038084745407104,0.1220703050494194,0.2441406100988388,100.0,204893.0,1.0
15:03:49.614629,177401.875,181203.015625,195041.6875,173342.875,168747.8125,192971.375,688602.9375,174123.578125,0.0703125,0.982666015625,-0.1962890625,-1.3427733182907104,0.1831054538488388,0.1831054538488388,100.0,204894.0,1.0
15:03:49.614647,177444.609375,181213.5625,195054.03125,173340.375,168755.40625,193019.03125,688880.875,174122.78125,0.0703125,0.983154296875,-0.1943359375,-1.0986326932907104,0.3356933295726776,0.2746581733226776,100.0,204895.0,1.0
15:03:49.616403,177394.984375,181208.546875,195047.671875,173353.078125,168761.578125,192994.265625,688937.1875,174135.390625,0.068603515625,0.9853515625,-0.193115234375,-1.0070799589157104,0.4882812201976776,0.2441406100988388,100.0,204896.0,1.0
15:03:49.619751,177334.8125,181184.671875,195024.078125,173350.125,168747.71875,192933.03125,688704.9375,174133.59375,0.067626953125,0.985595703125,-0.19580078125,-0.8544921278953552,0.5493163466453552,0.2136230319738388,100.0,204897.0,1.0
15:03:49.619780,177377.90625,181190.671875,195033.640625,173348.875,168748.796875,192956.0,688558.5625,174138.96875,0.06494140625,0.986083984375,-0.193603515625,-0.7324218153953552,0.6713866591453552,0.0915527269244194,100.0,204898.0,1.0
15:03:49.621438,177447.203125,181205.328125,195053.9375,173354.953125,168759.515625,193008.75,688826.625,174148.625,0.0634765625,0.985595703125,-0.192138671875,-0.5798339247703552,0.6713866591453552,0.2136230319738388,100.0,204899.0,1.0
15:03:49.632194,177401.15625,181203.1875,195046.34375,173364.34375,168763.8125,192997.390625,688938.625,174156.21875,0.0615234375,0.98681640625,-0.192626953125,-0.4577636420726776,0.6103515028953552,0.2441406100988388,100.0,204900.0,1.0
15:03:49.632226,177342.421875,181187.71875,195027.65625,173361.03125,168756.84375,192939.734375,688746.625,174152.640625,0.059326171875,0.98876953125,-0.19384765625,-0.4272460639476776,0.7324218153953552,0.2136230319738388,100.0,204901.0,1.0
15:03:49.634001,177369.953125,181199.703125,195039.09375,173361.75,168763.09375,192957.515625,688543.8125,174153.09375,0.059814453125,0.98974609375,-0.197265625,-0.3662109076976776,0.7629393935203552,0.2441406100988388,100.0,204902.0,1.0
15:03:49.644095,177454.890625,181217.765625,195064.046875,173363.171875,168774.1875,193018.859375,688789.0,174158.359375,0.05908203125,0.98974609375,-0.196044921875,-0.3356933295726776,0.7934569716453552,0.1831054538488388,100.0,204903.0,1.0
15:03:49.647133,177418.40625,181216.421875,195061.71875,173367.296875,168777.859375,193020.015625,688939.875,174159.4375,0.056884765625,0.989501953125,-0.195068359375,-0.2136230319738388,0.8239745497703552,0.2136230319738388,100.0,204904.0,1.0
15:03:49.647152,177360.296875,181198.53125,195043.921875,173371.578125,168769.171875,192957.609375,688791.125,174160.859375,0.056884765625,0.990966796875,-0.195556640625,-0.1831054538488388,0.7019042372703552,0.2136230319738388,100.0,204905.0,1.0
15:03:49.674813,177372.984375,181213.640625,195054.828125,173378.28125,168778.75,192966.734375,688557.0625,174167.296875,0.056884765625,0.994384765625,-0.19482421875,-0.0610351525247097,0.6408690810203552,0.2136230319738388,100.0,204906.0,1.0
15:03:49.677077,177457.84375,181223.296875,195069.40625,173367.640625,168777.046875,193016.265625,688739.8125,174161.5,0.0556640625,0.992431640625,-0.19775390625,-0.03051757626235485,0.5493163466453552,0.3051757514476776,100.0,204907.0,1.0
15:03:49.677091,177435.390625,181219.734375,195065.5625,173368.359375,168776.421875,193025.03125,688948.8125,174159.34375,0.05517578125,0.99169921875,-0.197021484375,-0.03051757626235485,0.4272460639476776,0.3967284858226776,100.0,204908.0,1.0
15:03:49.679094,177371.203125,181197.28125,195042.5,173368.8125,168763.1875,192960.03125,688837.6875,174156.84375,0.056640625,0.993408203125,-0.19580078125,0.03051757626235485,0.3051757514476776,0.3356933295726776,100.0,204909.0,1.0
15:03:49.681420,177356.0,181197.46875,195041.6875,173372.46875,168761.9375,192943.671875,688588.375,174158.1875,0.05517578125,0.993408203125,-0.19921875,0.03051757626235485,0.2136230319738388,0.4577636420726776,100.0,204910.0,1.0
15:03:49.684307,177444.515625,181210.34375,195059.296875,173367.640625,168761.671875,192989.078125,688679.0,174156.75,0.05517578125,0.993408203125,-0.2021484375,0.0,0.2136230319738388,0.4882812201976776,100.0,204911.0,1.0
15:03:49.686406,177443.890625,181216.15625,195060.734375,173364.078125,168762.65625,193014.296875,688927.8125,174149.0625,0.05712890625,0.994873046875,-0.200927734375,0.0915527269244194,0.1525878757238388,0.4882812201976776,100.0,204912.0,1.0
15:03:49.688973,177380.765625,181200.421875,195041.515625,173364.078125,168755.140625,192961.546875,688869.0625,174145.3125,0.05859375,0.994384765625,-0.199462890625,-0.0610351525247097,0.03051757626235485,0.5798339247703552,100.0,204913.0,1.0
15:03:49.692729,177352.421875,181200.5,195040.078125,173368.453125,168756.65625,192936.78125,688610.25,174144.953125,0.057861328125,0.996826171875,-0.198974609375,-0.0610351525247097,0.0,0.6408690810203552,100.0,204914.0,1.0
15:03:49.692734,177433.875,181213.921875,195060.640625,173365.40625,168760.234375,192983.0,688617.5,174145.40625,0.059326171875,0.997802734375,-0.197509765625,-0.1525878757238388,-0.0915527269244194,0.6408690810203552,100.0,204915.0,1.0
15:03:49.692736,177452.203125,181222.046875,195064.9375,173357.015625,168761.125,193022.171875,688883.3125,174138.96875,0.0595703125,0.995849609375,-0.197265625,-0.2441406100988388,-0.0610351525247097,0.7629393935203552,100.0,204916.0,1.0
15:03:49.695806,177388.375,181202.734375,195047.140625,173356.828125,168754.78125,192978.796875,688890.375,174138.421875,0.06103515625,0.9951171875,-0.19921875,-0.3967284858226776,-0.1220703050494194,0.9155272841453552,100.0,204917.0,1.0
15:03:49.695808,177335.265625,181189.78125,195027.5625,173351.28125,168745.046875,192935.96875,688654.125,174132.34375,0.060791015625,0.99755859375,-0.197265625,-0.4577636420726776,-0.1831054538488388,0.8544921278953552,100.0,204918.0,1.0
15:03:49.701421,177398.46875,181206.3125,195042.5,173350.921875,168750.140625,192977.1875,688589.125,174135.5625,0.06005859375,0.99560546875,-0.19677734375,-0.6713866591453552,-0.0610351525247097,0.9155272841453552,100.0,204919.0,1.0
15:03:49.712124,177440.765625,181213.46875,195052.5,173348.609375,168754.421875,193021.890625,688879.75,174135.03125,0.059326171875,0.99267578125,-0.197265625,-0.7324218153953552,-0.1220703050494194,0.9765624403953552,100.0,204920.0,1.0
15:03:49.712143,177383.8125,181198.453125,195040.96875,173357.09375,168755.765625,192988.453125,688926.3125,174142.53125,0.061767578125,0.990966796875,-0.19775390625,-0.8850097060203552,-0.2136230319738388,0.9155272841453552,100.0,204921.0,1.0
15:03:49.714009,177327.65625,181181.640625,195024.875,173360.671875,168749.515625,192932.3125,688709.375,174146.296875,0.06103515625,0.98974609375,-0.197265625,-1.0681151151657104,-0.2136230319738388,0.9765624403953552,100.0,204922.0,1.0
15:03:49.720316,177375.9375,181194.96875,195039.546875,173362.90625,168757.015625,192961.28125,688559.4375,174153.984375,0.060791015625,0.989501953125,-0.199951171875,-1.0681151151657104,-0.2746581733226776,1.1291502714157104,100.0,204923.0,1.0
15:03:49.727121,177440.046875,181204.078125,195053.3125,173358.265625,168762.03125,193011.34375,688831.4375,174153.53125,0.06396484375,0.990478515625,-0.200927734375,-1.0681151151657104,-0.1831054538488388,1.0375975370407104,100.0,204924.0,1.0
15:03:49.727136,177398.390625,181207.75,195054.5625,173371.140625,168771.859375,193007.234375,688947.75,174162.75,0.06494140625,0.992919921875,-0.2021484375,-1.0986326932907104,-0.2136230319738388,1.0986326932907104,100.0,204925.0,1.0
15:03:49.732705,177339.546875,181187.359375,195034.453125,173369.4375,168761.046875,192942.140625,688753.3125,174160.15625,0.06640625,0.991943359375,-0.19775390625,-1.2512205839157104,-0.2136230319738388,1.0070799589157104,100.0,204926.0,1.0
15:03:49.739556,177365.390625,181198.71875,195043.03125,173370.0625,168764.265625,192955.015625,688547.125,174161.5,0.0673828125,0.98974609375,-0.196044921875,-1.2817381620407104,-0.1525878757238388,1.0681151151657104,100.0,204927.0,1.0
15:03:49.739565,177454.078125,181219.8125,195066.8125,173371.140625,168775.171875,193017.0625,688773.9375,174165.609375,0.06591796875,0.989013671875,-0.20166015625,-1.4343260526657104,-0.03051757626235485,0.9765624403953552,100.0,204928.0,1.0
15:03:49.747080,177414.203125,181213.296875,195057.6875,173366.9375,168773.203125,193013.671875,688941.875,174159.703125,0.0634765625,0.984619140625,-0.19873046875,-1.4648436307907104,-0.03051757626235485,0.8850097060203552,100.0,204929.0,1.0
15:03:49.747095,177355.015625,181193.265625,195037.390625,173368.1875,168762.296875,192949.828125,688790.75,174157.828125,0.062255859375,0.984130859375,-0.20166015625,-1.5563963651657104,0.03051757626235485,0.9155272841453552,100.0,204930.0,1.0
15:03:49.751507,177360.5625,181200.765625,195043.5625,173375.609375,168764.171875,192950.109375,688556.4375,174162.125,0.061767578125,0.98779296875,-0.202880859375,-1.5258787870407104,0.03051757626235485,0.8850097060203552,100.0,204931.0,1.0
15:03:49.755305,177453.71875,181217.9375,195064.9375,173374.796875,168768.828125,193006.421875,688734.6875,174165.0625,0.061279296875,0.98876953125,-0.200439453125,-1.4038084745407104,0.0915527269244194,0.7324218153953552,100.0,204932.0,1.0
15:03:49.765784,177428.609375,181211.328125,195055.453125,173368.28125,168760.953125,193014.125,688944.5625,174155.40625,0.062744140625,0.990966796875,-0.199462890625,-1.5258787870407104,0.0915527269244194,0.5187987685203552,100.0,204933.0,1.0
15:03:49.765795,177359.21875,181181.640625,195028.640625,173364.25,168744.0625,192940.53125,688833.6875,174150.140625,0.063232421875,0.989990234375,-0.19970703125,-1.6174315214157104,0.0610351525247097,0.4272460639476776,100.0,204934.0,1.0
15:03:49.769521,177348.5,181189.5,195034.453125,173373.8125,168750.21875,192926.046875,688581.75,174159.796875,0.063232421875,0.9912109375,-0.197509765625,-1.8615721464157104,0.1220703050494194,0.3356933295726776,100.0,204935.0,1.0
15:03:49.769531,177439.78125,181206.578125,195057.0625,173371.21875,168756.03125,192977.1875,688666.5625,174159.96875,0.061767578125,0.990966796875,-0.202392578125,-1.8920897245407104,0.0915527269244194,0.3356933295726776,100.0,204936.0,1.0
15:03:49.786445,177444.96875,181214.8125,195061.71875,173370.328125,168761.21875,193006.078125,688924.8125,174156.3125,0.0634765625,0.987060546875,-0.204345703125,-1.9531248807907104,0.1525878757238388,0.2746581733226776,100.0,204937.0,1.0
15:03:49.790256,177376.203125,181194.96875,195038.375,173364.4375,168748.796875,192950.1875,688875.3125,174148.625,0.061767578125,0.98974609375,-0.2041015625,-1.9531248807907104,0.0915527269244194,0.1220703050494194,100.0,204938.0,1.0
15:03:49.790275,177341.703125,181194.25,195033.546875,173366.671875,168748.4375,192928.28125,688616.5,174149.875,0.0634765625,0.99169921875,-0.2001953125,-1.9531248807907104,0.1220703050494194,0.1220703050494194,100.0,204939.0,1.0
15:03:49.790278,177419.75,181204.078125,195050.453125,173360.140625,168750.84375,192968.609375,688628.3125,174147.8125,0.0634765625,0.9931640625,-0.200927734375,-1.9531248807907104,0.0915527269244194,0.0915527269244194,100.0,204940.0,1.0
15:03:49.793314,177447.28125,181210.78125,195062.4375,173365.765625,168760.59375,193008.84375,688912.875,174152.734375,0.06494140625,0.99365234375,-0.20458984375,-2.014159917831421,0.1220703050494194,0.1220703050494194,100.0,204941.0,1.0
15:03:49.793324,177387.921875,181199.609375,195050.09375,173372.125,168761.40625,192977.109375,688912.6875,174156.9375,0.065673828125,0.9951171875,-0.201171875,-2.136230230331421,0.0610351525247097,0.2136230319738388,100.0,204942.0,1.0
15:03:49.795222,177343.125,181194.0625,195039.546875,173370.59375,168760.328125,192940.171875,688669.5,174153.796875,0.064697265625,0.994140625,-0.202880859375,-2.227782964706421,0.0915527269244194,0.2441406100988388,100.0,204943.0,1.0
15:03:49.812719,177406.4375,181206.9375,195056.796875,173369.34375,168766.9375,192973.171875,688602.1875,174156.671875,0.065185546875,0.9931640625,-0.198974609375,-2.288818120956421,0.1831054538488388,0.3356933295726776,100.0,204944.0,1.0
15:03:49.816443,177450.15625,181214.984375,195065.203125,173363.09375,168769.625,193019.921875,688886.9375,174152.375,0.065673828125,0.993896484375,-0.19921875,-2.319335699081421,0.2136230319738388,0.3662109076976776,100.0,204945.0,1.0
15:03:49.816457,177398.65625,181209.984375,195056.4375,173372.125,168769.453125,192996.59375,688939.8125,174158.90625,0.06298828125,0.991943359375,-0.198974609375,-2.349853277206421,0.0915527269244194,0.4272460639476776,100.0,204946.0,1.0
15:03:49.816458,177341.25,181191.203125,195037.578125,173367.109375,168756.84375,192942.234375,688711.4375,174152.546875,0.060791015625,0.99072265625,-0.19921875,-2.349853277206421,0.2136230319738388,0.4882812201976776,100.0,204947.0,1.0
15:03:49.819494,177393.109375,181209.71875,195059.125,173376.046875,168769.890625,192972.0,688572.4375,174166.671875,0.059814453125,0.991455078125,-0.197998046875,-2.319335699081421,0.1831054538488388,0.5493163466453552,100.0,204948.0,1.0
15:03:49.819496,177462.671875,181223.84375,195076.828125,173375.6875,168777.671875,193024.046875,688840.0,174168.28125,0.058349609375,0.992431640625,-0.197509765625,-2.471923589706421,0.1525878757238388,0.6103515028953552,100.0,204949.0,1.0
15:03:49.826418,177412.234375,181216.78125,195065.109375,173370.328125,168774.90625,193009.203125,688955.75,174162.390625,0.060302734375,0.993408203125,-0.197998046875,-2.471923589706421,0.1831054538488388,0.6103515028953552,100.0,204950.0,1.0
15:03:49.830223,177355.828125,181203.28125,195049.640625,173373.453125,168767.125,192950.90625,688766.6875,174162.203125,0.05908203125,0.992431640625,-0.197998046875,-2.563476324081421,0.03051757626235485,0.5187987685203552,100.0,204951.0,1.0
15:03:49.837712,177375.765625,181210.78125,195058.234375,173377.125,168768.90625,192967.0,688555.8125,174164.890625,0.059326171875,0.99267578125,-0.19775390625,-2.502441167831421,0.0,0.5493163466453552,100.0,204952.0,1.0
15:03:49.844702,177450.859375,181217.765625,195069.859375,173364.25,168767.03125,193017.78125,688789.25,174155.5,0.05908203125,0.993408203125,-0.193115234375,-2.532958745956421,-0.1220703050494194,0.6713866591453552,100.0,204953.0,1.0
15:03:49.844775,177419.390625,181217.84375,195067.34375,173367.375,168770.515625,193010.90625,688954.4375,174155.40625,0.056640625,0.994140625,-0.197265625,-2.532958745956421,-0.2746581733226776,0.6103515028953552,100.0,204954.0,1.0
15:03:49.850839,177364.40625,181203.90625,195053.671875,173374.984375,168766.234375,192954.21875,688800.875,174160.859375,0.059814453125,0.99365234375,-0.1982421875,-2.532958745956421,-0.2746581733226776,0.5798339247703552,100.0,204955.0,1.0
15:03:49.850853,177364.59375,181209.71875,195058.40625,173380.515625,168768.90625,192954.125,688564.125,174166.671875,0.0634765625,0.992919921875,-0.193603515625,-2.655029058456421,-0.2136230319738388,0.4882812201976776,100.0,204956.0,1.0
15:03:49.857737,177454.53125,181225.625,195075.125,173377.484375,168770.703125,193007.234375,688731.125,174167.75,0.0634765625,0.9921875,-0.1943359375,-2.868652105331421,-0.2136230319738388,0.5187987685203552,100.0,204957.0,1.0
15:03:49.868379,177439.6875,181223.84375,195074.234375,173378.46875,168775.078125,193020.5625,688960.75,174169.625,0.063720703125,0.99169921875,-0.19384765625,-2.807616949081421,-0.1525878757238388,0.5493163466453552,100.0,204958.0,1.0
15:03:49.868397,177372.453125,181200.59375,195050.8125,173372.921875,168761.84375,192958.953125,688860.3125,174163.8125,0.0634765625,0.992431640625,-0.193115234375,-2.777099370956421,-0.0610351525247097,0.5187987685203552,100.0,204959.0,1.0
15:03:49.870821,177345.90625,181196.03125,195043.03125,173370.515625,168755.59375,192935.171875,688599.0,174159.53125,0.06591796875,0.992431640625,-0.193359375,-2.899169683456421,-0.03051757626235485,0.6103515028953552,100.0,204960.0,1.0
15:03:49.870828,177433.96875,181212.84375,195061.453125,173362.375,168761.671875,192988.8125,688686.0,174158.625,0.06689453125,0.990234375,-0.1923828125,-2.929687261581421,0.0610351525247097,0.4882812201976776,100.0,204961.0,1.0
15:03:49.877098,177439.875,181223.390625,195068.515625,173362.1875,168771.421875,193025.203125,688950.625,174159.96875,0.06591796875,0.98876953125,-0.193115234375,-2.838134527206421,0.0915527269244194,0.6103515028953552,100.0,204962.0,1.0
15:03:49.877107,177377.28125,181207.390625,195049.921875,173363.796875,168764.265625,192973.703125,688900.625,174159.078125,0.06640625,0.989013671875,-0.194580078125,-2.868652105331421,0.1831054538488388,0.5187987685203552,100.0,204963.0,1.0
15:03:49.882728,177339.46875,181194.96875,195037.671875,173365.328125,168755.953125,192935.703125,688631.625,174155.234375,0.065673828125,0.987060546875,-0.195068359375,-2.899169683456421,0.3662109076976776,0.4577636420726776,100.0,204964.0,1.0
15:03:49.893687,177414.125,181202.5625,195053.21875,173361.5625,168758.453125,192976.828125,688630.1875,174154.703125,0.065185546875,0.9873046875,-0.19384765625,-2.838134527206421,0.2746581733226776,0.3662109076976776,100.0,204965.0,1.0
15:03:49.893770,177448.0,181217.765625,195066.359375,173363.265625,168769.890625,193025.921875,688916.0,174156.3125,0.0654296875,0.98779296875,-0.191650390625,-2.838134527206421,0.2746581733226776,0.5187987685203552,100.0,204966.0,1.0
15:03:49.900862,177386.765625,181204.96875,195048.484375,173363.71875,168762.46875,192985.859375,688924.4375,174153.890625,0.066162109375,0.98974609375,-0.191650390625,-2.746581792831421,0.3356933295726776,0.3967284858226776,100.0,204967.0,1.0
15:03:49.900877,177347.875,181199.796875,195042.765625,173373.375,168761.3125,192943.3125,688687.25,174160.59375,0.0654296875,0.988037109375,-0.19140625,-2.655029058456421,0.3967284858226776,0.3662109076976776,100.0,204968.0,1.0
15:03:49.903610,177406.78125,181211.234375,195055.90625,173366.578125,168762.46875,192976.65625,688602.1875,174157.46875,0.06494140625,0.98876953125,-0.191650390625,-2.655029058456421,0.4272460639476776,0.4882812201976776,100.0,204969.0,1.0
15:03:49.903632,177463.46875,181229.03125,195076.203125,173367.46875,168775.703125,193032.625,688885.375,174161.5,0.064208984375,0.9892578125,-0.1904296875,-2.532958745956421,0.4882812201976776,0.4577636420726776,100.0,204970.0,1.0
15:03:49.933978,177403.65625,181213.109375,195057.515625,173363.171875,168769.453125,193000.96875,688949.375,174156.3125,0.064208984375,0.988037109375,-0.190673828125,-2.532958745956421,0.5187987685203552,0.3356933295726776,100.0,204971.0,1.0
15:03:49.973912,177348.9375,181196.21875,195040.34375,173363.53125,168762.203125,192942.765625,688724.5,174156.671875,0.063720703125,0.9873046875,-0.1875,-2.471923589706421,0.5493163466453552,0.4882812201976776,100.0,204972.0,1.0
15:03:49.973925,177389.359375,181206.5,195054.5625,173366.046875,168767.03125,192966.109375,688566.5625,174160.859375,0.061279296875,0.985595703125,-0.18798828125,-2.410888433456421,0.6103515028953552,0.5493163466453552,100.0,204973.0,1.0
15:03:49.973927,177467.578125,181226.4375,195079.328125,173372.46875,168779.546875,193024.21875,688837.1875,174167.578125,0.062744140625,0.983642578125,-0.191162109375,-2.288818120956421,0.5798339247703552,0.5187987685203552,100.0,204974.0,1.0
15:03:49.987097,177419.578125,181217.40625,195069.859375,173378.015625,168778.03125,193011.96875,688961.0625,174169.359375,0.06201171875,0.985595703125,-0.190185546875,-2.136230230331421,0.6103515028953552,0.4272460639476776,100.0,204975.0,1.0
15:03:49.987105,177363.421875,181197.375,195053.484375,173383.46875,168771.234375,192950.8125,688778.1875,174170.875,0.059814453125,0.9873046875,-0.19140625,-2.014159917831421,0.4882812201976776,0.4272460639476776,100.0,204976.0,1.0
15:03:49.988983,177375.234375,181200.5,195053.484375,173373.734375,168768.28125,192958.6875,688559.375,174161.9375,0.0595703125,0.988037109375,-0.190673828125,-1.9531248807907104,0.4577636420726776,0.4882812201976776,100.0,204977.0,1.0
15:03:49.991442,177460.25,181219.015625,195074.328125,173370.6875,168774.640625,193017.25,688784.0625,174163.734375,0.0595703125,0.9873046875,-0.190673828125,-1.8615721464157104,0.3356933295726776,0.6103515028953552,100.0,204978.0,1.0
15:03:49.994043,177431.546875,181225.1875,195074.953125,173375.25,168781.515625,193029.3125,688969.875,174168.015625,0.06005859375,0.987060546875,-0.189697265625,-1.7089842557907104,0.3662109076976776,0.5187987685203552,100.0,204979.0,1.0
15:03:49.996585,177366.734375,181203.015625,195051.53125,173373.640625,168769.171875,192963.609375,688815.875,174163.109375,0.0595703125,0.988037109375,-0.190673828125,-1.7089842557907104,0.2746581733226776,0.5798339247703552,100.0,204980.0,1.0
15:03:49.999053,177355.5625,181200.140625,195044.8125,173362.28125,168761.765625,192952.421875,688561.5,174153.171875,0.061279296875,0.988037109375,-0.18798828125,-1.5869139432907104,0.2441406100988388,0.6103515028953552,100.0,204981.0,1.0
15:03:50.001542,177448.8125,181216.59375,195065.828125,173362.109375,168768.375,193009.109375,688725.0625,174157.46875,0.061279296875,0.989013671875,-0.18896484375,-1.5563963651657104,0.1220703050494194,0.5187987685203552,100.0,204982.0,1.0
15:03:50.003948,177446.578125,181226.96875,195077.625,173372.5625,168783.03125,193037.546875,688954.5625,174164.984375,0.060302734375,0.990966796875,-0.190185546875,-1.4953612089157104,0.03051757626235485,0.6408690810203552,100.0,204983.0,1.0
15:03:50.006530,177394.71875,181217.578125,195070.203125,173386.875,168785.8125,192989.53125,688858.0625,174175.34375,0.0595703125,0.98974609375,-0.190185546875,-1.4343260526657104,0.1525878757238388,0.7019042372703552,100.0,204984.0,1.0
15:03:50.009007,177362.984375,181207.65625,195059.03125,173383.734375,168776.0625,192958.59375,688583.875,174170.078125,0.06103515625,0.99169921875,-0.19140625,-1.3732908964157104,0.1220703050494194,0.7629393935203552,100.0,204985.0,1.0
15:03:50.011458,177446.03125,181217.3125,195075.75,173375.96875,168776.0625,193001.15625,688655.375,174168.203125,0.060791015625,0.992919921875,-0.19091796875,-1.3732908964157104,0.0915527269244194,0.7629393935203552,100.0,204986.0,1.0
15:03:50.014068,177450.953125,181217.671875,195076.015625,173371.40625,168776.875,193028.15625,688915.5,174161.578125,0.061767578125,0.99267578125,-0.192138671875,-1.2512205839157104,-0.03051757626235485,0.8239745497703552,100.0,204987.0,1.0
15:03:50.016442,177388.1875,181199.609375,195056.796875,173373.28125,168769.625,192975.3125,688880.0,174159.890625,0.061767578125,0.992431640625,-0.189453125,-1.3122557401657104,0.0915527269244194,0.8239745497703552,100.0,204988.0,1.0
15:03:50.019025,177351.09375,181194.15625,195048.390625,173374.984375,168764.796875,192939.546875,688630.75,174160.421875,0.062255859375,0.993408203125,-0.18994140625,-1.2512205839157104,0.0,0.8850097060203552,100.0,204989.0,1.0
15:03:50.021505,177428.6875,181209.09375,195067.4375,173373.8125,168769.453125,192984.171875,688621.4375,174163.734375,0.060546875,0.994140625,-0.189697265625,-1.3122557401657104,0.0610351525247097,0.8544921278953552,100.0,204990.0,1.0
15:03:50.024055,177457.296875,181216.234375,195073.875,173369.890625,168771.859375,193024.21875,688899.9375,174159.96875,0.061767578125,0.991943359375,-0.189208984375,-1.3427733182907104,-0.0915527269244194,0.8239745497703552,100.0,204991.0,1.0
15:03:50.026492,177400.625,181204.34375,195059.578125,173375.609375,168767.75,192989.703125,688919.625,174162.921875,0.061767578125,0.99169921875,-0.191162109375,-1.2817381620407104,-0.0915527269244194,0.8544921278953552,100.0,204992.0,1.0
15:03:50.029592,177349.296875,181185.75,195039.8125,173374.53125,168754.6875,192936.609375,688677.3125,174158.1875,0.064697265625,0.9912109375,-0.19140625,-1.2817381620407104,-0.0915527269244194,0.7934569716453552,100.0,204993.0,1.0
15:03:50.029600,177407.953125,181197.828125,195052.859375,173373.015625,168757.109375,192969.40625,688582.0625,174158.1875,0.06494140625,0.991455078125,-0.192626953125,-1.2207030057907104,-0.0915527269244194,0.7324218153953552,100.0,204994.0,1.0
15:03:50.032740,177456.59375,181202.375,195061.0,173366.9375,168756.390625,193011.796875,688864.1875,174153.359375,0.066650390625,0.990234375,-0.19189453125,-1.0681151151657104,-0.2136230319738388,0.7324218153953552,100.0,204995.0,1.0
15:03:50.032758,177407.6875,181196.125,195054.203125,173375.875,168759.4375,192990.421875,688943.125,174161.765625,0.065185546875,0.991455078125,-0.19189453125,-1.0375975370407104,-0.2441406100988388,0.8239745497703552,100.0,204996.0,1.0
15:03:50.032762,177351.53125,181180.125,195035.96875,173371.9375,168747.8125,192932.578125,688725.5625,174157.5625,0.0654296875,0.990966796875,-0.194091796875,-1.0986326932907104,-0.1831054538488388,0.8239745497703552,100.0,204997.0,1.0
15:03:50.036758,177391.859375,181192.453125,195048.390625,173371.671875,168751.65625,192955.828125,688555.1875,174160.15625,0.06591796875,0.989990234375,-0.192626953125,-1.0681151151657104,-0.1525878757238388,0.7629393935203552,100.0,204998.0,1.0
15:03:50.036772,177465.96875,181207.203125,195066.1875,173366.3125,168758.71875,193012.515625,688810.625,174156.484375,0.06396484375,0.989013671875,-0.191162109375,-1.0375975370407104,-0.0610351525247097,0.6713866591453552,100.0,204999.0,1.0
15:03:50.037709,177422.703125,181203.90625,195060.46875,173370.859375,168762.03125,193007.5,688946.3125,174158.546875,0.064208984375,0.987548828125,-0.186767578125,-0.9765624403953552,0.0,0.7019042372703552,100.0,205000.0,1.0
15:03:50.040949,177356.453125,181182.171875,195036.953125,173366.671875,168747.984375,192944.109375,688770.3125,174153.796875,0.0634765625,0.9873046875,-0.19091796875,-0.9460448622703552,0.0,0.7324218153953552,100.0,205001.0,1.0
15:03:50.040959,177363.6875,181183.609375,195034.71875,173359.15625,168743.34375,192947.234375,688547.25,174147.71875,0.0654296875,0.9873046875,-0.19140625,-0.9155272841453552,0.03051757626235485,0.6713866591453552,100.0,205002.0,1.0
15:03:50.042675,177452.921875,181201.21875,195056.359375,173359.953125,168753.359375,193006.34375,688775.625,174152.828125,0.064453125,0.989013671875,-0.194580078125,-0.8850097060203552,0.0,0.7019042372703552,100.0,205003.0,1.0
15:03:50.045184,177426.015625,181204.796875,195057.0625,173366.3125,168761.84375,193018.046875,688960.8125,174156.84375,0.0654296875,0.98974609375,-0.19140625,-0.8544921278953552,-0.03051757626235485,0.6103515028953552,100.0,205004.0,1.0
15:03:50.047687,177360.203125,181183.515625,195034.71875,173362.90625,168750.578125,192954.390625,688815.1875,174151.84375,0.06591796875,0.990478515625,-0.192138671875,-0.8239745497703552,0.0610351525247097,0.6408690810203552,100.0,205005.0,1.0
15:03:50.055855,177357.796875,181190.21875,195041.15625,173366.484375,168756.84375,192952.0625,688566.8125,174156.9375,0.06494140625,0.98974609375,-0.192626953125,-0.7629393935203552,0.0610351525247097,0.5187987685203552,100.0,205006.0,1.0
15:03:50.055868,177446.84375,181205.953125,195060.46875,173357.28125,168763.28125,193008.125,688711.5625,174154.609375,0.06494140625,0.988525390625,-0.194091796875,-0.7324218153953552,0.1220703050494194,0.6408690810203552,100.0,205007.0,1.0
15:03:50.058320,177442.28125,181216.6875,195068.59375,173362.46875,168775.609375,193035.75,688951.3125,174159.796875,0.064453125,0.989501953125,-0.1953125,-0.6713866591453552,0.0915527269244194,0.5798339247703552,100.0,205008.0,1.0
15:03:50.058330,177383.453125,181199.796875,195051.4375,173368.71875,168769.984375,192979.703125,688859.9375,174164.265625,0.064208984375,0.990234375,-0.191650390625,-0.7629393935203552,0.0610351525247097,0.5187987685203552,100.0,205009.0,1.0
15:03:50.068961,177369.859375,181205.421875,195055.453125,173383.109375,168776.25,192964.3125,688604.0,174176.15625,0.062744140625,0.991943359375,-0.192626953125,-0.7019042372703552,0.1831054538488388,0.5187987685203552,100.0,205010.0,1.0
15:03:50.075784,177456.234375,181215.96875,195074.328125,173377.84375,168779.375,193010.09375,688671.3125,174175.984375,0.062255859375,0.991943359375,-0.190673828125,-0.7324218153953552,0.1525878757238388,0.5493163466453552,100.0,205011.0,1.0
15:03:50.075792,177467.3125,181221.515625,195079.6875,173374.984375,168785.1875,193040.3125,688928.1875,174171.421875,0.062744140625,0.99169921875,-0.19580078125,-0.7324218153953552,0.1525878757238388,0.5493163466453552,100.0,205012.0,1.0
15:03:50.087108,177405.625,181209.265625,195061.265625,173378.46875,168777.5,192991.234375,688897.5,174171.5,0.06103515625,0.989501953125,-0.19677734375,-0.8544921278953552,0.1831054538488388,0.6103515028953552,100.0,205013.0,1.0
15:03:50.087119,177364.5,181201.046875,195047.953125,173379.359375,168767.296875,192948.84375,688649.0625,174169.359375,0.06201171875,0.990234375,-0.197265625,-0.8239745497703552,0.1525878757238388,0.6408690810203552,100.0,205014.0,1.0
15:03:50.089685,177429.5,181202.65625,195053.046875,173367.109375,168756.484375,192978.265625,688620.625,174158.8125,0.062255859375,0.98974609375,-0.19482421875,-0.7324218153953552,0.0915527269244194,0.5493163466453552,100.0,205015.0,1.0
15:03:50.089716,177448.1875,181198.1875,195047.671875,173353.078125,168746.828125,193012.953125,688900.8125,174146.03125,0.0625,0.9921875,-0.194091796875,-0.7934569716453552,0.1525878757238388,0.4882812201976776,100.0,205016.0,1.0
15:03:50.095798,177382.296875,181180.828125,195027.390625,173353.4375,168737.171875,192977.1875,688924.625,174145.484375,0.0634765625,0.99267578125,-0.19287109375,-0.8544921278953552,0.0915527269244194,0.4272460639476776,100.0,205017.0,1.0
15:03:50.102048,177330.53125,181166.171875,195013.078125,173356.390625,168729.390625,192929.0,688687.0625,174148.265625,0.06494140625,0.99169921875,-0.194091796875,-0.8544921278953552,0.0915527269244194,0.5187987685203552,100.0,205018.0,1.0
15:03:50.102058,177388.453125,181180.03125,195029.078125,173355.484375,168735.109375,192965.5625,688579.9375,174152.546875,0.064697265625,0.992431640625,-0.197265625,-0.9155272841453552,0.0610351525247097,0.5493163466453552,100.0,205019.0,1.0
15:03:50.108421,177447.203125,181195.40625,195045.171875,173353.078125,168741.734375,193020.375,688856.9375,174151.390625,0.063720703125,0.990234375,-0.193603515625,-0.9460448622703552,0.0610351525247097,0.4882812201976776,100.0,205020.0,1.0
15:03:50.108439,177390.0625,181182.4375,195030.421875,173350.65625,168736.640625,192996.328125,688942.6875,174143.703125,0.063232421875,0.989013671875,-0.193603515625,-0.9155272841453552,0.0,0.5493163466453552,100.0,205021.0,1.0
15:03:50.110220,177339.46875,181173.328125,195021.03125,173358.171875,168734.75,192946.171875,688737.5,174148.53125,0.064208984375,0.98828125,-0.1943359375,-1.0070799589157104,0.0915527269244194,0.6103515028953552,100.0,205022.0,1.0
15:03:50.121474,177379.34375,181190.21875,195036.0625,173356.65625,168740.65625,192971.296875,688559.8125,174147.8125,0.063720703125,0.989013671875,-0.19482421875,-0.9765624403953552,0.1220703050494194,0.6408690810203552,100.0,205023.0,1.0
15:03:50.127427,177459.984375,181212.390625,195060.375,173355.578125,168752.8125,193033.96875,688827.9375,174150.40625,0.06494140625,0.990966796875,-0.197265625,-0.9155272841453552,0.0915527269244194,0.5187987685203552,100.0,205024.0,1.0
15:03:50.127509,177424.84375,181216.421875,195060.90625,173365.40625,168763.375,193034.5,688960.25,174157.5625,0.064453125,0.989501953125,-0.196044921875,-1.0375975370407104,0.03051757626235485,0.5187987685203552,100.0,205025.0,1.0
15:03:50.138328,177369.140625,181199.703125,195046.15625,173371.40625,168759.96875,192975.765625,688786.75,174161.5,0.064697265625,0.989013671875,-0.196044921875,-1.0070799589157104,0.0610351525247097,0.5493163466453552,100.0,205026.0,1.0
15:03:50.138364,177378.71875,181202.734375,195050.71875,173370.515625,168762.734375,192979.25,688561.0625,174162.203125,0.063232421875,0.988037109375,-0.196044921875,-0.9765624403953552,0.0610351525247097,0.5493163466453552,100.0,205027.0,1.0
15:03:50.144552,177458.828125,181209.53125,195064.84375,173358.265625,168765.25,193028.421875,688778.0,174158.1875,0.063720703125,0.98974609375,-0.196044921875,-1.0681151151657104,0.0915527269244194,0.5493163466453552,100.0,205028.0,1.0
15:03:50.144578,177436.375,181216.15625,195067.703125,173363.890625,168776.515625,193043.53125,688969.25,174164.625,0.0634765625,0.991455078125,-0.1982421875,-1.0375975370407104,0.1525878757238388,0.3967284858226776,100.0,205029.0,1.0
15:03:50.154673,177374.6875,181198.359375,195048.578125,173367.203125,168768.546875,192981.9375,688830.75,174166.046875,0.064697265625,0.990966796875,-0.1982421875,-1.0070799589157104,0.1220703050494194,0.3662109076976776,100.0,205030.0,1.0
15:03:50.154696,177371.203125,181204.890625,195054.390625,173373.015625,168771.59375,192974.953125,688581.375,174168.734375,0.06298828125,0.98974609375,-0.196044921875,-1.0681151151657104,0.1220703050494194,0.4272460639476776,100.0,205031.0,1.0
15:03:50.162814,177456.140625,181210.96875,195068.875,173365.40625,168768.109375,193018.59375,688713.3125,174163.8125,0.064453125,0.992919921875,-0.197509765625,-1.0375975370407104,0.1220703050494194,0.3662109076976776,100.0,205032.0,1.0
15:03:50.162893,177446.75,181212.578125,195068.953125,173365.5,168770.78125,193035.390625,688949.9375,174159.4375,0.0625,0.9931640625,-0.1982421875,-1.0986326932907104,0.0915527269244194,0.3967284858226776,100.0,205033.0,1.0
15:03:50.162922,177386.21875,181198.53125,195052.328125,173372.296875,168763.546875,192977.453125,688870.625,174161.578125,0.061767578125,0.9921875,-0.19580078125,-1.0681151151657104,0.0610351525247097,0.4272460639476776,100.0,205034.0,1.0
15:03:50.167053,177363.15625,181199.4375,195049.203125,173372.921875,168762.46875,192954.03125,688609.4375,174162.828125,0.060546875,0.992431640625,-0.197509765625,-1.1901854276657104,0.0610351525247097,0.4882812201976776,100.0,205035.0,1.0
15:03:50.167085,177439.421875,181198.453125,195057.609375,173363.359375,168756.65625,192988.015625,688651.1875,174158.09375,0.063232421875,0.99267578125,-0.197509765625,-1.0986326932907104,0.0,0.3967284858226776,100.0,205036.0,1.0
15:03:50.172720,177455.0625,181205.6875,195066.09375,173365.59375,168763.1875,193024.578125,688927.4375,174160.59375,0.063232421875,0.990478515625,-0.19580078125,-1.2207030057907104,-0.0610351525247097,0.5187987685203552,100.0,205037.0,1.0
15:03:50.186030,177386.21875,181187.1875,195041.421875,173361.03125,168748.4375,192972.984375,688908.3125,174154.609375,0.063720703125,0.990966796875,-0.19482421875,-1.2512205839157104,0.0610351525247097,0.4577636420726776,100.0,205038.0,1.0
15:03:50.186075,177330.25,181169.125,195016.203125,173349.3125,168726.53125,192924.796875,688647.6875,174141.734375,0.06201171875,0.99267578125,-0.19677734375,-1.2512205839157104,0.0610351525247097,0.5187987685203552,100.0,205039.0,1.0
15:03:50.188346,177401.328125,181182.890625,195031.765625,173346.28125,168728.046875,192968.4375,688612.5,174142.71875,0.062744140625,0.991943359375,-0.197021484375,-1.3122557401657104,0.03051757626235485,0.3967284858226776,100.0,205040.0,1.0
15:03:50.188377,177436.03125,181190.3125,195039.90625,173342.875,168731.359375,193012.859375,688892.5,174140.125,0.062744140625,0.9921875,-0.19921875,-1.3427733182907104,0.0610351525247097,0.4577636420726776,100.0,205041.0,1.0
15:03:50.197785,177378.171875,181179.578125,195026.671875,173348.78125,168730.109375,192979.875,688932.375,174142.359375,0.062255859375,0.99169921875,-0.2001953125,-1.3732908964157104,0.03051757626235485,0.5187987685203552,100.0,205042.0,1.0
15:03:50.202363,177325.25,181165.453125,195011.921875,173347.984375,168722.859375,192929.625,688688.6875,174139.765625,0.06103515625,0.991943359375,-0.19677734375,-1.3427733182907104,-0.0915527269244194,0.4882812201976776,100.0,205043.0,1.0
15:03:50.202414,177376.296875,181174.390625,195026.40625,173346.015625,168728.234375,192960.828125,688566.5625,174142.265625,0.061767578125,0.990966796875,-0.198974609375,-1.4953612089157104,0.0,0.5187987685203552,100.0,205044.0,1.0
15:03:50.211514,177440.140625,181190.671875,195046.609375,173346.546875,168742.171875,193018.40625,688844.4375,174148.078125,0.06201171875,0.9892578125,-0.19677734375,-1.4343260526657104,-0.03051757626235485,0.4272460639476776,100.0,205045.0,1.0
15:03:50.214626,177394.53125,181189.859375,195043.03125,173356.296875,168750.21875,193006.078125,688944.1875,174156.046875,0.06201171875,0.989990234375,-0.19873046875,-1.4343260526657104,-0.03051757626235485,0.4272460639476776,100.0,205046.0,1.0
15:03:50.214666,177343.75,181179.578125,195031.046875,173360.5,168748.890625,192953.5,688737.1875,174157.109375,0.06201171875,0.990478515625,-0.200927734375,-1.4038084745407104,-0.0610351525247097,0.3967284858226776,100.0,205047.0,1.0
15:03:50.224577,177383.09375,181194.96875,195048.578125,173366.125,168761.21875,192979.78125,688550.0625,174164.4375,0.06298828125,0.990478515625,-0.199462890625,-1.4038084745407104,0.0610351525247097,0.3662109076976776,100.0,205048.0,1.0
15:03:50.224607,177471.421875,181218.828125,195076.109375,173371.671875,168777.578125,193042.90625,688798.875,174170.96875,0.06298828125,0.990234375,-0.198486328125,-1.4343260526657104,-0.03051757626235485,0.3662109076976776,100.0,205049.0,1.0
15:03:50.226513,177433.609375,181217.3125,195069.671875,173373.015625,168779.1875,193036.015625,688944.5625,174166.953125,0.06298828125,0.98974609375,-0.1982421875,-1.3732908964157104,-0.0915527269244194,0.3662109076976776,100.0,205050.0,1.0
15:03:50.234656,177378.0,181201.9375,195053.765625,173379.453125,168773.375,192973.265625,688777.375,174168.640625,0.062744140625,0.992919921875,-0.198486328125,-1.4343260526657104,0.03051757626235485,0.3051757514476776,100.0,205051.0,1.0
15:03:50.234707,177386.140625,181202.828125,195057.6875,173377.21875,168773.65625,192971.375,688548.3125,174166.671875,0.063232421875,0.9921875,-0.197509765625,-1.4648436307907104,0.0,0.3662109076976776,100.0,205052.0,1.0
15:03:50.240244,177467.765625,181211.5,195072.71875,173368.8125,168772.3125,193021.53125,688757.4375,174164.625,0.06201171875,0.99169921875,-0.197998046875,-1.5258787870407104,-0.0915527269244194,0.3662109076976776,100.0,205053.0,1.0
15:03:50.248605,177435.9375,181204.625,195063.59375,173365.953125,168768.46875,193024.21875,688953.9375,174159.796875,0.0634765625,0.991455078125,-0.19873046875,-1.5563963651657104,-0.03051757626235485,0.3662109076976776,100.0,205054.0,1.0
15:03:50.248633,177366.640625,181178.0625,195035.25,173360.671875,168751.296875,192956.1875,688830.125,174154.4375,0.062744140625,0.9912109375,-0.19873046875,-1.5563963651657104,-0.03051757626235485,0.3967284858226776,100.0,205055.0,1.0
15:03:50.250772,177351.09375,181175.296875,195031.140625,173359.25,168747.90625,192942.6875,688578.25,174154.25,0.061279296875,0.991943359375,-0.19677734375,-1.6174315214157104,0.0610351525247097,0.3967284858226776,100.0,205056.0,1.0
15:03:50.250796,177437.8125,181187.625,195047.234375,173350.65625,168747.984375,192993.734375,688699.5,174152.28125,0.060546875,0.991943359375,-0.197509765625,-1.6479490995407104,0.0610351525247097,0.3967284858226776,100.0,205057.0,1.0
15:03:50.266441,177431.375,181192.015625,195050.546875,173353.796875,168751.125,193016.703125,688946.875,174153.09375,0.061767578125,0.990966796875,-0.1953125,-1.7395018339157104,0.0610351525247097,0.3967284858226776,100.0,205058.0,1.0
15:03:50.269564,177366.28125,181170.109375,195028.546875,173356.203125,168737.890625,192956.71875,688874.0,174151.125,0.061767578125,0.989990234375,-0.195556640625,-1.6174315214157104,-0.03051757626235485,0.3662109076976776,100.0,205059.0,1.0
15:03:50.269595,177335.4375,181164.734375,195018.171875,173355.578125,168728.953125,192927.125,688604.625,174148.171875,0.0595703125,0.990966796875,-0.200439453125,-1.6479490995407104,-0.1220703050494194,0.3356933295726776,100.0,205060.0,1.0
15:03:50.302063,177422.96875,181181.546875,195039.546875,173354.421875,168734.75,192979.25,688655.3125,174152.1875,0.062255859375,0.9892578125,-0.201171875,-1.5563963651657104,-0.0915527269244194,0.3967284858226776,100.0,205061.0,1.0
15:03:50.302098,177446.484375,181198.359375,195054.921875,173357.359375,168747.1875,193026.640625,688935.0,174153.890625,0.06103515625,0.98974609375,-0.197998046875,-1.6174315214157104,-0.0915527269244194,0.3356933295726776,100.0,205062.0,1.0
15:03:50.328382,177384.171875,181181.734375,195039.1875,173359.78125,168743.609375,192981.65625,688914.4375,174153.09375,0.061279296875,0.99072265625,-0.194091796875,-1.6784666776657104,-0.0610351525247097,0.3662109076976776,100.0,205063.0,1.0
15:03:50.328411,177340.171875,181173.328125,195026.765625,173358.890625,168738.609375,192943.3125,688652.25,174151.921875,0.061767578125,0.990234375,-0.19482421875,-1.6784666776657104,0.0,0.3967284858226776,100.0,205064.0,1.0
15:03:50.355254,177409.015625,181186.015625,195041.59375,173351.46875,168741.734375,192983.71875,688601.3125,174150.046875,0.060546875,0.989990234375,-0.195068359375,-1.6479490995407104,0.0,0.4272460639476776,100.0,205065.0,1.0
15:03:50.357696,177453.90625,181202.46875,195058.046875,173353.96875,168753.984375,193034.234375,688890.75,174153.265625,0.06005859375,0.991455078125,-0.19580078125,-1.7089842557907104,0.0610351525247097,0.3967284858226776,100.0,205066.0,1.0
15:03:50.360247,177401.609375,181196.390625,195049.734375,173360.3125,168757.46875,193003.65625,688938.0,174158.1875,0.060791015625,0.991455078125,-0.197265625,-1.6784666776657104,0.0,0.4272460639476776,100.0,205067.0,1.0
15:03:50.362691,177355.5625,181187.265625,195040.34375,173367.296875,168756.84375,192956.71875,688705.5625,174163.734375,0.06005859375,0.99169921875,-0.198486328125,-1.7395018339157104,-0.0915527269244194,0.4577636420726776,100.0,205068.0,1.0
15:03:50.365251,177408.671875,181198.8125,195056.171875,173368.09375,168763.375,192986.84375,688571.0625,174167.03125,0.061767578125,0.991943359375,-0.1953125,-1.8005369901657104,-0.0610351525247097,0.4272460639476776,100.0,205069.0,1.0
15:03:50.367717,177472.765625,181213.921875,195074.5,173368.09375,168772.75,193040.3125,688839.9375,174171.59375,0.0625,0.99072265625,-0.19677734375,-1.8615721464157104,0.03051757626235485,0.4272460639476776,100.0,205070.0,1.0
15:03:50.370314,177422.609375,181207.65625,195065.296875,173373.90625,168772.9375,193022.875,688936.6875,174175.078125,0.06298828125,0.99169921875,-0.1904296875,-1.8615721464157104,0.03051757626235485,0.4272460639476776,100.0,205071.0,1.0
15:03:50.372677,177360.03125,181183.15625,195041.78125,173368.8125,168757.109375,192956.0,688732.5,174168.28125,0.061279296875,0.99169921875,-0.19140625,-1.8310545682907104,0.03051757626235485,0.5798339247703552,100.0,205072.0,1.0
15:03:50.375232,177387.46875,181190.484375,195048.3125,173364.515625,168756.21875,192970.125,688544.5625,174163.90625,0.059326171875,0.993896484375,-0.193603515625,-1.8615721464157104,-0.0610351525247097,0.7324218153953552,100.0,205073.0,1.0
15:03:50.377745,177471.421875,181209.453125,195068.953125,173362.28125,168763.8125,193030.65625,688815.8125,174164.171875,0.0595703125,0.994140625,-0.19482421875,-1.8615721464157104,0.0,0.5187987685203552,100.0,205074.0,1.0
15:03:50.380250,177434.6875,181211.234375,195065.46875,173367.109375,168769.453125,193032.53125,688983.0625,174167.65625,0.05908203125,0.9931640625,-0.195556640625,-1.8005369901657104,0.0915527269244194,0.5798339247703552,100.0,205075.0,1.0
15:03:50.382733,177377.546875,181196.578125,195049.203125,173372.03125,168761.9375,192973.96875,688813.125,174169.71875,0.058837890625,0.988525390625,-0.19580078125,-1.8005369901657104,0.0,0.6408690810203552,100.0,205076.0,1.0
15:03:50.388294,177375.5,181190.9375,195044.8125,173361.296875,168753.984375,192963.328125,688582.25,174158.546875,0.059326171875,0.990234375,-0.19482421875,-1.8615721464157104,0.1525878757238388,0.5798339247703552,100.0,205077.0,1.0
15:03:50.388309,177461.765625,181204.171875,195063.59375,173356.5625,168758.71875,193017.875,688778.5,174160.421875,0.06103515625,0.98974609375,-0.194580078125,-1.7700194120407104,0.03051757626235485,0.7019042372703552,100.0,205078.0,1.0
15:03:50.390263,177434.6875,181200.6875,195059.921875,173358.703125,168761.578125,193028.15625,688990.25,174162.46875,0.06201171875,0.98876953125,-0.195068359375,-1.8310545682907104,-0.0610351525247097,0.8239745497703552,100.0,205079.0,1.0
15:03:50.392742,177363.515625,181171.984375,195033.375,173356.390625,168745.484375,192956.453125,688858.375,174158.453125,0.060791015625,0.989013671875,-0.19384765625,-1.8615721464157104,0.03051757626235485,0.7324218153953552,100.0,205080.0,1.0
15:03:50.395283,177345.546875,181168.046875,195027.734375,173354.140625,168739.40625,192937.5,688586.3125,174155.59375,0.060546875,0.988037109375,-0.19677734375,-1.8615721464157104,0.03051757626235485,0.6713866591453552,100.0,205081.0,1.0
15:03:50.397725,177430.390625,181177.890625,195042.5,173347.890625,168737.703125,192984.796875,688688.1875,174152.109375,0.062744140625,0.989013671875,-0.1953125,-1.7089842557907104,0.03051757626235485,0.6408690810203552,100.0,205082.0,1.0
15:03:50.400251,177424.671875,181183.96875,195041.6875,173343.328125,168739.046875,193012.0625,688929.625,174147.015625,0.061279296875,0.990234375,-0.196044921875,-1.7395018339157104,0.0915527269244194,0.6103515028953552,100.0,205083.0,1.0
15:03:50.402723,177363.96875,181170.203125,195023.8125,173349.234375,168732.515625,192961.015625,688864.8125,174150.859375,0.063232421875,0.990478515625,-0.19580078125,-1.7700194120407104,0.03051757626235485,0.6408690810203552,100.0,205084.0,1.0
15:03:50.405218,177339.015625,181175.296875,195023.8125,173357.359375,168736.28125,192942.328125,688604.1875,174157.109375,0.06396484375,0.98876953125,-0.196044921875,-1.6784666776657104,0.03051757626235485,0.7019042372703552,100.0,205085.0,1.0
15:03:50.408862,177413.5,181182.625,195035.15625,173343.78125,168734.40625,192983.0,688634.0625,174148.4375,0.06494140625,0.990478515625,-0.1943359375,-1.5869139432907104,0.0610351525247097,0.7019042372703552,100.0,205086.0,1.0
15:03:50.408892,177436.921875,181196.484375,195048.03125,173346.8125,168746.5625,193027.53125,688911.375,174150.3125,0.062744140625,0.989501953125,-0.19580078125,-1.6479490995407104,0.1525878757238388,0.6713866591453552,100.0,205087.0,1.0
15:03:50.408899,177381.03125,181185.125,195037.484375,173355.046875,168750.40625,192989.625,688900.0,174158.0,0.061767578125,0.988525390625,-0.19482421875,-1.5869139432907104,0.1831054538488388,0.6103515028953552,100.0,205088.0,1.0
15:03:50.414839,177336.25,181171.453125,195024.96875,173356.46875,168747.0,192945.09375,688649.4375,174159.703125,0.063232421875,0.989501953125,-0.1943359375,-1.4343260526657104,0.1525878757238388,0.6713866591453552,100.0,205089.0,1.0
15:03:50.414862,177402.9375,181182.171875,195038.5625,173352.8125,168746.828125,192981.03125,688593.625,174158.546875,0.065185546875,0.989990234375,-0.193115234375,-1.4038084745407104,0.1220703050494194,0.6408690810203552,100.0,205090.0,1.0
15:03:50.414867,177447.015625,181192.71875,195050.265625,173351.015625,168751.46875,193028.15625,688883.75,174158.8125,0.0654296875,0.99169921875,-0.1884765625,-1.4953612089157104,0.2136230319738388,0.7019042372703552,100.0,205091.0,1.0
15:03:50.414872,177392.484375,181183.703125,195039.71875,173356.390625,168749.78125,192998.734375,688931.9375,174162.390625,0.064697265625,0.98828125,-0.193115234375,-1.5258787870407104,0.3051757514476776,0.7019042372703552,100.0,205092.0,1.0
15:03:50.414877,177346.53125,181176.8125,195031.40625,173362.28125,168747.71875,192952.25,688699.75,174167.390625,0.0625,0.986328125,-0.193359375,-1.3732908964157104,0.2746581733226776,0.5798339247703552,100.0,205093.0,1.0
15:03:50.416456,177396.0625,181189.5,195046.0625,173361.03125,168750.9375,192978.625,688576.4375,174167.484375,0.0634765625,0.985107421875,-0.1962890625,-1.2817381620407104,0.2441406100988388,0.6713866591453552,100.0,205094.0,1.0
15:03:50.419512,177465.625,181205.25,195066.28125,173361.65625,168759.171875,193032.171875,688859.625,174168.28125,0.063720703125,0.98486328125,-0.197265625,-1.2207030057907104,0.3356933295726776,0.6408690810203552,100.0,205095.0,1.0
15:03:50.419528,177413.671875,181194.25,195052.78125,173362.546875,168753.890625,193012.15625,688962.25,174165.78125,0.06201171875,0.98681640625,-0.1962890625,-1.0986326932907104,0.2746581733226776,0.5187987685203552,100.0,205096.0,1.0
15:03:50.421433,177354.9375,181175.734375,195032.484375,173363.359375,168741.734375,192950.453125,688751.9375,174163.28125,0.062255859375,0.987548828125,-0.198486328125,-1.0986326932907104,0.2746581733226776,0.3662109076976776,100.0,205097.0,1.0
15:03:50.423943,177381.03125,181183.78125,195041.515625,173365.5,168746.375,192962.53125,688558.75,174166.046875,0.0625,0.98828125,-0.195068359375,-1.0070799589157104,0.3051757514476776,0.4882812201976776,100.0,205098.0,1.0
15:03:50.427030,177455.6875,181192.90625,195054.828125,173359.953125,168747.71875,193012.78125,688799.625,174163.109375,0.0634765625,0.989013671875,-0.192138671875,-0.9460448622703552,0.3356933295726776,0.5187987685203552,100.0,205099.0,1.0
15:03:50.427059,177415.8125,181190.40625,195047.671875,173359.0625,168746.921875,193012.953125,688959.375,174158.8125,0.064208984375,0.987548828125,-0.1943359375,-0.9460448622703552,0.3356933295726776,0.5798339247703552,100.0,205100.0,1.0
15:03:50.428951,177353.953125,181169.921875,195026.671875,173357.28125,168736.640625,192950.734375,688800.125,174158.546875,0.063232421875,0.988525390625,-0.191162109375,-0.8850097060203552,0.3662109076976776,0.5798339247703552,100.0,205101.0,1.0
15:03:50.436436,177359.671875,181173.234375,195032.21875,173363.984375,168739.40625,192949.296875,688564.5,174164.0,0.062744140625,0.989013671875,-0.19482421875,-0.8850097060203552,0.3662109076976776,0.6103515028953552,100.0,205102.0,1.0
15:03:50.443398,177456.234375,181194.78125,195059.484375,173366.125,168749.78125,193008.125,688755.4375,174170.4375,0.064453125,0.989013671875,-0.196044921875,-0.8239745497703552,0.4272460639476776,0.7324218153953552,100.0,205103.0,1.0
15:03:50.443424,177440.5,181206.3125,195064.671875,173369.609375,168759.34375,193030.484375,688978.9375,174173.5625,0.0625,0.9873046875,-0.199462890625,-0.7629393935203552,0.4272460639476776,0.7019042372703552,100.0,205104.0,1.0
15:03:50.450777,177370.046875,181181.8125,195037.578125,173363.09375,168742.984375,192965.390625,688851.5625,174166.140625,0.06201171875,0.986572265625,-0.201416015625,-0.6713866591453552,0.4272460639476776,0.7934569716453552,100.0,205105.0,1.0
15:03:50.450802,177350.28125,181182.09375,195033.109375,173362.015625,168741.734375,192949.828125,688587.25,174166.765625,0.06298828125,0.985595703125,-0.198486328125,-0.7629393935203552,0.2746581733226776,0.7629393935203552,100.0,205106.0,1.0
15:03:50.459528,177439.875,181197.90625,195055.453125,173358.703125,168749.59375,193004.90625,688696.8125,174170.515625,0.062744140625,0.989013671875,-0.198974609375,-0.5798339247703552,0.2746581733226776,0.7324218153953552,100.0,205107.0,1.0
15:03:50.459555,177440.21875,181205.25,195060.640625,173359.515625,168756.03125,193037.8125,688949.4375,174171.59375,0.0634765625,0.991943359375,-0.198486328125,-0.6408690810203552,0.2136230319738388,0.7629393935203552,100.0,205108.0,1.0
15:03:50.462025,177377.640625,181189.421875,195041.59375,173362.640625,168747.71875,192985.59375,688882.375,174170.703125,0.0654296875,0.99267578125,-0.198974609375,-0.5493163466453552,0.3662109076976776,0.7324218153953552,100.0,205109.0,1.0
15:03:50.462054,177350.546875,181190.21875,195040.34375,173371.140625,168750.671875,192962.078125,688619.1875,174175.34375,0.066650390625,0.99365234375,-0.198486328125,-0.6408690810203552,0.3051757514476776,0.7324218153953552,100.0,205110.0,1.0
15:03:50.473976,177438.53125,181208.90625,195065.296875,173373.8125,168760.0625,193013.046875,688642.875,174180.359375,0.065185546875,0.994384765625,-0.19970703125,-0.6408690810203552,0.3662109076976776,0.7019042372703552,100.0,205111.0,1.0
15:03:50.477036,177461.0625,181218.921875,195073.34375,173370.953125,168765.609375,193053.015625,688920.875,174176.609375,0.062744140625,0.992919921875,-0.20166015625,-0.7629393935203552,0.4577636420726776,0.7324218153953552,100.0,205112.0,1.0
15:03:50.477062,177401.6875,181206.9375,195057.6875,173372.125,168761.40625,193011.171875,688917.75,174175.796875,0.059814453125,0.991455078125,-0.200927734375,-0.7324218153953552,0.3662109076976776,0.5798339247703552,100.0,205113.0,1.0
15:03:50.478951,177361.90625,181203.28125,195050.359375,173374.0,168758.625,192972.8125,688667.0,174177.59375,0.059326171875,0.9892578125,-0.2001953125,-0.8239745497703552,0.1831054538488388,0.6408690810203552,100.0,205114.0,1.0
15:03:50.488963,177426.28125,181212.84375,195062.875,173368.0,168757.46875,193006.96875,688604.0,174175.0,0.058349609375,0.99267578125,-0.196044921875,-0.7629393935203552,0.1831054538488388,0.5493163466453552,100.0,205115.0,1.0
15:03:50.495814,177465.96875,181213.296875,195067.796875,173361.03125,168755.953125,193041.125,688884.5625,174169.0,0.057861328125,0.994140625,-0.196533203125,-0.8239745497703552,0.1525878757238388,0.5798339247703552,100.0,205116.0,1.0
15:03:50.495841,177401.328125,181191.390625,195046.34375,173360.046875,168745.21875,192998.65625,688930.625,174164.265625,0.06005859375,0.995849609375,-0.1962890625,-0.9460448622703552,0.1220703050494194,0.4577636420726776,100.0,205117.0,1.0
15:03:50.498341,177354.65625,181181.640625,195034.171875,173368.09375,168742.171875,192948.21875,688706.875,174170.25,0.058837890625,0.99609375,-0.19677734375,-1.1291502714157104,0.0,0.3356933295726776,100.0,205118.0,1.0
15:03:50.498368,177400.796875,181191.109375,195046.0625,173368.09375,168743.96875,192972.453125,688566.0,174172.671875,0.05859375,0.998291015625,-0.197998046875,-1.2512205839157104,-0.0610351525247097,0.2441406100988388,100.0,205119.0,1.0
15:03:50.506557,177464.8125,181199.875,195060.640625,173363.171875,168747.453125,193022.34375,688835.5625,174169.625,0.05908203125,1.000244140625,-0.196044921875,-1.5258787870407104,0.0,0.1831054538488388,100.0,205120.0,1.0
15:03:50.517068,177411.703125,181192.015625,195048.65625,173358.703125,168745.21875,193009.203125,688946.0625,174161.140625,0.062255859375,1.0,-0.19384765625,-1.5869139432907104,0.0,0.1220703050494194,100.0,205121.0,1.0
15:03:50.517094,177353.859375,181175.5625,195030.953125,173359.875,168737.625,192951.0,688752.5625,174158.8125,0.06396484375,0.99951171875,-0.19580078125,-1.7700194120407104,0.0610351525247097,0.1220703050494194,100.0,205122.0,1.0
15:03:50.519568,177373.265625,181180.484375,195036.140625,173354.328125,168737.890625,192963.609375,688552.0625,174156.671875,0.063720703125,0.9990234375,-0.19677734375,-1.8920897245407104,0.0610351525247097,0.2136230319738388,100.0,205123.0,1.0
15:03:50.519600,177457.296875,181197.828125,195056.359375,173353.078125,168745.3125,193023.234375,688784.875,174160.234375,0.066650390625,0.998046875,-0.195556640625,-2.044677495956421,0.0610351525247097,0.2746581733226776,100.0,205124.0,1.0
15:03:50.526502,177423.6875,181197.828125,195053.140625,173357.28125,168749.78125,193025.109375,688959.5625,174161.9375,0.06689453125,0.99951171875,-0.197998046875,-2.166747808456421,-0.03051757626235485,0.4272460639476776,100.0,205125.0,1.0
15:03:50.535829,177362.984375,181176.8125,195033.546875,173360.234375,168742.09375,192958.78125,688810.375,174165.515625,0.06689453125,0.994873046875,-0.19482421875,-2.258300542831421,0.1220703050494194,0.5187987685203552,100.0,205126.0,1.0
15:03:50.535860,177367.625,181183.34375,195038.921875,173366.21875,168747.0,192957.34375,688567.0625,174172.578125,0.0654296875,0.994140625,-0.191650390625,-2.288818120956421,0.2136230319738388,0.6408690810203552,100.0,205127.0,1.0
15:03:50.538316,177459.09375,181201.578125,195060.90625,173361.84375,168755.046875,193016.171875,688756.875,174174.09375,0.063232421875,0.990478515625,-0.19189453125,-2.410888433456421,0.3356933295726776,0.7324218153953552,100.0,205128.0,1.0
15:03:50.538343,177441.390625,181207.484375,195064.21875,173365.40625,168762.65625,193037.09375,688973.4375,174175.171875,0.06103515625,0.986328125,-0.19140625,-2.349853277206421,0.2441406100988388,0.8239745497703552,100.0,205129.0,1.0
15:03:50.547786,177378.625,181188.53125,195046.515625,173365.953125,168754.34375,192979.15625,688856.375,174173.203125,0.062744140625,0.987548828125,-0.19287109375,-2.380370855331421,0.2136230319738388,0.8544921278953552,100.0,205130.0,1.0
15:03:50.550775,177369.421875,181200.421875,195055.28125,173376.5,168764.625,192975.671875,688601.9375,174182.421875,0.060791015625,0.98583984375,-0.19384765625,-2.349853277206421,0.0915527269244194,0.7934569716453552,100.0,205131.0,1.0
15:03:50.550800,177462.671875,181215.34375,195076.46875,173374.984375,168772.125,193029.5,688713.0,174185.640625,0.061767578125,0.985107421875,-0.191650390625,-2.288818120956421,0.1220703050494194,0.7934569716453552,100.0,205132.0,1.0
15:03:50.558969,177464.453125,181221.515625,195079.59375,173375.25,168778.03125,193060.4375,688973.125,174184.109375,0.061279296875,0.98486328125,-0.192138671875,-2.258300542831421,0.0,0.8239745497703552,100.0,205133.0,1.0
15:03:50.567868,177402.578125,181205.25,195060.375,173379.359375,168772.75,193010.265625,688912.0,174186.171875,0.059326171875,0.98291015625,-0.19287109375,-2.258300542831421,-0.0610351525247097,0.7934569716453552,100.0,205134.0,1.0
15:03:50.567896,177368.34375,181200.328125,195051.703125,173382.765625,168769.09375,192979.703125,688641.875,174187.6875,0.06103515625,0.982666015625,-0.1923828125,-2.227782964706421,0.03051757626235485,0.7934569716453552,100.0,205135.0,1.0
15:03:50.578280,177448.8125,181213.921875,195070.296875,173380.078125,168771.59375,193022.609375,688652.875,174189.484375,0.062744140625,0.984130859375,-0.192626953125,-2.197265386581421,0.1525878757238388,0.7324218153953552,100.0,205136.0,1.0
15:03:50.578307,177470.0,181216.328125,195073.96875,173372.203125,168770.515625,193053.71875,688923.1875,174183.9375,0.061767578125,0.984619140625,-0.192138671875,-2.014159917831421,-0.03051757626235485,0.6408690810203552,100.0,205137.0,1.0
15:03:50.580848,177403.65625,181194.328125,195050.984375,173373.375,168758.1875,193001.421875,688925.4375,174183.046875,0.061279296875,0.984375,-0.1953125,-1.8920897245407104,-0.1220703050494194,0.6713866591453552,100.0,205138.0,1.0
15:03:50.580875,177358.6875,181183.25,195035.875,173374.265625,168749.875,192952.78125,688676.0625,174180.53125,0.062744140625,0.9853515625,-0.195556640625,-1.8920897245407104,-0.1525878757238388,0.5493163466453552,100.0,205139.0,1.0
15:03:50.586440,177428.6875,181199.609375,195054.5625,173375.421875,168753.984375,192988.8125,688605.9375,174181.96875,0.064453125,0.986083984375,-0.1962890625,-1.6784666776657104,-0.03051757626235485,0.4272460639476776,100.0,205140.0,1.0
15:03:50.598313,177476.078125,181209.890625,195068.25,173373.734375,168758.71875,193035.03125,688892.3125,174180.53125,0.065185546875,0.98583984375,-0.19482421875,-1.6479490995407104,-0.0915527269244194,0.4577636420726776,100.0,205141.0,1.0
15:03:50.598351,177415.90625,181199.609375,195051.703125,173373.546875,168752.546875,193005.09375,688954.1875,174176.15625,0.065673828125,0.985107421875,-0.195556640625,-1.4648436307907104,-0.03051757626235485,0.4272460639476776,100.0,205142.0,1.0
15:03:50.600788,177362.078125,181187.09375,195033.640625,173369.890625,168741.90625,192953.140625,688722.375,174169.265625,0.06494140625,0.984619140625,-0.1923828125,-1.3427733182907104,0.0610351525247097,0.3967284858226776,100.0,205143.0,1.0
15:03:50.600815,177395.078125,181181.546875,195035.34375,173358.171875,168736.09375,192968.96875,688572.6875,174161.046875,0.066650390625,0.985107421875,-0.19189453125,-1.2817381620407104,0.0610351525247097,0.3662109076976776,100.0,205144.0,1.0
15:03:50.607705,177468.203125,181202.828125,195057.0625,173360.140625,168748.796875,193032.71875,688854.5,174165.6875,0.06640625,0.98681640625,-0.193115234375,-1.1596678495407104,0.0915527269244194,0.4272460639476776,100.0,205145.0,1.0
15:03:50.614676,177417.515625,181195.59375,195043.75,173359.875,168746.109375,193015.90625,688976.3125,174162.921875,0.06640625,0.98583984375,-0.193115234375,-1.0986326932907104,0.1220703050494194,0.3356933295726776,100.0,205146.0,1.0
15:03:50.614707,177351.984375,181172.78125,195019.875,173352.1875,168732.25,192950.375,688779.25,174154.4375,0.06640625,0.9873046875,-0.195068359375,-1.0681151151657104,0.0610351525247097,0.4577636420726776,100.0,205147.0,1.0
15:03:50.624574,177372.8125,181183.34375,195027.5625,173349.234375,168735.03125,192964.046875,688572.8125,174151.125,0.066162109375,0.988525390625,-0.193115234375,-1.0681151151657104,0.1525878757238388,0.3967284858226776,100.0,205148.0,1.0
15:03:50.624604,177460.609375,181205.421875,195053.046875,173349.5,168747.1875,193026.453125,688804.0625,174158.90625,0.06640625,0.9892578125,-0.196044921875,-0.9460448622703552,0.2746581733226776,0.3967284858226776,100.0,205149.0,1.0
15:03:50.627031,177430.921875,181210.15625,195055.015625,173357.90625,168755.046875,193033.96875,688980.125,174166.59375,0.066650390625,0.989013671875,-0.1953125,-0.8239745497703552,0.3051757514476776,0.3967284858226776,100.0,205150.0,1.0
15:03:50.627056,177371.65625,181191.390625,195038.65625,173363.359375,168748.890625,192973.703125,688828.3125,174170.703125,0.06494140625,0.991455078125,-0.1962890625,-0.7324218153953552,0.3051757514476776,0.3356933295726776,100.0,205151.0,1.0
15:03:50.636487,177371.46875,181196.296875,195043.125,173366.21875,168752.015625,192973.703125,688578.25,174174.09375,0.064208984375,0.99169921875,-0.1962890625,-0.8239745497703552,0.3051757514476776,0.3051757514476776,100.0,205152.0,1.0
15:03:50.640911,177465.625,181216.59375,195068.421875,173367.46875,168764.4375,193035.03125,688736.9375,174180.71875,0.064697265625,0.99169921875,-0.1962890625,-0.7934569716453552,0.2441406100988388,0.3356933295726776,100.0,205153.0,1.0
15:03:50.640928,177453.375,181226.078125,195072.53125,173371.5,168772.671875,193057.921875,688956.875,174182.328125,0.06201171875,0.990966796875,-0.19775390625,-0.7019042372703552,0.2136230319738388,0.3051757514476776,100.0,205154.0,1.0
15:03:50.682788,177395.875,181211.40625,195057.328125,173376.140625,168767.84375,193001.15625,688854.3125,174184.296875,0.06103515625,0.990966796875,-0.19775390625,-0.6103515028953552,0.2441406100988388,0.3051757514476776,100.0,205155.0,1.0
15:03:50.682819,177379.078125,181213.296875,195055.71875,173379.359375,168766.765625,192984.53125,688589.0625,174184.375,0.060791015625,0.99267578125,-0.197021484375,-0.5798339247703552,0.1831054538488388,0.2746581733226776,100.0,205156.0,1.0
15:03:50.682827,177471.15625,181230.546875,195078.96875,173381.6875,168773.65625,193039.78125,688672.1875,174190.90625,0.06005859375,0.994140625,-0.1962890625,-0.6713866591453552,0.2136230319738388,0.3051757514476776,100.0,205157.0,1.0
15:03:50.690286,177475.0,181233.140625,195081.921875,173380.609375,168776.421875,193068.921875,688923.5625,174188.84375,0.060302734375,0.99365234375,-0.1982421875,-0.6713866591453552,0.1525878757238388,0.3051757514476776,100.0,205158.0,1.0
15:03:50.692687,177409.203125,181211.6875,195061.53125,173383.203125,168765.875,193011.34375,688873.1875,174187.421875,0.059814453125,0.99365234375,-0.1982421875,-0.6103515028953552,0.0915527269244194,0.3356933295726776,100.0,205159.0,1.0
15:03:50.697766,177375.3125,181206.234375,195055.453125,173388.296875,168763.1875,192976.125,688616.6875,174191.0,0.059814453125,0.993408203125,-0.19775390625,-0.6713866591453552,0.0610351525247097,0.3051757514476776,100.0,205160.0,1.0
15:03:50.700199,177442.8125,181207.65625,195063.765625,173376.046875,168759.515625,193009.015625,688617.0625,174184.375,0.05908203125,0.9951171875,-0.19921875,-0.6103515028953552,0.03051757626235485,0.3356933295726776,100.0,205161.0,1.0
15:03:50.702689,177475.0,181223.125,195075.84375,173380.703125,168767.921875,193052.46875,688903.5,174188.140625,0.0615234375,0.99560546875,-0.198974609375,-0.6408690810203552,-0.03051757626235485,0.3356933295726776,100.0,205162.0,1.0
15:03:50.705200,177402.046875,181199.15625,195047.140625,173371.5,168749.328125,192999.0,688905.625,174177.5,0.0625,0.993896484375,-0.196044921875,-0.6713866591453552,-0.0915527269244194,0.3967284858226776,100.0,205163.0,1.0
15:03:50.707688,177343.390625,181175.921875,195023.453125,173360.234375,168732.515625,192940.984375,688665.0625,174162.921875,0.06201171875,0.994384765625,-0.195556640625,-0.6713866591453552,-0.1525878757238388,0.3662109076976776,100.0,205164.0,1.0
15:03:50.710186,177408.84375,181189.859375,195041.234375,173361.390625,168738.78125,192977.734375,688570.9375,174165.515625,0.0615234375,0.99462890625,-0.19677734375,-0.7934569716453552,-0.2136230319738388,0.3967284858226776,100.0,205165.0,1.0
15:03:50.712701,177457.03125,181196.390625,195049.921875,173357.28125,168740.5625,193023.328125,688851.375,174161.5,0.060302734375,0.99365234375,-0.198974609375,-0.8544921278953552,-0.1220703050494194,0.4272460639476776,100.0,205166.0,1.0
15:03:50.715245,177400.34375,181185.65625,195034.890625,173358.34375,168738.15625,192996.6875,688925.125,174160.234375,0.060302734375,0.99365234375,-0.19580078125,-0.9155272841453552,-0.1220703050494194,0.4577636420726776,100.0,205167.0,1.0
15:03:50.717686,177348.046875,181172.4375,195018.4375,173362.546875,168729.390625,192942.328125,688709.875,174160.234375,0.060791015625,0.9921875,-0.19482421875,-0.9765624403953552,-0.1220703050494194,0.5493163466453552,100.0,205168.0,1.0
15:03:50.720214,177392.578125,181185.65625,195033.28125,173366.671875,168735.734375,192971.46875,688546.75,174164.71875,0.06103515625,0.991455078125,-0.196044921875,-1.1596678495407104,-0.1220703050494194,0.3662109076976776,100.0,205169.0,1.0
15:03:50.723311,177468.75,181203.453125,195056.0,173368.0,168747.984375,193030.484375,688821.0,174170.078125,0.060791015625,0.989990234375,-0.201416015625,-1.1901854276657104,-0.1831054538488388,0.5493163466453552,100.0,205170.0,1.0
15:03:50.723341,177422.4375,181199.25,195047.859375,173368.71875,168748.4375,193019.65625,688941.5,174168.203125,0.063232421875,0.98779296875,-0.19873046875,-1.1596678495407104,-0.1831054538488388,0.5798339247703552,100.0,205171.0,1.0
15:03:50.725205,177366.828125,181186.109375,195033.109375,173375.34375,168744.234375,192964.59375,688763.9375,174173.921875,0.064453125,0.9912109375,-0.201416015625,-1.1596678495407104,-0.1525878757238388,0.7019042372703552,100.0,205172.0,1.0
15:03:50.728319,177389.359375,181195.859375,195043.203125,173377.65625,168750.578125,192978.359375,688550.5,174177.765625,0.065673828125,0.991455078125,-0.199462890625,-1.2207030057907104,-0.0915527269244194,0.7324218153953552,100.0,205173.0,1.0
15:03:50.728346,177471.78125,181207.296875,195060.640625,173371.140625,168756.03125,193031.734375,688775.125,174176.328125,0.065673828125,0.994140625,-0.20166015625,-1.2207030057907104,-0.0610351525247097,0.7934569716453552,100.0,205174.0,1.0
15:03:50.730194,177435.75,181204.4375,195053.671875,173370.859375,168758.625,193034.40625,688945.875,174175.625,0.0673828125,0.99365234375,-0.1982421875,-1.4038084745407104,0.03051757626235485,0.8850097060203552,100.0,205175.0,1.0
15:03:50.732696,177367.1875,181178.25,195026.484375,173366.484375,168743.34375,192965.125,688801.875,174168.640625,0.0673828125,0.990966796875,-0.1982421875,-1.5258787870407104,0.1220703050494194,0.8544921278953552,100.0,205176.0,1.0
15:03:50.735193,177365.21875,181182.359375,195030.515625,173369.4375,168744.40625,192961.375,688553.6875,174172.671875,0.06494140625,0.98876953125,-0.2001953125,-1.5869139432907104,0.1220703050494194,0.9155272841453552,100.0,205177.0,1.0
15:03:50.742024,177453.453125,181196.125,195049.734375,173365.859375,168748.171875,193014.828125,688709.875,174175.171875,0.06298828125,0.9853515625,-0.19970703125,-1.5258787870407104,0.1525878757238388,0.8850097060203552,100.0,205178.0,1.0
15:03:50.742049,177443.71875,181202.375,195055.28125,173370.234375,168757.28125,193036.734375,688937.5,174177.859375,0.060302734375,0.986083984375,-0.198486328125,-1.5869139432907104,0.1525878757238388,0.8850097060203552,100.0,205179.0,1.0
15:03:50.752088,177383.8125,181186.46875,195040.265625,173371.046875,168750.9375,192980.59375,688846.4375,174177.859375,0.06103515625,0.989990234375,-0.200439453125,-1.5869139432907104,0.1525878757238388,0.7629393935203552,100.0,205180.0,1.0
15:03:50.752115,177363.25,181187.546875,195039.1875,173374.4375,168749.953125,192962.53125,688590.125,174178.484375,0.0615234375,0.9912109375,-0.197509765625,-1.7089842557907104,0.1831054538488388,0.5798339247703552,100.0,205181.0,1.0
15:03:50.754631,177452.109375,181201.21875,195058.859375,173370.953125,168753.265625,193010.546875,688660.6875,174179.375,0.060546875,0.990478515625,-0.194580078125,-1.8310545682907104,0.1220703050494194,0.4272460639476776,100.0,205182.0,1.0
15:03:50.754658,177457.65625,181208.90625,195062.15625,173366.21875,168755.953125,193038.609375,688922.8125,174174.640625,0.060302734375,0.989013671875,-0.195556640625,-1.9531248807907104,0.0915527269244194,0.3356933295726776,100.0,205183.0,1.0
15:03:50.763964,177400.96875,181199.609375,195050.359375,173373.8125,168754.609375,192994.71875,688888.8125,174178.921875,0.060302734375,0.988037109375,-0.19873046875,-2.105712652206421,0.03051757626235485,0.3356933295726776,100.0,205184.0,1.0
15:03:50.767033,177371.296875,181196.03125,195045.53125,173379.453125,168755.046875,192964.59375,688628.25,174184.03125,0.061279296875,0.987548828125,-0.20263671875,-2.044677495956421,0.0610351525247097,0.1831054538488388,100.0,205185.0,1.0
15:03:50.767060,177444.078125,181201.3125,195057.25,173371.140625,168751.921875,192999.359375,688626.0,174178.125,0.06298828125,0.990478515625,-0.201171875,-2.075195074081421,0.0610351525247097,0.1525878757238388,100.0,205186.0,1.0
15:03:50.768979,177475.625,181211.0625,195065.828125,173368.90625,168755.765625,193039.6875,688908.25,174174.09375,0.063232421875,0.989990234375,-0.197509765625,-2.105712652206421,0.03051757626235485,0.2441406100988388,100.0,205187.0,1.0
15:03:50.784717,177408.3125,181191.109375,195043.828125,173360.859375,168745.21875,192994.453125,688922.375,174164.265625,0.065185546875,0.989501953125,-0.201416015625,-2.014159917831421,0.0,0.1831054538488388,100.0,205188.0,1.0
15:03:50.784746,177352.25,181170.015625,195022.90625,173353.96875,168732.515625,192938.84375,688673.4375,174155.59375,0.06689453125,0.989990234375,-0.1962890625,-1.9531248807907104,0.03051757626235485,0.0915527269244194,100.0,205189.0,1.0
15:03:50.786511,177413.671875,181183.421875,195039.90625,173353.703125,168739.859375,192974.953125,688577.1875,174158.1875,0.065673828125,0.990966796875,-0.196533203125,-1.9226073026657104,0.0915527269244194,0.1525878757238388,100.0,205190.0,1.0
15:03:50.792681,177473.03125,181200.953125,195061.1875,173359.875,168752.8125,193032.265625,688861.8125,174165.6875,0.065673828125,0.9921875,-0.195068359375,-2.044677495956421,0.1220703050494194,0.2746581733226776,100.0,205191.0,1.0
15:03:50.795770,177421.546875,181196.484375,195051.875,173363.0,168754.421875,193013.9375,688946.75,174167.75,0.0654296875,0.9921875,-0.19677734375,-2.014159917831421,0.2136230319738388,0.3662109076976776,100.0,205192.0,1.0
15:03:50.795794,177366.734375,181181.640625,195036.765625,173367.5625,168748.34375,192959.21875,688729.5,174168.90625,0.06640625,0.9912109375,-0.1962890625,-1.9226073026657104,0.3051757514476776,0.4272460639476776,100.0,205193.0,1.0
15:03:50.797675,177410.90625,181193.53125,195052.421875,173374.71875,168756.84375,192983.890625,688563.6875,174176.78125,0.065673828125,0.99072265625,-0.197265625,-1.9531248807907104,0.3662109076976776,0.4577636420726776,100.0,205194.0,1.0
15:03:50.807719,177490.734375,181213.296875,195074.234375,173376.046875,168767.296875,193043.71875,688828.9375,174180.984375,0.061767578125,0.989990234375,-0.1982421875,-1.9531248807907104,0.2746581733226776,0.5187987685203552,100.0,205195.0,1.0
15:03:50.810787,177446.03125,181210.15625,195065.5625,173377.484375,168768.203125,193035.671875,688961.0,174178.84375,0.05908203125,0.9912109375,-0.1982421875,-1.9836424589157104,0.1831054538488388,0.4272460639476776,100.0,205196.0,1.0
15:03:50.810815,177386.671875,181193.0,195047.046875,173379.09375,168760.234375,192976.390625,688770.3125,174179.28125,0.05859375,0.99365234375,-0.1962890625,-2.044677495956421,0.2136230319738388,0.4882812201976776,100.0,205197.0,1.0
15:03:50.813956,177406.34375,181200.765625,195057.328125,173383.65625,168764.4375,192987.5625,688561.0625,174185.640625,0.058837890625,0.994140625,-0.195556640625,-2.014159917831421,0.2136230319738388,0.6103515028953552,100.0,205198.0,1.0
15:03:50.829597,177489.21875,181212.9375,195072.71875,173376.59375,168764.796875,193039.234375,688784.3125,174181.25,0.057373046875,0.993896484375,-0.1953125,-2.105712652206421,0.2441406100988388,0.6103515028953552,100.0,205199.0,1.0
15:03:50.829624,177455.0625,181208.8125,195062.96875,173373.375,168761.3125,193040.046875,688965.5625,174175.53125,0.057373046875,0.995361328125,-0.196044921875,-2.166747808456421,0.1525878757238388,0.6103515028953552,100.0,205200.0,1.0
15:03:50.831490,177388.640625,181185.484375,195036.59375,173370.0625,168742.984375,192971.375,688817.0625,174170.078125,0.059326171875,0.994384765625,-0.197265625,-2.105712652206421,0.1525878757238388,0.5493163466453552,100.0,205201.0,1.0
15:03:50.833954,177379.703125,181184.046875,195033.90625,173370.15625,168736.28125,192958.328125,688567.25,174166.5,0.059326171875,0.99267578125,-0.197509765625,-2.136230230331421,0.1220703050494194,0.5493163466453552,100.0,205202.0,1.0
15:03:50.837706,177465.34375,181191.203125,195048.84375,173360.859375,168734.046875,193003.75,688718.375,174163.375,0.0595703125,0.9931640625,-0.1953125,-2.227782964706421,0.0610351525247097,0.5493163466453552,100.0,205203.0,1.0
15:03:50.845229,177457.84375,181197.015625,195056.0,173368.625,168742.796875,193026.1875,688951.0625,174170.875,0.06103515625,0.994384765625,-0.197998046875,-2.349853277206421,-0.03051757626235485,0.4882812201976776,100.0,205204.0,1.0
15:03:50.856421,177391.59375,181175.03125,195034.890625,173366.3125,168733.59375,192964.234375,688857.0,174165.515625,0.06201171875,0.9931640625,-0.1962890625,-2.288818120956421,-0.0915527269244194,0.3967284858226776,100.0,205205.0,1.0
15:03:50.856453,177369.953125,181176.09375,195031.9375,173367.734375,168733.59375,192945.359375,688602.3125,174166.140625,0.06103515625,0.994140625,-0.196533203125,-2.227782964706421,-0.0610351525247097,0.2746581733226776,100.0,205206.0,1.0
15:03:50.856462,177447.640625,181184.5,195044.90625,173358.171875,168732.609375,192990.515625,688657.8125,174162.65625,0.06103515625,0.993408203125,-0.19287109375,-2.319335699081421,-0.2441406100988388,0.3051757514476776,100.0,205207.0,1.0
15:03:50.859004,177460.96875,181196.921875,195056.0,173359.421875,168744.765625,193029.140625,688924.4375,174165.609375,0.061767578125,0.992431640625,-0.193603515625,-2.349853277206421,-0.1220703050494194,0.3051757514476776,100.0,205208.0,1.0
15:03:50.861513,177406.875,181189.59375,195047.328125,173368.90625,168748.171875,192988.375,688895.8125,174173.828125,0.06396484375,0.9931640625,-0.1943359375,-2.319335699081421,-0.1831054538488388,0.3967284858226776,100.0,205209.0,1.0
15:03:50.867726,177368.609375,181184.859375,195038.375,173367.375,168744.40625,192954.484375,688633.4375,174170.078125,0.064208984375,0.992431640625,-0.195556640625,-2.380370855331421,-0.2136230319738388,0.3356933295726776,100.0,205210.0,1.0
15:03:50.875807,177442.28125,181195.140625,195054.828125,173363.53125,168748.890625,192995.34375,688611.5625,174169.546875,0.064453125,0.990478515625,-0.193359375,-2.349853277206421,-0.0915527269244194,0.2441406100988388,100.0,205211.0,1.0
15:03:50.875844,177481.265625,181211.859375,195070.390625,173366.046875,168761.40625,193047.90625,688892.5,174173.65625,0.06396484375,0.988525390625,-0.193115234375,-2.319335699081421,-0.1220703050494194,0.3051757514476776,100.0,205212.0,1.0
15:03:50.878269,177421.1875,181198.984375,195055.546875,173370.421875,168758.546875,193013.21875,688918.875,174173.109375,0.063720703125,0.98828125,-0.1904296875,-2.227782964706421,0.03051757626235485,0.3356933295726776,100.0,205213.0,1.0
15:03:50.878295,177371.296875,181188.078125,195041.0625,173374.359375,168751.921875,192966.203125,688681.6875,174172.671875,0.06103515625,0.9873046875,-0.192138671875,-2.258300542831421,0.03051757626235485,0.3662109076976776,100.0,205214.0,1.0
15:03:50.889050,177429.5,181202.46875,195056.171875,173371.5,168757.015625,193002.9375,688578.0625,174173.203125,0.0615234375,0.988525390625,-0.193359375,-2.197265386581421,0.0915527269244194,0.3356933295726776,100.0,205215.0,1.0
15:03:50.897047,177485.28125,181214.359375,195070.484375,173366.21875,168763.1875,193054.265625,688859.4375,174171.0625,0.062744140625,0.98583984375,-0.1904296875,-2.227782964706421,0.03051757626235485,0.2136230319738388,100.0,205216.0,1.0
15:03:50.897075,177430.65625,181204.625,195056.171875,173368.546875,168759.515625,193030.390625,688941.6875,174171.0625,0.06298828125,0.985595703125,-0.191650390625,-2.166747808456421,-0.03051757626235485,0.2136230319738388,100.0,205217.0,1.0
15:03:50.899579,177367.265625,181183.78125,195029.796875,173360.765625,168741.28125,192965.84375,688727.3125,174162.390625,0.062255859375,0.98681640625,-0.19287109375,-2.075195074081421,0.0,0.2746581733226776,100.0,205218.0,1.0
15:03:50.899604,177401.953125,181190.578125,195039.453125,173359.78125,168740.75,192981.65625,688551.875,174163.90625,0.062744140625,0.986328125,-0.193359375,-2.105712652206421,0.0610351525247097,0.2136230319738388,100.0,205219.0,1.0
15:03:50.914014,177472.6875,181197.90625,195052.421875,173353.96875,168741.546875,193028.421875,688797.5,174162.296875,0.060791015625,0.98779296875,-0.193603515625,-2.105712652206421,0.1525878757238388,0.2441406100988388,100.0,205220.0,1.0
15:03:50.918910,177435.390625,181199.4375,195050.546875,173363.890625,168747.90625,193024.578125,688945.8125,174169.625,0.059814453125,0.98876953125,-0.195068359375,-1.9226073026657104,0.0915527269244194,0.2441406100988388,100.0,205221.0,1.0
15:03:50.918942,177377.90625,181180.484375,195032.65625,173367.203125,168738.78125,192960.921875,688777.6875,174170.078125,0.060302734375,0.9892578125,-0.193115234375,-1.8310545682907104,0.2136230319738388,0.1831054538488388,100.0,205222.0,1.0
15:03:50.918954,177392.21875,181184.953125,195038.734375,173367.375,168740.296875,192967.796875,688553.375,174169.0,0.060791015625,0.990234375,-0.187744140625,-1.7700194120407104,0.0610351525247097,0.1525878757238388,100.0,205223.0,1.0
15:03:50.922127,177475.0,181196.21875,195056.890625,173362.46875,168743.703125,193021.265625,688764.8125,174168.46875,0.06005859375,0.988525390625,-0.1904296875,-1.7700194120407104,-0.03051757626235485,0.1831054538488388,100.0,205224.0,1.0
15:03:50.922161,177445.859375,181198.53125,195054.46875,173364.609375,168746.734375,193031.546875,688950.1875,174169.09375,0.059326171875,0.9892578125,-0.1923828125,-1.8310545682907104,0.03051757626235485,0.2441406100988388,100.0,205225.0,1.0
15:03:50.954068,177384.25,181179.671875,195034.984375,173364.96875,168736.71875,192968.515625,688829.3125,174167.578125,0.059814453125,0.99169921875,-0.193359375,-1.7395018339157104,0.0,0.1831054538488388,100.0,205226.0,1.0
15:03:50.957173,177375.3125,181181.546875,195035.96875,173367.5625,168737.078125,192959.125,688577.1875,174169.71875,0.060302734375,0.991455078125,-0.19482421875,-1.7395018339157104,0.0,0.3356933295726776,100.0,205227.0,1.0
15:03:50.957243,177456.140625,181188.25,195048.125,173354.59375,168734.578125,193006.15625,688706.625,174162.921875,0.059814453125,0.990478515625,-0.193359375,-1.7395018339157104,-0.03051757626235485,0.3051757514476776,100.0,205228.0,1.0
15:03:50.960188,177444.875,181192.90625,195049.28125,173351.90625,168740.5625,193031.375,688943.125,174161.765625,0.058837890625,0.98974609375,-0.190185546875,-1.6479490995407104,-0.0610351525247097,0.2441406100988388,100.0,205229.0,1.0
15:03:50.960253,177384.4375,181177.265625,195034.71875,173357.09375,168737.53125,192977.28125,688863.1875,174165.34375,0.05712890625,0.990478515625,-0.189453125,-1.6174315214157104,-0.0610351525247097,0.3967284858226776,100.0,205230.0,1.0
15:03:50.960280,177358.421875,181169.296875,195028.90625,173360.9375,168734.125,192949.5625,688604.4375,174162.65625,0.05908203125,0.991943359375,-0.192626953125,-1.6174315214157104,0.03051757626235485,0.3662109076976776,100.0,205231.0,1.0
15:03:50.963994,177444.78125,181184.046875,195046.875,173352.53125,168736.640625,192998.375,688663.375,174159.4375,0.05908203125,0.991943359375,-0.191650390625,-1.6174315214157104,-0.0610351525247097,0.5187987685203552,100.0,205232.0,1.0
15:03:50.964063,177461.859375,181198.09375,195055.90625,173353.609375,168747.359375,193038.890625,688932.5625,174160.859375,0.057861328125,0.991943359375,-0.194091796875,-1.6174315214157104,-0.0915527269244194,0.4882812201976776,100.0,205233.0,1.0
15:03:50.964091,177396.5,181178.78125,195035.25,173355.9375,168740.03125,192987.109375,688902.4375,174161.21875,0.059326171875,0.99072265625,-0.1923828125,-1.6479490995407104,-0.0915527269244194,0.5798339247703552,100.0,205234.0,1.0
15:03:50.966509,177354.75,181168.9375,195023.453125,173354.953125,168734.75,192946.96875,688642.875,174158.09375,0.059814453125,0.991455078125,-0.193359375,-1.5563963651657104,-0.0915527269244194,0.6103515028953552,100.0,205235.0,1.0
15:03:50.969031,177437.1875,181194.421875,195052.328125,173362.90625,168750.578125,193000.078125,688610.875,174169.984375,0.061279296875,0.990478515625,-0.19287109375,-1.4953612089157104,-0.1525878757238388,0.6408690810203552,100.0,205236.0,1.0
15:03:50.976558,177481.0,181211.5,195074.5,173372.921875,168768.109375,193054.171875,688893.125,174180.265625,0.060791015625,0.991455078125,-0.19287109375,-1.4648436307907104,-0.1220703050494194,0.7019042372703552,100.0,205237.0,1.0
15:03:50.983357,177425.734375,181200.5,195063.140625,173377.296875,168768.90625,193022.171875,688925.5625,174181.96875,0.06005859375,0.992919921875,-0.194580078125,-1.4038084745407104,-0.0915527269244194,0.7019042372703552,100.0,205238.0,1.0
