Timestamp,Fz,FC3,FCz,FC4,Cz,C3,C4
15:01:57.032999,177125.6875,182104.671875,195766.6875,174039.71875,170659.6875,193732.953125,688405.9375,173803.421875,0.06396484375,0.976318359375,-0.259765625,-0.9460448622703552,0.2441406100988388,0.7019042372703552,100.0,176728.0,1.0
15:01:57.036685,177202.046875,182116.21875,195785.109375,174038.375,170665.046875,193783.203125,688641.625,173805.296875,0.063232421875,0.9755859375,-0.25927734375,-0.9460448622703552,0.2441406100988388,0.8239745497703552,100.0,176729.0,1.0
15:01:57.036714,177161.640625,182115.578125,195781.984375,174043.296875,170671.484375,193776.9375,688750.0625,173807.890625,0.062744140625,0.9775390625,-0.257568359375,-0.9460448622703552,0.3051757514476776,0.7629393935203552,100.0,176730.0,1.0
15:01:57.036725,177099.234375,182100.390625,195766.328125,174046.78125,170666.578125,193716.953125,688594.8125,173809.40625,0.063232421875,0.978271484375,-0.256591796875,-1.0375975370407104,0.4272460639476776,0.7324218153953552,100.0,176731.0,1.0
15:01:57.039203,177120.859375,182115.578125,195780.09375,174052.421875,170676.046875,193730.796875,688407.9375,173815.484375,0.063720703125,0.97802734375,-0.256591796875,-1.0375975370407104,0.5493163466453552,0.8239745497703552,100.0,176732.0,1.0
15:01:57.042265,177219.296875,182137.21875,195807.28125,174053.40625,170688.203125,193792.5,688610.1875,173820.21875,0.062744140625,0.976806640625,-0.259521484375,-1.0986326932907104,0.6408690810203552,0.7934569716453552,100.0,176733.0,1.0
15:01:57.042286,177200.25,182146.15625,195813.71875,174064.75,170701.078125,193808.671875,688764.75,173828.453125,0.061767578125,0.977294921875,-0.2587890625,-1.1596678495407104,0.6713866591453552,0.7629393935203552,100.0,176734.0,1.0
15:01:57.044231,177134.71875,182131.5,195797.984375,174070.65625,170697.0625,193752.0,688646.8125,173832.125,0.060302734375,0.97509765625,-0.259765625,-1.1596678495407104,0.6103515028953552,0.7934569716453552,100.0,176735.0,1.0
15:01:57.046729,177124.984375,182132.578125,195797.265625,174068.78125,170694.734375,193743.046875,688424.0,173827.921875,0.061279296875,0.97509765625,-0.2587890625,-1.1291502714157104,0.6408690810203552,0.8239745497703552,100.0,176736.0,1.0
15:01:57.049251,177223.328125,182147.859375,195819.0,174065.109375,170698.3125,193796.421875,688564.8125,173827.109375,0.060791015625,0.97509765625,-0.260498046875,-1.2207030057907104,0.6713866591453552,0.7934569716453552,100.0,176737.0,1.0
15:01:57.051732,177223.234375,182160.203125,195828.375,174075.9375,170709.125,193824.59375,688763.9375,173834.796875,0.060546875,0.976806640625,-0.26318359375,-1.3122557401657104,0.5493163466453552,0.8850097060203552,100.0,176738.0,1.0
15:01:57.054337,177153.9375,182140.171875,195808.359375,174085.859375,170698.5,193765.40625,688674.375,173837.390625,0.059814453125,0.9765625,-0.2626953125,-1.3427733182907104,0.6103515028953552,0.7934569716453552,100.0,176739.0,1.0
15:01:57.057348,177137.046875,182145.984375,195811.65625,174090.0625,170701.796875,193749.21875,688452.5625,173840.796875,0.05908203125,0.975341796875,-0.26025390625,-1.2817381620407104,0.6103515028953552,0.7934569716453552,100.0,176740.0,1.0
15:01:57.057359,177233.515625,182163.6875,195831.15625,174081.296875,170704.65625,193799.203125,688520.5625,173836.140625,0.058837890625,0.977294921875,-0.262939453125,-1.3732908964157104,0.5187987685203552,0.7019042372703552,100.0,176741.0,1.0
15:01:57.067429,177242.1875,182168.15625,195831.59375,174078.796875,170703.5,193827.90625,688749.875,173833.375,0.06103515625,0.976806640625,-0.262451171875,-1.4343260526657104,0.5187987685203552,0.7324218153953552,100.0,176742.0,1.0
15:01:57.067442,177152.96875,182130.875,195790.390625,174060.828125,170675.875,193760.046875,688703.5,173814.859375,0.061767578125,0.975341796875,-0.26171875,-1.4953612089157104,0.3967284858226776,0.6713866591453552,100.0,176743.0,1.0
15:01:57.069364,177104.953125,182120.234375,195774.375,174063.40625,170667.015625,193722.046875,688476.25,173816.828125,0.0625,0.973388671875,-0.2607421875,-1.4343260526657104,0.4882812201976776,0.6408690810203552,100.0,176744.0,1.0
15:01:57.071898,177180.859375,182134.453125,195788.859375,174048.65625,170669.34375,193766.828125,688473.375,173808.96875,0.061767578125,0.974853515625,-0.259033203125,-1.4343260526657104,0.5187987685203552,0.6103515028953552,100.0,176745.0,1.0
15:01:57.081784,177220.828125,182146.25,195804.234375,174053.125,170682.125,193815.109375,688732.3125,173814.421875,0.06103515625,0.978271484375,-0.2587890625,-1.4648436307907104,0.5798339247703552,0.7019042372703552,100.0,176746.0,1.0
15:01:57.084866,177151.796875,182126.5,195785.5625,174056.796875,170677.125,193773.453125,688740.1875,173817.71875,0.059326171875,0.979248046875,-0.258056640625,-1.4953612089157104,0.4882812201976776,0.7629393935203552,100.0,176747.0,1.0
15:01:57.084878,177096.09375,182110.125,195770.984375,174060.734375,170672.296875,193722.484375,688532.625,173833.09375,0.060546875,0.979736328125,-0.25732421875,-1.5869139432907104,0.5493163466453552,0.6408690810203552,100.0,176748.0,1.0
15:01:57.109312,177154.65625,182122.5625,195785.015625,174050.0,170677.484375,193755.296875,688449.9375,173821.296875,0.060302734375,0.9814453125,-0.258056640625,-1.6784666776657104,0.6103515028953552,0.6103515028953552,100.0,176749.0,1.0
15:01:57.137341,177211.96875,182133.46875,195797.796875,174042.21875,170682.9375,193806.078125,688704.0625,173810.21875,0.06103515625,0.98046875,-0.260498046875,-1.8615721464157104,0.5798339247703552,0.6408690810203552,100.0,176750.0,1.0
15:01:57.137372,177156.0,182124.609375,195786.0,174047.671875,170683.5625,193784.359375,688762.3125,173817.984375,0.0615234375,0.978759765625,-0.259521484375,-1.8310545682907104,0.6103515028953552,0.7019042372703552,100.0,176751.0,1.0
15:01:57.139182,177090.5625,182104.859375,195765.4375,174045.71875,170670.859375,193722.125,688570.9375,173814.0625,0.061279296875,0.97705078125,-0.260498046875,-1.9531248807907104,0.5493163466453552,0.7324218153953552,100.0,176752.0,1.0
15:01:57.141707,177129.09375,182110.21875,195774.5625,174046.78125,170668.8125,193737.515625,688422.4375,173814.140625,0.059814453125,0.9765625,-0.25830078125,-1.8615721464157104,0.4882812201976776,0.7934569716453552,100.0,176753.0,1.0
15:01:57.144250,177208.125,182124.25,195789.75,174039.71875,170670.59375,193791.0625,688648.0,173809.140625,0.059814453125,0.975830078125,-0.26220703125,-1.8615721464157104,0.5187987685203552,0.7629393935203552,100.0,176754.0,1.0
15:01:57.146752,177163.328125,182122.203125,195783.5,174042.140625,170671.765625,193782.921875,688763.375,173807.53125,0.059814453125,0.976806640625,-0.259765625,-1.9836424589157104,0.6103515028953552,0.8544921278953552,100.0,176755.0,1.0
15:01:57.149205,177102.625,182109.859375,195770.53125,174053.40625,170668.453125,193723.734375,688594.0,173816.203125,0.05712890625,0.976806640625,-0.261474609375,-1.9836424589157104,0.5187987685203552,0.8850097060203552,100.0,176756.0,1.0
15:01:57.151763,177125.953125,182122.203125,195783.59375,174060.46875,170676.046875,193735.0,688400.3125,173823.265625,0.057373046875,0.9765625,-0.26025390625,-1.9226073026657104,0.4882812201976776,0.7934569716453552,100.0,176757.0,1.0
15:01:57.154222,177223.328125,182140.4375,195807.453125,174059.75,170684.640625,193794.28125,688598.8125,173827.203125,0.05810546875,0.975830078125,-0.25927734375,-1.8920897245407104,0.3967284858226776,0.8544921278953552,100.0,176758.0,1.0
15:01:57.156685,177205.53125,182150.28125,195814.875,174072.359375,170698.046875,193812.25,688760.4375,173840.875,0.059326171875,0.974365234375,-0.259765625,-1.8920897245407104,0.3662109076976776,0.7629393935203552,100.0,176759.0,1.0
15:01:57.159217,177145.359375,182137.046875,195800.671875,174085.671875,170692.59375,193754.234375,688638.75,173850.359375,0.05810546875,0.97314453125,-0.257080078125,-1.8005369901657104,0.1525878757238388,0.7629393935203552,100.0,176760.0,1.0
15:01:57.161756,177138.390625,182135.703125,195798.515625,174079.953125,170687.234375,193742.6875,688423.8125,173838.5625,0.058837890625,0.973388671875,-0.260986328125,-1.8615721464157104,0.03051757626235485,0.7629393935203552,100.0,176761.0,1.0
15:01:57.164197,177238.4375,182150.984375,195821.9375,174081.03125,170692.59375,193794.8125,688567.0,173841.859375,0.059814453125,0.9765625,-0.261474609375,-1.8310545682907104,0.0610351525247097,0.6408690810203552,100.0,176762.0,1.0
15:01:57.166732,177231.28125,182156.890625,195824.53125,174081.65625,170695.90625,193816.28125,688761.0,173839.1875,0.060546875,0.9765625,-0.261474609375,-1.8615721464157104,0.0610351525247097,0.5798339247703552,100.0,176763.0,1.0
15:01:57.169873,177163.421875,182139.8125,195804.328125,174086.390625,170685.96875,193759.328125,688673.3125,173838.109375,0.06005859375,0.976318359375,-0.258544921875,-1.8920897245407104,0.0610351525247097,0.7629393935203552,100.0,176764.0,1.0
15:01:57.169881,177134.0,182136.78125,195793.78125,174082.09375,170677.75,193736.078125,688439.125,173830.59375,0.060791015625,0.97412109375,-0.258544921875,-1.8310545682907104,0.0610351525247097,0.6103515028953552,100.0,176765.0,1.0
15:01:57.172345,177221.53125,182143.5625,195805.671875,174072.0,170674.625,193779.4375,688515.5625,173824.96875,0.06103515625,0.972900390625,-0.26220703125,-1.8920897245407104,0.03051757626235485,0.7324218153953552,100.0,176766.0,1.0
15:01:57.172366,177228.234375,182141.15625,195806.03125,174067.609375,170675.609375,193807.25,688744.75,173820.9375,0.06298828125,0.973388671875,-0.2607421875,-1.8920897245407104,0.0610351525247097,0.7934569716453552,100.0,176767.0,1.0
15:01:57.174840,177147.234375,182116.03125,195778.046875,174060.1875,170663.53125,193752.890625,688700.75,173814.234375,0.061767578125,0.973876953125,-0.26025390625,-1.8005369901657104,0.0,0.7934569716453552,100.0,176768.0,1.0
15:01:57.174849,177100.03125,182108.34375,195765.34375,174056.171875,170660.859375,193719.359375,688481.625,173811.203125,0.0625,0.975341796875,-0.25927734375,-1.8310545682907104,0.03051757626235485,0.7019042372703552,100.0,176769.0,1.0
15:01:57.176816,177176.125,182117.546875,195780.28125,174050.0,170663.53125,193759.765625,688460.375,173812.890625,0.061767578125,0.97607421875,-0.258544921875,-1.7700194120407104,0.0,0.7934569716453552,100.0,176770.0,1.0
15:01:57.179200,177212.328125,182127.65625,195791.09375,174051.25,170670.15625,193804.65625,688705.8125,173816.828125,0.063232421875,0.976806640625,-0.25830078125,-1.7700194120407104,0.0610351525247097,0.7934569716453552,100.0,176771.0,1.0
15:01:57.189808,177147.78125,182115.859375,195775.453125,174055.09375,170666.21875,193767.453125,688721.5,173818.703125,0.062744140625,0.976806640625,-0.2626953125,-1.9226073026657104,0.03051757626235485,0.8239745497703552,100.0,176772.0,1.0
15:01:57.189819,177092.703125,182101.453125,195760.4375,174056.4375,170657.984375,193718.375,688508.9375,173817.546875,0.06298828125,0.9755859375,-0.2626953125,-1.9226073026657104,0.0915527269244194,0.7324218153953552,100.0,176773.0,1.0
15:01:57.192275,177155.734375,182112.90625,195777.15625,174053.84375,170662.109375,193751.453125,688420.25,173818.703125,0.063232421875,0.976318359375,-0.262939453125,-1.8615721464157104,0.1220703050494194,0.6713866591453552,100.0,176774.0,1.0
15:01:57.192279,177228.515625,182137.84375,195802.90625,174062.25,170679.984375,193812.96875,688677.6875,173827.5625,0.064208984375,0.973876953125,-0.2626953125,-1.8615721464157104,0.0915527269244194,0.6103515028953552,100.0,176775.0,1.0
15:01:57.202959,177177.546875,182133.46875,195795.390625,174069.40625,170682.046875,193793.921875,688736.5625,173830.953125,0.06298828125,0.97509765625,-0.260986328125,-1.9836424589157104,0.0915527269244194,0.6103515028953552,100.0,176776.0,1.0
15:01:57.206012,177118.890625,182119.421875,195779.46875,174072.53125,170675.6875,193738.140625,688552.25,173833.015625,0.06298828125,0.974853515625,-0.260498046875,-1.8310545682907104,0.0915527269244194,0.5493163466453552,100.0,176777.0,1.0
15:01:57.206022,177156.09375,182127.921875,195788.140625,174068.15625,170677.125,193757.359375,688398.6875,173830.515625,0.065185546875,0.9765625,-0.259521484375,-1.8310545682907104,0.1525878757238388,0.5493163466453552,100.0,176778.0,1.0
15:01:57.211849,177235.9375,182142.40625,195806.5625,174063.953125,170682.84375,193811.8125,688643.0625,173829.96875,0.064697265625,0.9765625,-0.260986328125,-1.8310545682907104,0.2136230319738388,0.4882812201976776,100.0,176779.0,1.0
15:01:57.218593,177199.625,182148.484375,195807.28125,174076.203125,170690.359375,193812.171875,688755.0625,173839.0,0.064208984375,0.975341796875,-0.258544921875,-1.9226073026657104,0.2136230319738388,0.4272460639476776,100.0,176780.0,1.0
15:01:57.218610,177131.59375,182116.5625,195786.453125,174078.609375,170678.203125,193740.734375,688610.875,173839.453125,0.064208984375,0.976318359375,-0.259765625,-1.7700194120407104,0.2136230319738388,0.3051757514476776,100.0,176781.0,1.0
15:01:57.228634,177143.65625,182120.140625,195789.9375,174074.234375,170675.78125,193743.953125,688407.5625,173836.859375,0.06591796875,0.9775390625,-0.259765625,-1.7395018339157104,0.2746581733226776,0.3662109076976776,100.0,176782.0,1.0
15:01:57.228643,177229.9375,182129.625,195803.078125,174061.453125,170673.375,193790.890625,688593.875,173828.984375,0.06494140625,0.9775390625,-0.257568359375,-1.8615721464157104,0.3356933295726776,0.3051757514476776,100.0,176783.0,1.0
15:01:57.232249,177209.28125,182148.21875,195810.140625,174069.140625,170684.453125,193810.90625,688754.1875,173835.421875,0.064208984375,0.976318359375,-0.259765625,-1.8615721464157104,0.2746581733226776,0.3356933295726776,100.0,176784.0,1.0
15:01:57.232258,177131.234375,182122.921875,195781.984375,174062.703125,170666.21875,193742.515625,688625.0,173826.484375,0.063720703125,0.9765625,-0.260498046875,-1.8615721464157104,0.3662109076976776,0.3051757514476776,100.0,176785.0,1.0
15:01:57.241777,177124.703125,182112.90625,195781.703125,174064.578125,170664.421875,193731.421875,688413.4375,173826.65625,0.061767578125,0.978515625,-0.2568359375,-1.9836424589157104,0.2746581733226776,0.2746581733226776,100.0,176786.0,1.0
15:01:57.246034,177220.375,182134.625,195802.546875,174060.640625,170670.234375,193791.78125,688557.5,173825.328125,0.062744140625,0.97998046875,-0.257568359375,-2.044677495956421,0.2746581733226776,0.2746581733226776,100.0,176787.0,1.0
15:01:57.246045,177211.875,182137.578125,195805.671875,174062.25,170676.765625,193815.03125,688757.0625,173825.40625,0.063720703125,0.979736328125,-0.257568359375,-2.075195074081421,0.3051757514476776,0.2746581733226776,100.0,176788.0,1.0
15:01:57.256078,177141.421875,182117.828125,195785.5625,174062.515625,170669.34375,193757.71875,688672.5,173823.265625,0.06298828125,0.979736328125,-0.25537109375,-2.166747808456421,0.2441406100988388,0.2746581733226776,100.0,176789.0,1.0
15:01:57.256090,177121.3125,182125.515625,195786.984375,174063.234375,170673.90625,193744.390625,688459.625,173823.09375,0.061767578125,0.97900390625,-0.25732421875,-2.166747808456421,0.3051757514476776,0.3356933295726776,100.0,176790.0,1.0
15:01:57.258665,177221.53125,182149.828125,195815.328125,174063.859375,170688.75,193805.546875,688534.0625,173830.0625,0.06103515625,0.979736328125,-0.2548828125,-2.258300542831421,0.4272460639476776,0.2746581733226776,100.0,176791.0,1.0
15:01:57.258677,177236.203125,182168.421875,195825.4375,174064.75,170700.8125,193851.140625,688766.625,173832.03125,0.06103515625,0.97802734375,-0.258544921875,-2.227782964706421,0.4272460639476776,0.3051757514476776,100.0,176792.0,1.0
15:01:57.268105,177162.53125,182139.28125,195800.390625,174063.234375,170688.921875,193785.703125,688735.25,173830.515625,0.061279296875,0.9716796875,-0.2607421875,-2.227782964706421,0.3967284858226776,0.3356933295726776,100.0,176793.0,1.0
15:01:57.274883,177122.734375,182132.578125,195794.046875,174070.390625,170688.921875,193754.765625,688508.0625,173837.578125,0.05908203125,0.964111328125,-0.255859375,-2.166747808456421,0.2746581733226776,0.2746581733226776,100.0,176794.0,1.0
15:01:57.274903,177212.859375,182153.40625,195820.78125,174077.71875,170701.71875,193802.6875,688501.625,173850.796875,0.06005859375,0.965576171875,-0.259521484375,-1.8310545682907104,0.3662109076976776,0.0915527269244194,100.0,176795.0,1.0
15:01:57.284841,177253.453125,182156.0,195833.125,174081.921875,170707.703125,193839.796875,688748.375,173857.0625,0.061767578125,0.975341796875,-0.26220703125,-1.6784666776657104,0.3051757514476776,0.1525878757238388,100.0,176796.0,1.0
15:01:57.284858,177180.3125,182135.4375,195807.640625,174077.265625,170692.59375,193793.296875,688744.75,173848.484375,0.062255859375,0.981201171875,-0.259521484375,-1.5258787870407104,0.1831054538488388,0.2746581733226776,100.0,176797.0,1.0
15:01:57.288624,177115.765625,182115.140625,195781.703125,174065.46875,170672.390625,193735.453125,688518.1875,173834.796875,0.0634765625,0.985595703125,-0.249267578125,-1.6479490995407104,0.3051757514476776,0.3356933295726776,100.0,176798.0,1.0
15:01:57.288633,177175.140625,182125.15625,195796.46875,174062.25,170673.015625,193767.109375,688427.5625,173832.921875,0.06298828125,0.9833984375,-0.245849609375,-1.8310545682907104,0.4272460639476776,0.3967284858226776,100.0,176799.0,1.0
15:01:57.294841,177244.609375,182158.765625,195820.78125,174067.703125,170686.6875,193835.5,688675.6875,173839.625,0.0615234375,0.98095703125,-0.251220703125,-1.9836424589157104,0.4577636420726776,0.4882812201976776,100.0,176800.0,1.0
15:01:57.294862,177194.359375,182149.828125,195812.375,174075.03125,170687.234375,193806.265625,688732.3125,173843.65625,0.05712890625,0.9775390625,-0.254150390625,-2.166747808456421,0.3967284858226776,0.6103515028953552,100.0,176801.0,1.0
15:01:57.300472,177123.1875,182121.578125,195782.15625,174063.59375,170665.5,193735.71875,688551.125,173828.265625,0.05615234375,0.973876953125,-0.257568359375,-2.197265386581421,0.3662109076976776,0.7324218153953552,100.0,176802.0,1.0
15:01:57.311082,177169.140625,182150.453125,195798.515625,174064.125,170671.9375,193779.359375,688397.4375,173828.984375,0.05615234375,0.973388671875,-0.258544921875,-2.075195074081421,0.2746581733226776,0.7629393935203552,100.0,176803.0,1.0
15:01:57.311092,177247.203125,182154.921875,195813.890625,174062.4375,170673.546875,193810.28125,688644.25,173829.4375,0.057373046875,0.9755859375,-0.256591796875,-1.9836424589157104,0.1831054538488388,0.7629393935203552,100.0,176804.0,1.0
15:01:57.313574,177202.140625,182146.515625,195803.25,174064.484375,170672.390625,193803.578125,688764.375,173827.109375,0.0576171875,0.976806640625,-0.25439453125,-1.9836424589157104,0.1525878757238388,0.7324218153953552,100.0,176805.0,1.0
15:01:57.313577,177132.390625,182116.125,195779.921875,174063.234375,170660.40625,193741.4375,688611.9375,173823.4375,0.057861328125,0.9775390625,-0.2529296875,-2.014159917831421,0.1220703050494194,0.7324218153953552,100.0,176806.0,1.0
15:01:57.321795,177143.3125,182123.0,195779.5625,174058.3125,170655.125,193748.328125,688416.125,173819.25,0.059814453125,0.979736328125,-0.2548828125,-1.9226073026657104,0.0,0.8544921278953552,100.0,176807.0,1.0
15:01:57.326088,177222.15625,182131.953125,195787.515625,174046.15625,170648.953125,193797.59375,688598.875,173811.015625,0.060546875,0.97802734375,-0.2548828125,-1.9226073026657104,0.1220703050494194,0.9460448622703552,100.0,176808.0,1.0
15:01:57.326097,177196.328125,182139.453125,195788.6875,174051.609375,170656.828125,193818.515625,688759.8125,173815.125,0.060302734375,0.977294921875,-0.254150390625,-1.9531248807907104,0.0,0.8544921278953552,100.0,176809.0,1.0
15:01:57.340799,177123.1875,182112.359375,195767.234375,174051.171875,170648.875,193759.5,688629.5625,173816.734375,0.061279296875,0.980224609375,-0.25341796875,-2.044677495956421,-0.1220703050494194,1.0070799589157104,100.0,176810.0,1.0
15:01:57.343598,177110.671875,182095.734375,195763.734375,174046.875,170648.0625,193733.3125,688414.8125,173815.40625,0.06298828125,0.979736328125,-0.25341796875,-1.9531248807907104,-0.1831054538488388,1.0375975370407104,100.0,176811.0,1.0
15:01:57.343601,177213.21875,182117.546875,195788.953125,174045.359375,170661.828125,193785.15625,688560.375,173822.46875,0.0625,0.9794921875,-0.250244140625,-1.9531248807907104,-0.1220703050494194,1.0070799589157104,100.0,176812.0,1.0
15:01:57.349856,177208.9375,182132.65625,195797.53125,174051.34375,170675.96875,193816.8125,688758.25,173828.453125,0.063232421875,0.974365234375,-0.25244140625,-2.014159917831421,-0.03051757626235485,1.0681151151657104,100.0,176813.0,1.0
15:01:57.349866,177143.9375,182126.140625,195784.03125,174055.8125,170673.546875,193768.265625,688668.125,173831.140625,0.063232421875,0.972412109375,-0.2548828125,-2.044677495956421,-0.0915527269244194,1.0375975370407104,100.0,176814.0,1.0
15:01:57.358624,177127.5625,182136.6875,195790.734375,174067.703125,170683.5625,193758.25,688443.25,173839.09375,0.06591796875,0.97021484375,-0.2568359375,-1.8615721464157104,0.03051757626235485,0.9765624403953552,100.0,176815.0,1.0
15:01:57.358639,177216.34375,182141.421875,195808.265625,174064.75,170686.421875,193803.84375,688520.5625,173839.53125,0.06494140625,0.970458984375,-0.257080078125,-1.8920897245407104,0.0,1.0375975370407104,100.0,176816.0,1.0
15:01:57.366034,177237.265625,182159.3125,195820.328125,174070.296875,170696.53125,193847.390625,688740.625,173841.5,0.063720703125,0.96923828125,-0.258544921875,-1.7700194120407104,0.0610351525247097,0.9155272841453552,100.0,176817.0,1.0
15:01:57.366153,177168.78125,182127.5625,195799.59375,174072.09375,170688.296875,193780.421875,688697.125,173839.265625,0.063720703125,0.96923828125,-0.2587890625,-1.6479490995407104,0.0610351525247097,0.9765624403953552,100.0,176818.0,1.0
15:01:57.368626,177138.5625,182148.578125,195803.796875,174082.09375,170695.0,193760.9375,688481.75,173846.328125,0.0615234375,0.9697265625,-0.259765625,-1.5563963651657104,0.1220703050494194,0.8544921278953552,100.0,176819.0,1.0
15:01:57.368649,177219.390625,182157.421875,195822.296875,174077.625,170699.03125,193801.875,688462.8125,173844.71875,0.0615234375,0.968994140625,-0.25732421875,-1.5563963651657104,-0.0610351525247097,0.8544921278953552,100.0,176820.0,1.0
15:01:57.378062,177253.0,182158.046875,195828.109375,174070.65625,170701.890625,193841.21875,688702.0,173840.34375,0.06103515625,0.97021484375,-0.2568359375,-1.4343260526657104,-0.0915527269244194,0.6713866591453552,100.0,176821.0,1.0
15:01:57.384832,177185.0625,182134.09375,195810.5,174071.546875,170696.96875,193796.703125,688713.5,173842.578125,0.062255859375,0.973388671875,-0.25830078125,-1.3122557401657104,-0.03051757626235485,0.5798339247703552,100.0,176822.0,1.0
15:01:57.384890,177137.9375,182130.875,195801.640625,174079.234375,170693.484375,193754.59375,688507.6875,173848.75,0.06494140625,0.974609375,-0.25537109375,-1.1596678495407104,-0.03051757626235485,0.6713866591453552,100.0,176823.0,1.0
15:01:57.399861,177210.625,182155.28125,195823.375,174087.46875,170700.375,193796.875,688434.5,173857.953125,0.06591796875,0.976318359375,-0.25634765625,-1.1901854276657104,-0.03051757626235485,0.5187987685203552,100.0,176824.0,1.0
15:01:57.399888,177275.1875,182180.9375,195842.6875,174089.15625,170708.421875,193871.984375,688685.6875,173859.75,0.065673828125,0.97607421875,-0.256103515625,-0.9765624403953552,0.03051757626235485,0.5493163466453552,100.0,176825.0,1.0
15:01:57.402284,177208.75,182155.375,195821.046875,174084.875,170695.0,193816.359375,688737.5,173851.609375,0.06640625,0.972900390625,-0.257080078125,-0.9460448622703552,0.1525878757238388,0.4577636420726776,100.0,176826.0,1.0
15:01:57.402293,177143.03125,182139.015625,195800.484375,174081.734375,170682.484375,193754.046875,688551.25,173844.546875,0.06591796875,0.9716796875,-0.260009765625,-0.7934569716453552,0.0915527269244194,0.4272460639476776,100.0,176827.0,1.0
15:01:57.412264,177178.0,182139.375,195801.015625,174070.828125,170673.734375,193766.75,688407.5,173833.015625,0.0654296875,0.970947265625,-0.261962890625,-0.6713866591453552,0.0610351525247097,0.4577636420726776,100.0,176828.0,1.0
15:01:57.412277,177254.609375,182154.125,195815.328125,174065.296875,170676.046875,193823.78125,688654.75,173829.796875,0.0634765625,0.969970703125,-0.260009765625,-0.5798339247703552,0.03051757626235485,0.4272460639476776,100.0,176829.0,1.0
15:01:57.418569,177201.15625,182146.078125,195802.09375,174060.640625,170673.640625,193819.140625,688758.3125,173824.515625,0.063232421875,0.971923828125,-0.253662109375,-0.5187987685203552,0.03051757626235485,0.3967284858226776,100.0,176830.0,1.0
15:01:57.418599,177122.921875,182114.953125,195770.984375,174052.234375,170655.671875,193749.765625,688593.5625,173818.625,0.060302734375,0.974609375,-0.25537109375,-0.6103515028953552,0.1220703050494194,0.2136230319738388,100.0,176831.0,1.0
15:01:57.426191,177133.03125,182117.1875,195769.90625,174045.078125,170651.640625,193751.546875,688399.0625,173815.3125,0.05810546875,0.97705078125,-0.2548828125,-0.5798339247703552,-0.03051757626235485,0.1220703050494194,100.0,176832.0,1.0
15:01:57.426209,177219.75,182130.875,195787.796875,174037.3125,170656.203125,193809.390625,688592.8125,173814.328125,0.056396484375,0.97900390625,-0.254638671875,-0.6103515028953552,-0.1525878757238388,0.03051757626235485,100.0,176833.0,1.0
15:01:57.432289,177188.453125,182128.453125,195788.234375,174043.5625,170665.953125,193828.53125,688754.375,173822.109375,0.0546875,0.980712890625,-0.257568359375,-0.7019042372703552,-0.1220703050494194,-0.1220703050494194,100.0,176834.0,1.0
15:01:57.432298,177118.625,182106.640625,195765.53125,174045.359375,170655.9375,193754.859375,688629.8125,173822.734375,0.0556640625,0.9833984375,-0.25830078125,-0.8239745497703552,-0.2441406100988388,-0.0915527269244194,100.0,176835.0,1.0
15:01:57.441837,177121.046875,182124.34375,195774.015625,174052.140625,170663.984375,193752.890625,688411.6875,173827.640625,0.0576171875,0.985107421875,-0.254638671875,-0.9460448622703552,-0.2136230319738388,-0.1525878757238388,100.0,176836.0,1.0
15:01:57.446223,177215.015625,182134.8125,195795.484375,174046.421875,170670.859375,193812.703125,688552.3125,173825.328125,0.0595703125,0.985595703125,-0.255126953125,-0.9765624403953552,-0.3051757514476776,-0.2136230319738388,100.0,176837.0,1.0
15:01:57.446248,177209.640625,182138.203125,195802.984375,174051.4375,170681.5,193832.375,688746.4375,173827.296875,0.0615234375,0.987548828125,-0.25341796875,-1.1291502714157104,-0.3356933295726776,-0.2441406100988388,100.0,176838.0,1.0
15:01:57.470505,177147.5,182128.375,195788.953125,174059.5625,170676.5,193773.0,688662.125,173832.296875,0.06201171875,0.987060546875,-0.2578125,-1.3122557401657104,-0.3356933295726776,-0.1525878757238388,100.0,176839.0,1.0
15:01:57.499940,177130.875,182131.59375,195792.53125,174068.15625,170683.46875,193760.9375,688446.625,173838.375,0.063232421875,0.986572265625,-0.2587890625,-1.4953612089157104,-0.3051757514476776,-0.0610351525247097,100.0,176840.0,1.0
15:01:57.499955,177230.921875,182152.515625,195820.421875,174070.828125,170696.96875,193816.90625,688521.1875,173845.703125,0.064208984375,0.983642578125,-0.257568359375,-1.5563963651657104,-0.3051757514476776,0.0915527269244194,100.0,176841.0,1.0
15:01:57.502257,177253.1875,182169.234375,195837.140625,174082.1875,170712.890625,193859.734375,688748.8125,173856.890625,0.063232421875,0.9833984375,-0.257568359375,-1.6479490995407104,-0.1831054538488388,0.2441406100988388,100.0,176842.0,1.0
15:01:57.502264,177182.828125,182146.96875,195817.203125,174084.875,170703.59375,193802.421875,688715.9375,173855.8125,0.0634765625,0.98095703125,-0.255126953125,-1.6174315214157104,-0.1525878757238388,0.3356933295726776,100.0,176843.0,1.0
15:01:57.504165,177133.734375,182137.3125,195800.75,174080.484375,170691.609375,193762.546875,688490.6875,173849.734375,0.064697265625,0.97607421875,-0.255126953125,-1.6479490995407104,-0.1525878757238388,0.4882812201976776,100.0,176844.0,1.0
15:01:57.506778,177225.109375,182165.5625,195827.3125,174085.3125,170702.875,193817.796875,688487.875,173860.453125,0.063232421875,0.97705078125,-0.25390625,-1.7700194120407104,-0.1525878757238388,0.6713866591453552,100.0,176845.0,1.0
15:01:57.509315,177259.796875,182177.71875,195835.53125,174080.40625,170705.5625,193864.734375,688732.75,173855.09375,0.060791015625,0.97607421875,-0.25341796875,-1.8615721464157104,-0.0915527269244194,0.7324218153953552,100.0,176846.0,1.0
15:01:57.511897,177183.8125,182149.828125,195810.046875,174074.140625,170689.640625,193815.109375,688736.25,173843.828125,0.06103515625,0.9755859375,-0.256103515625,-1.9226073026657104,-0.0915527269244194,0.8239745497703552,100.0,176847.0,1.0
15:01:57.514221,177128.734375,182132.125,195792.96875,174074.671875,170677.296875,193758.4375,688527.125,173841.0625,0.060791015625,0.9755859375,-0.25439453125,-2.014159917831421,-0.1220703050494194,0.8850097060203552,100.0,176848.0,1.0
15:01:57.516762,177188.90625,182141.953125,195801.828125,174067.4375,170674.0,193791.15625,688446.125,173836.859375,0.057861328125,0.975830078125,-0.251220703125,-2.105712652206421,-0.1220703050494194,0.8850097060203552,100.0,176849.0,1.0
15:01:57.519207,177242.453125,182145.984375,195810.328125,174058.671875,170674.078125,193835.046875,688706.875,173830.515625,0.056640625,0.975830078125,-0.253662109375,-2.075195074081421,-0.1831054538488388,1.0070799589157104,100.0,176850.0,1.0
15:01:57.521845,177175.046875,182130.96875,195788.6875,174050.625,170663.53125,193806.890625,688754.5625,173820.40625,0.059326171875,0.9765625,-0.253173828125,-2.075195074081421,-0.3356933295726776,1.0070799589157104,100.0,176851.0,1.0
15:01:57.525158,177101.015625,182099.671875,195760.34375,174042.140625,170645.75,193740.8125,688561.0,173811.375,0.059814453125,0.9765625,-0.25244140625,-2.197265386581421,-0.2746581733226776,0.9155272841453552,100.0,176852.0,1.0
15:01:57.526720,177139.453125,182105.296875,195767.578125,174037.3125,170643.421875,193750.109375,688423.125,173808.421875,0.060302734375,0.9775390625,-0.2529296875,-2.258300542831421,-0.3356933295726776,0.8850097060203552,100.0,176853.0,1.0
15:01:57.530437,177220.546875,182122.375,195788.6875,174034.265625,170653.875,193808.234375,688663.0,173809.859375,0.061767578125,0.975830078125,-0.251708984375,-2.258300542831421,-0.3662109076976776,0.7324218153953552,100.0,176854.0,1.0
15:01:57.530446,177178.625,182125.15625,195784.390625,174039.71875,170659.6875,193806.890625,688779.125,173812.890625,0.061279296875,0.97314453125,-0.251708984375,-2.258300542831421,-0.3356933295726776,0.7019042372703552,100.0,176855.0,1.0
15:01:57.530449,177111.03125,182108.171875,195762.75,174040.4375,170649.140625,193741.71875,688612.0625,173811.640625,0.064453125,0.9716796875,-0.253662109375,-2.166747808456421,-0.3051757514476776,0.5798339247703552,100.0,176856.0,1.0
15:01:57.532971,177134.359375,182122.015625,195778.84375,174047.953125,170662.8125,193759.140625,688429.125,173822.015625,0.0654296875,0.971923828125,-0.256103515625,-2.014159917831421,-0.2136230319738388,0.4882812201976776,100.0,176857.0,1.0
15:01:57.537993,177225.5625,182135.96875,195802.1875,174044.734375,170674.4375,193819.9375,688620.0,173823.09375,0.064697265625,0.971923828125,-0.2568359375,-1.9836424589157104,-0.2136230319738388,0.4577636420726776,100.0,176858.0,1.0
15:01:57.540491,177199.28125,182141.609375,195804.234375,174049.203125,170684.71875,193830.765625,688775.8125,173826.578125,0.06689453125,0.97216796875,-0.252197265625,-1.9836424589157104,-0.1220703050494194,0.4882812201976776,100.0,176859.0,1.0
15:01:57.543547,177138.5625,182128.8125,195791.90625,174059.484375,170684.71875,193773.890625,688652.75,173836.046875,0.066162109375,0.971435546875,-0.251953125,-1.8615721464157104,-0.1220703050494194,0.3662109076976776,100.0,176860.0,1.0
15:01:57.543550,177142.765625,182136.59375,195800.21875,174069.9375,170691.96875,193770.765625,688436.375,173845.4375,0.066162109375,0.970458984375,-0.253173828125,-1.7700194120407104,-0.0610351525247097,0.4577636420726776,100.0,176861.0,1.0
15:01:57.545507,177247.109375,182156.984375,195827.578125,174070.125,170700.375,193826.375,688581.9375,173848.84375,0.068115234375,0.971435546875,-0.255615234375,-1.7089842557907104,0.0,0.4272460639476776,100.0,176862.0,1.0
15:01:57.548589,177245.671875,182167.4375,195837.859375,174079.5,170712.4375,193851.859375,688769.5,173854.375,0.066650390625,0.970703125,-0.253173828125,-1.5869139432907104,0.2441406100988388,0.3967284858226776,100.0,176863.0,1.0
15:01:57.548600,177186.125,182154.5625,195827.9375,174094.890625,170714.140625,193800.984375,688681.9375,173865.375,0.06689453125,0.969970703125,-0.25390625,-1.4953612089157104,0.2746581733226776,0.4882812201976776,100.0,176864.0,1.0
15:01:57.550418,177164.765625,182161.890625,195829.28125,174101.140625,170716.109375,193786.421875,688454.3125,173868.6875,0.0654296875,0.970703125,-0.254638671875,-1.4038084745407104,0.3356933295726776,0.4882812201976776,100.0,176865.0,1.0
15:01:57.566229,177257.125,182172.8125,195847.6875,174097.828125,170717.453125,193833.078125,688532.75,173869.765625,0.06396484375,0.970947265625,-0.25732421875,-1.3122557401657104,0.4272460639476776,0.4882812201976776,100.0,176866.0,1.0
15:01:57.566239,177267.765625,182180.40625,195850.546875,174097.203125,170718.25,193862.140625,688752.5,173867.078125,0.064208984375,0.9677734375,-0.25830078125,-1.0986326932907104,0.4577636420726776,0.5187987685203552,100.0,176867.0,1.0
15:01:57.568665,177187.203125,182149.46875,195818.09375,174086.65625,170698.3125,193800.90625,688707.8125,173854.015625,0.06298828125,0.9697265625,-0.256591796875,-0.9765624403953552,0.5187987685203552,0.5493163466453552,100.0,176868.0,1.0
15:01:57.568669,177124.53125,182123.359375,195787.25,174067.53125,170674.0,193748.78125,688485.1875,173834.703125,0.063720703125,0.9697265625,-0.2548828125,-0.8239745497703552,0.4882812201976776,0.5187987685203552,100.0,176869.0,1.0
15:01:57.570488,177196.859375,182135.703125,195797.359375,174055.8125,170669.171875,193792.9375,688477.1875,173829.078125,0.06103515625,0.97119140625,-0.260009765625,-0.6713866591453552,0.6103515028953552,0.4882812201976776,100.0,176870.0,1.0
15:01:57.573003,177225.296875,182135.703125,195800.578125,174047.5,170669.53125,193830.40625,688722.625,173824.25,0.06005859375,0.972412109375,-0.257568359375,-0.6408690810203552,0.5798339247703552,0.4272460639476776,100.0,176871.0,1.0
15:01:57.588696,177154.03125,182118.0,195778.671875,174043.5625,170660.21875,193784.453125,688728.375,173819.25,0.058349609375,0.974853515625,-0.2587890625,-0.4577636420726776,0.5187987685203552,0.4272460639476776,100.0,176872.0,1.0
15:01:57.588718,177098.328125,182113.171875,195764.09375,174044.453125,170655.3125,193755.75,688516.375,173818.890625,0.05712890625,0.974365234375,-0.259521484375,-0.4577636420726776,0.4272460639476776,0.3662109076976776,100.0,176873.0,1.0
15:01:57.590631,177162.4375,182112.71875,195778.578125,174045.4375,170657.0,193776.046875,688443.0,173822.90625,0.05810546875,0.973876953125,-0.257568359375,-0.3051757514476776,0.3967284858226776,0.4577636420726776,100.0,176874.0,1.0
15:01:57.593007,177223.234375,182119.25,195796.28125,174047.859375,170667.46875,193815.828125,688695.25,173828.0,0.05908203125,0.97509765625,-0.255126953125,-0.2136230319738388,0.3662109076976776,0.3356933295726776,100.0,176875.0,1.0
15:01:57.596706,177175.046875,182119.703125,195792.625,174059.921875,170674.890625,193803.3125,688743.9375,173836.953125,0.055908203125,0.975830078125,-0.25830078125,-0.1220703050494194,0.3356933295726776,0.3051757514476776,100.0,176876.0,1.0
15:01:57.607270,177121.765625,182115.3125,195783.765625,174067.53125,170673.546875,193754.140625,688552.3125,173840.078125,0.05859375,0.974609375,-0.260009765625,0.0,0.3662109076976776,0.4272460639476776,100.0,176877.0,1.0
15:01:57.607281,177172.359375,182149.015625,195805.9375,174070.125,170686.15625,193797.140625,688401.9375,173844.1875,0.0576171875,0.975341796875,-0.25927734375,0.0610351525247097,0.2136230319738388,0.4577636420726776,100.0,176878.0,1.0
15:01:57.609842,177253.640625,182155.640625,195825.25,174065.46875,170695.90625,193847.84375,688630.875,173843.296875,0.05810546875,0.97607421875,-0.2568359375,-0.03051757626235485,0.1525878757238388,0.4577636420726776,100.0,176879.0,1.0
15:01:57.609860,177205.890625,182141.15625,195816.046875,174068.421875,170698.140625,193831.390625,688741.25,173845.53125,0.05810546875,0.978271484375,-0.258056640625,-0.0915527269244194,0.1525878757238388,0.3967284858226776,100.0,176880.0,1.0
15:01:57.617974,177140.625,182128.015625,195797.09375,174070.828125,170691.875,193774.703125,688589.5,173848.21875,0.05908203125,0.9794921875,-0.258056640625,-0.0610351525247097,0.0,0.5187987685203552,100.0,176881.0,1.0
15:01:57.626076,177162.890625,182144.90625,195810.140625,174075.484375,170701.265625,193792.765625,688396.9375,173855.0,0.05859375,0.979736328125,-0.258544921875,-0.03051757626235485,-0.03051757626235485,0.5798339247703552,100.0,176882.0,1.0
15:01:57.626087,177251.9375,182156.53125,195829.09375,174066.546875,170706.0,193846.234375,688589.625,173848.84375,0.058349609375,0.982177734375,-0.25927734375,-0.1831054538488388,-0.0610351525247097,0.5798339247703552,100.0,176883.0,1.0
15:01:57.628650,177229.046875,182167.53125,195833.65625,174073.515625,170715.5625,193860.171875,688742.9375,173850.796875,0.05810546875,0.982177734375,-0.260498046875,-0.3051757514476776,-0.1220703050494194,0.5493163466453552,100.0,176884.0,1.0
15:01:57.628656,177161.90625,182143.21875,195816.21875,174080.671875,170706.625,193791.328125,688622.0625,173853.578125,0.058349609375,0.981689453125,-0.26123046875,-0.3967284858226776,-0.03051757626235485,0.4882812201976776,100.0,176885.0,1.0
15:01:57.634276,177163.78125,182152.234375,195826.421875,174092.375,170712.171875,193787.75,688409.8125,173862.25,0.05908203125,0.98095703125,-0.258544921875,-0.4272460639476776,-0.1525878757238388,0.4882812201976776,100.0,176886.0,1.0
15:01:57.642977,177267.40625,182176.921875,195852.34375,174091.84375,170719.0625,193848.28125,688562.0,173863.859375,0.057861328125,0.978271484375,-0.259033203125,-0.6103515028953552,-0.1831054538488388,0.6713866591453552,100.0,176887.0,1.0
15:01:57.647317,177259.0,182194.265625,195851.1875,174086.65625,170720.046875,193871.53125,688748.1875,173855.71875,0.057861328125,0.978271484375,-0.26025390625,-0.7019042372703552,-0.2136230319738388,0.7324218153953552,100.0,176888.0,1.0
15:01:57.647365,177176.75,182156.53125,195817.921875,174075.484375,170699.125,193801.875,688663.4375,173841.421875,0.058837890625,0.976806640625,-0.26025390625,-0.8850097060203552,-0.1831054538488388,0.7324218153953552,100.0,176889.0,1.0
15:01:57.674290,177138.203125,182136.59375,195800.125,174065.65625,170683.828125,193769.703125,688439.75,173829.875,0.063720703125,0.9775390625,-0.260986328125,-0.9765624403953552,-0.1220703050494194,0.7324218153953552,100.0,176890.0,1.0
15:01:57.677293,177224.125,182153.84375,195813.453125,174053.671875,170681.140625,193825.3125,688511.625,173823.625,0.06494140625,0.97900390625,-0.26513671875,-0.9765624403953552,-0.2441406100988388,0.9155272841453552,100.0,176891.0,1.0
15:01:57.677315,177225.375,182152.953125,195810.59375,174046.0625,170678.015625,193848.828125,688736.6875,173817.359375,0.064453125,0.980712890625,-0.263671875,-1.0986326932907104,-0.2136230319738388,0.8850097060203552,100.0,176892.0,1.0
15:01:57.679195,177143.9375,182127.03125,195780.546875,174041.59375,170661.5625,193784.53125,688693.375,173812.453125,0.06396484375,0.978759765625,-0.261474609375,-1.1901854276657104,-0.03051757626235485,0.9765624403953552,100.0,176893.0,1.0
15:01:57.681687,177101.28125,182122.296875,195771.078125,174045.53125,170657.546875,193756.828125,688478.3125,173813.875,0.065185546875,0.9765625,-0.258544921875,-1.3427733182907104,-0.03051757626235485,0.8850097060203552,100.0,176894.0,1.0
15:01:57.684168,177183.53125,182121.03125,195788.6875,174045.359375,170659.6875,193786.140625,688471.6875,173819.78125,0.063720703125,0.973876953125,-0.26025390625,-1.4038084745407104,0.0915527269244194,1.0070799589157104,100.0,176895.0,1.0
15:01:57.686813,177215.015625,182132.390625,195796.015625,174040.34375,170662.734375,193830.84375,688713.3125,173817.015625,0.063720703125,0.97314453125,-0.26318359375,-1.4343260526657104,0.1831054538488388,0.9765624403953552,100.0,176896.0,1.0
15:01:57.689270,177146.609375,182110.84375,195778.140625,174043.03125,170657.640625,193785.078125,688716.625,173819.421875,0.0634765625,0.973876953125,-0.263427734375,-1.4343260526657104,0.0915527269244194,1.0375975370407104,100.0,176897.0,1.0
15:01:57.691700,177095.46875,182097.96875,195767.671875,174051.515625,170657.28125,193737.59375,688507.1875,173827.640625,0.06298828125,0.97509765625,-0.26171875,-1.4343260526657104,0.03051757626235485,0.9155272841453552,100.0,176898.0,1.0
15:01:57.694801,177170.578125,182124.890625,195794.5,174062.25,170672.390625,193782.390625,688432.75,173840.4375,0.060302734375,0.976806640625,-0.262939453125,-1.4953612089157104,0.0610351525247097,0.9460448622703552,100.0,176899.0,1.0
15:01:57.694809,177242.71875,182153.9375,195822.390625,174069.578125,170692.6875,193850.078125,688691.6875,173848.125,0.059814453125,0.978759765625,-0.26025390625,-1.6479490995407104,0.0610351525247097,0.8544921278953552,100.0,176900.0,1.0
15:01:57.696797,177182.828125,182144.828125,195807.453125,174067.265625,170690.09375,193825.484375,688736.6875,173843.5625,0.0576171875,0.979736328125,-0.2607421875,-1.7395018339157104,0.0610351525247097,0.7324218153953552,100.0,176901.0,1.0
15:01:57.700438,177122.5625,182142.59375,195794.765625,174068.515625,170686.0625,193774.703125,688552.5,173843.734375,0.05712890625,0.9775390625,-0.26123046875,-1.8310545682907104,-0.03051757626235485,0.4882812201976776,100.0,176902.0,1.0
15:01:57.716066,177156.453125,182119.609375,195798.25,174063.140625,170681.0625,193777.296875,688399.1875,173841.0625,0.05712890625,0.97705078125,-0.26123046875,-1.8920897245407104,-0.1525878757238388,0.4577636420726776,100.0,176903.0,1.0
15:01:57.716075,177243.625,182138.921875,195822.21875,174067.171875,170693.578125,193835.140625,688638.5625,173847.3125,0.0595703125,0.97705078125,-0.2607421875,-1.9531248807907104,-0.1831054538488388,0.3356933295726776,100.0,176904.0,1.0
15:01:57.718679,177206.421875,182145.359375,195822.21875,174077.984375,170703.671875,193839.515625,688747.0625,173855.90625,0.06103515625,0.97802734375,-0.259765625,-2.014159917831421,-0.1831054538488388,0.1220703050494194,100.0,176905.0,1.0
15:01:57.718713,177142.046875,182132.390625,195806.75,174082.28125,170696.796875,193771.9375,688591.3125,173859.203125,0.06103515625,0.97802734375,-0.262451171875,-2.075195074081421,-0.2441406100988388,0.0915527269244194,100.0,176906.0,1.0
15:01:57.724777,177153.859375,182130.421875,195810.328125,174079.78125,170695.0,193776.765625,688392.4375,173857.78125,0.0634765625,0.978271484375,-0.26123046875,-2.105712652206421,-0.2746581733226776,0.1525878757238388,100.0,176907.0,1.0
15:01:57.724785,177254.96875,182149.46875,195840.453125,174086.484375,170709.484375,193840.953125,688588.4375,173867.796875,0.063720703125,0.97900390625,-0.26220703125,-2.136230230331421,-0.2136230319738388,0.1220703050494194,100.0,176908.0,1.0
15:01:57.731066,177236.734375,182171.734375,195848.5,174095.59375,170723.796875,193862.59375,688748.75,173873.609375,0.06640625,0.9794921875,-0.2626953125,-2.227782964706421,-0.0915527269244194,0.1831054538488388,100.0,176909.0,1.0
15:01:57.731077,177172.359375,182157.421875,195833.5625,174101.140625,170720.484375,193811.453125,688641.125,173876.109375,0.06591796875,0.979736328125,-0.261962890625,-2.197265386581421,-0.0610351525247097,0.3356933295726776,100.0,176910.0,1.0
15:01:57.740465,177167.796875,182166.546875,195830.34375,174096.3125,170716.46875,193816.453125,688420.875,173870.109375,0.064453125,0.976318359375,-0.259765625,-2.227782964706421,-0.0915527269244194,0.4577636420726776,100.0,176911.0,1.0
15:01:57.744914,177259.796875,182154.921875,195841.25,174085.5,170711.28125,193833.71875,688575.3125,173864.484375,0.06396484375,0.9755859375,-0.261962890625,-2.227782964706421,-0.0610351525247097,0.5493163466453552,100.0,176912.0,1.0
15:01:57.744921,177244.328125,182156.890625,195837.140625,174079.234375,170710.296875,193854.90625,688764.1875,173856.25,0.063720703125,0.9736328125,-0.259033203125,-2.258300542831421,0.03051757626235485,0.5798339247703552,100.0,176913.0,1.0
15:01:57.758738,177161.1875,182130.875,195806.296875,174068.59375,170691.515625,193791.25,688669.6875,173845.078125,0.0634765625,0.97412109375,-0.260498046875,-2.197265386581421,0.1220703050494194,0.5493163466453552,100.0,176914.0,1.0
15:01:57.758798,177131.5,182125.0625,195800.671875,174066.71875,170688.125,193769.34375,688448.1875,173844.28125,0.06201171875,0.975341796875,-0.260986328125,-2.105712652206421,0.1220703050494194,0.5187987685203552,100.0,176915.0,1.0
15:01:57.761064,177220.640625,182146.703125,195821.3125,174062.34375,170693.125,193819.140625,688514.5625,173846.875,0.06298828125,0.9755859375,-0.26220703125,-2.014159917831421,0.1525878757238388,0.4882812201976776,100.0,176916.0,1.0
15:01:57.761080,177232.625,182155.90625,195829.28125,174063.859375,170702.6875,193853.015625,688740.3125,173849.28125,0.0615234375,0.976806640625,-0.26171875,-1.9836424589157104,0.2136230319738388,0.4882812201976776,100.0,176917.0,1.0
15:01:57.769818,177162.171875,182117.375,195810.046875,174067.609375,170696.34375,193795.4375,688708.875,173853.03125,0.060546875,0.974853515625,-0.259033203125,-1.9836424589157104,0.2441406100988388,0.4272460639476776,100.0,176918.0,1.0
15:01:57.769825,177121.40625,182125.421875,195803.609375,174070.75,170694.921875,193769.421875,688488.5625,173856.4375,0.060791015625,0.9755859375,-0.26123046875,-2.075195074081421,0.2746581733226776,0.5187987685203552,100.0,176919.0,1.0
15:01:57.779817,177210.625,182152.78125,195829.984375,174077.265625,170706.8125,193825.3125,688473.4375,173866.1875,0.062744140625,0.976806640625,-0.26513671875,-1.9836424589157104,0.2746581733226776,0.4577636420726776,100.0,176920.0,1.0
15:01:57.779826,177255.515625,182165.203125,195846.625,174081.296875,170717.796875,193868.671875,688725.6875,173868.234375,0.06298828125,0.978759765625,-0.26318359375,-2.075195074081421,0.3051757514476776,0.4272460639476776,100.0,176921.0,1.0
15:01:57.781731,177193.640625,182158.671875,195831.0625,174081.03125,170711.90625,193830.21875,688732.625,173863.40625,0.063720703125,0.979736328125,-0.259765625,-2.075195074081421,0.3051757514476776,0.4577636420726776,100.0,176922.0,1.0
15:01:57.787988,177143.484375,182144.734375,195821.40625,174088.453125,170710.296875,193788.03125,688518.8125,173867.34375,0.064453125,0.97998046875,-0.258544921875,-2.166747808456421,0.3662109076976776,0.4882812201976776,100.0,176923.0,1.0
15:01:57.804266,177200.96875,182152.328125,195831.953125,174083.078125,170707.96875,193815.734375,688437.1875,173864.75,0.065185546875,0.980712890625,-0.25634765625,-2.197265386581421,0.4882812201976776,0.4272460639476776,100.0,176924.0,1.0
15:01:57.804341,177261.140625,182169.9375,195845.90625,174080.40625,170712.078125,193867.953125,688684.8125,173863.328125,0.064697265625,0.98046875,-0.25732421875,-2.258300542831421,0.6103515028953552,0.4882812201976776,100.0,176925.0,1.0
15:01:57.804368,177202.140625,182156.796875,195829.984375,174082.28125,170705.28125,193838.359375,688743.0,173861.171875,0.06396484375,0.979736328125,-0.258544921875,-2.349853277206421,0.6713866591453552,0.4882812201976776,100.0,176926.0,1.0
15:01:57.807385,177142.59375,182141.515625,195811.65625,174084.609375,170696.078125,193784.984375,688555.0,173860.015625,0.062744140625,0.978515625,-0.2587890625,-2.502441167831421,0.6408690810203552,0.4882812201976776,100.0,176927.0,1.0
15:01:57.807524,177181.03125,182141.609375,195819.890625,174083.078125,170694.46875,193794.015625,688411.75,173859.75,0.063232421875,0.9794921875,-0.2587890625,-2.441406011581421,0.7324218153953552,0.5493163466453552,100.0,176928.0,1.0
15:01:57.809332,177264.0,182157.15625,195840.453125,174081.65625,170700.109375,193847.21875,688641.8125,173858.9375,0.0634765625,0.9775390625,-0.259033203125,-2.532958745956421,0.8239745497703552,0.5798339247703552,100.0,176929.0,1.0
15:01:57.812965,177223.5,182156.53125,195836.515625,174089.078125,170704.21875,193841.765625,688751.4375,173863.59375,0.064697265625,0.977294921875,-0.255615234375,-2.655029058456421,0.8850097060203552,0.4882812201976776,100.0,176930.0,1.0
15:01:57.838065,177154.296875,182141.78125,195813.625,174087.734375,170690.265625,193777.46875,688596.125,173859.828125,0.0634765625,0.97802734375,-0.256103515625,-2.593993902206421,0.9460448622703552,0.4577636420726776,100.0,176931.0,1.0
15:01:57.863678,177184.4375,182157.25,195832.765625,174099.359375,170701.625,193793.65625,688403.1875,173871.015625,0.0634765625,0.975830078125,-0.2548828125,-2.593993902206421,0.9765624403953552,0.5187987685203552,100.0,176932.0,1.0
15:01:57.863764,177275.453125,182165.828125,195851.0,174093.0,170705.109375,193856.59375,688597.5625,173867.703125,0.061767578125,0.975830078125,-0.25537109375,-2.624511480331421,0.8850097060203552,0.5187987685203552,100.0,176933.0,1.0
15:01:57.883037,177243.625,182176.46875,195847.15625,174091.578125,170707.609375,193865.71875,688753.5,173865.640625,0.058349609375,0.974853515625,-0.25634765625,-2.655029058456421,0.8239745497703552,0.7019042372703552,100.0,176934.0,1.0
15:01:57.883055,177167.171875,182143.84375,195818.015625,174089.078125,170691.515625,193789.453125,688633.5,173861.359375,0.058837890625,0.9755859375,-0.255615234375,-2.593993902206421,0.8239745497703552,0.6408690810203552,100.0,176935.0,1.0
15:01:57.883059,177152.875,182135.171875,195809.515625,174081.03125,170683.734375,193771.578125,688415.0625,173853.03125,0.057861328125,0.974609375,-0.25634765625,-2.532958745956421,0.7629393935203552,0.7019042372703552,100.0,176936.0,1.0
15:01:57.886216,177244.15625,182144.640625,195823.46875,174067.703125,170685.890625,193824.859375,688562.0625,173846.609375,0.0576171875,0.974853515625,-0.256591796875,-2.532958745956421,0.6103515028953552,0.6408690810203552,100.0,176937.0,1.0
15:01:57.886238,177233.515625,182153.40625,195829.8125,174068.78125,170698.671875,193854.984375,688758.6875,173848.84375,0.05859375,0.97412109375,-0.255126953125,-2.563476324081421,0.5798339247703552,0.6408690810203552,100.0,176938.0,1.0
15:01:57.888047,177162.53125,182137.578125,195808.71875,174068.15625,170693.671875,193800.8125,688671.0625,173848.84375,0.056396484375,0.973388671875,-0.25341796875,-2.410888433456421,0.6103515028953552,0.5798339247703552,100.0,176939.0,1.0
15:01:57.890473,177135.53125,182134.546875,195803.609375,174069.671875,170692.0625,193779.890625,688449.25,173849.28125,0.05712890625,0.97265625,-0.252685546875,-2.319335699081421,0.5187987685203552,0.3967284858226776,100.0,176940.0,1.0
15:01:57.893043,177225.203125,182150.28125,195820.6875,174063.0625,170691.34375,193829.953125,688509.5625,173846.421875,0.05908203125,0.97314453125,-0.25146484375,-2.288818120956421,0.3662109076976776,0.4882812201976776,100.0,176941.0,1.0
15:01:57.895814,177245.140625,182167.984375,195835.359375,174071.109375,170706.0,193875.015625,688733.375,173854.46875,0.0595703125,0.973388671875,-0.251220703125,-2.197265386581421,0.3051757514476776,0.5798339247703552,100.0,176942.0,1.0
15:01:57.898072,177177.1875,182148.671875,195819.53125,174075.484375,170701.625,193813.859375,688696.375,173857.59375,0.057861328125,0.97216796875,-0.25,-2.105712652206421,0.1525878757238388,0.5493163466453552,100.0,176943.0,1.0
15:01:57.900539,177145.546875,182162.875,195821.5,174085.3125,170707.25,193792.40625,688474.8125,173864.484375,0.05859375,0.975341796875,-0.25244140625,-2.075195074081421,0.1220703050494194,0.5798339247703552,100.0,176944.0,1.0
15:01:57.903079,177225.65625,182148.390625,195838.484375,174085.3125,170710.109375,193818.15625,688476.125,173868.859375,0.0595703125,0.9755859375,-0.253173828125,-2.075195074081421,0.0610351525247097,0.5798339247703552,100.0,176945.0,1.0
15:01:57.905526,177270.890625,182164.578125,195857.53125,174090.6875,170723.890625,193867.859375,688725.125,173876.828125,0.060302734375,0.977294921875,-0.251220703125,-2.014159917831421,0.0,0.6103515028953552,100.0,176946.0,1.0
15:01:57.907937,177211.609375,182162.078125,195846.796875,174096.3125,170725.21875,193836.65625,688726.375,173881.828125,0.06103515625,0.9755859375,-0.252685546875,-2.044677495956421,-0.0915527269244194,0.5493163466453552,100.0,176947.0,1.0
15:01:57.910535,177156.625,182157.25,195831.875,174096.140625,170716.640625,193791.515625,688521.8125,173877.265625,0.06103515625,0.97412109375,-0.2509765625,-1.9531248807907104,-0.0610351525247097,0.5798339247703552,100.0,176948.0,1.0
15:01:57.912973,177216.078125,182165.46875,195845.1875,174093.640625,170716.109375,193821.734375,688441.0,173877.796875,0.06103515625,0.974609375,-0.254150390625,-1.8920897245407104,0.03051757626235485,0.6103515028953552,100.0,176949.0,1.0
15:01:57.915448,177267.671875,182158.140625,195848.59375,174083.53125,170709.671875,193855.890625,688686.8125,173868.328125,0.059814453125,0.975341796875,-0.254638671875,-1.9226073026657104,0.0610351525247097,0.6103515028953552,100.0,176950.0,1.0
15:01:57.918659,177210.453125,182154.828125,195835.625,174084.515625,170706.09375,193835.953125,688740.875,173865.5625,0.059814453125,0.97412109375,-0.2548828125,-1.7700194120407104,-0.03051757626235485,0.6408690810203552,100.0,176951.0,1.0
15:01:57.918712,177148.671875,182142.40625,195817.828125,174085.5,170698.3125,193780.96875,688559.4375,173864.578125,0.059814453125,0.974365234375,-0.25244140625,-1.7089842557907104,-0.1525878757238388,0.6408690810203552,100.0,176952.0,1.0
15:01:57.920409,177189.0,182154.296875,195831.515625,174086.84375,170703.328125,193802.859375,688406.5625,173869.9375,0.06103515625,0.975830078125,-0.25146484375,-1.6479490995407104,-0.1220703050494194,0.6408690810203552,100.0,176953.0,1.0
15:01:57.923596,177265.53125,182167.625,195848.234375,174081.734375,170709.046875,193862.40625,688638.4375,173869.21875,0.060791015625,0.975830078125,-0.25439453125,-1.7089842557907104,-0.1220703050494194,0.5493163466453552,100.0,176954.0,1.0
15:01:57.923604,177220.828125,182161.265625,195841.171875,174085.9375,170712.4375,193853.921875,688747.5,173871.09375,0.06103515625,0.976806640625,-0.252197265625,-1.6479490995407104,-0.1220703050494194,0.5493163466453552,100.0,176955.0,1.0
15:01:57.925452,177151.984375,182142.5,195819.53125,174085.3125,170701.796875,193787.21875,688598.5625,173869.84375,0.061279296875,0.975830078125,-0.2548828125,-1.5869139432907104,-0.2746581733226776,0.6408690810203552,100.0,176956.0,1.0
15:01:57.928060,177172.546875,182163.0625,195829.546875,174087.46875,170707.703125,193811.359375,688405.0625,173872.4375,0.063232421875,0.974853515625,-0.25341796875,-1.6174315214157104,-0.3662109076976776,0.4272460639476776,100.0,176957.0,1.0
15:01:57.931163,177263.375,182174.421875,195848.140625,174082.1875,170713.78125,193879.75,688604.0,173870.109375,0.0625,0.9775390625,-0.255859375,-1.6174315214157104,-0.3356933295726776,0.5187987685203552,100.0,176958.0,1.0
15:01:57.931216,177228.953125,182155.109375,195837.859375,174079.328125,170709.046875,193858.921875,688761.375,173864.65625,0.061767578125,0.977294921875,-0.2548828125,-1.5869139432907104,-0.3967284858226776,0.3967284858226776,100.0,176959.0,1.0
15:01:57.932970,177160.296875,182152.328125,195819.53125,174078.171875,170702.34375,193804.03125,688638.4375,173862.78125,0.061767578125,0.9775390625,-0.251220703125,-1.5563963651657104,-0.3967284858226776,0.4577636420726776,100.0,176960.0,1.0
15:01:57.939265,177152.6875,182152.59375,195821.5,174081.734375,170704.125,193795.625,688426.4375,173866.265625,0.06103515625,0.977783203125,-0.253662109375,-1.6479490995407104,-0.2136230319738388,0.4272460639476776,100.0,176961.0,1.0
15:01:57.947414,177242.71875,182152.6875,195836.515625,174076.109375,170705.203125,193843.09375,688572.3125,173866.265625,0.063232421875,0.97705078125,-0.25537109375,-1.6174315214157104,-0.3051757514476776,0.3967284858226776,100.0,176962.0,1.0
15:01:57.947425,177228.78125,182151.265625,195833.65625,174076.46875,170706.890625,193859.734375,688757.6875,173865.375,0.063720703125,0.978515625,-0.25732421875,-1.6479490995407104,-0.3051757514476776,0.3356933295726776,100.0,176963.0,1.0
15:01:57.949860,177156.984375,182135.515625,195811.21875,174076.5625,170696.796875,193804.65625,688667.5,173863.046875,0.064208984375,0.978271484375,-0.257568359375,-1.4953612089157104,-0.2441406100988388,0.2746581733226776,100.0,176964.0,1.0
15:01:57.949872,177134.0,182144.640625,195808.171875,174078.609375,170695.71875,193782.84375,688450.3125,173863.5,0.06298828125,0.978515625,-0.25634765625,-1.5869139432907104,-0.1525878757238388,0.4882812201976776,100.0,176965.0,1.0
15:01:57.958029,177237.625,182172.53125,195839.46875,174085.40625,170709.578125,193838.265625,688526.125,173873.421875,0.0625,0.978759765625,-0.255126953125,-1.5869139432907104,-0.1525878757238388,0.3967284858226776,100.0,176966.0,1.0
15:01:57.962369,177254.4375,182162.4375,195852.078125,174092.296875,170721.203125,193871.078125,688757.4375,173879.765625,0.064453125,0.9775390625,-0.255859375,-1.5869139432907104,-0.1831054538488388,0.5187987685203552,100.0,176967.0,1.0
15:01:57.962425,177185.953125,182151.265625,195834.453125,174094.078125,170717.171875,193826.828125,688716.1875,173880.21875,0.066650390625,0.975341796875,-0.253173828125,-1.6174315214157104,-0.03051757626235485,0.5798339247703552,100.0,176968.0,1.0
15:01:57.971733,177145.359375,182145.625,195823.28125,174095.59375,170709.578125,193785.609375,688496.625,173876.375,0.0654296875,0.97900390625,-0.256103515625,-1.5563963651657104,-0.1220703050494194,0.6103515028953552,100.0,176969.0,1.0
15:01:57.974895,177227.96875,182164.140625,195843.40625,174092.734375,170714.046875,193833.078125,688486.75,173876.109375,0.064453125,0.977783203125,-0.25390625,-1.4343260526657104,-0.0610351525247097,0.6408690810203552,100.0,176970.0,1.0
15:01:57.974909,177272.953125,182184.515625,195863.34375,174098.015625,170727.015625,193884.765625,688730.5625,173881.296875,0.06494140625,0.97705078125,-0.25439453125,-1.4648436307907104,-0.03051757626235485,0.7019042372703552,100.0,176971.0,1.0
15:01:57.980464,177210.0,182169.140625,195847.25,174099.890625,170721.203125,193843.28125,688740.5,173880.84375,0.064697265625,0.975830078125,-0.2568359375,-1.4343260526657104,0.0,0.6103515028953552,100.0,176972.0,1.0
15:01:57.999189,177154.390625,182153.578125,195828.203125,174096.9375,170707.515625,193786.328125,688525.25,173873.953125,0.0625,0.975830078125,-0.250732421875,-1.3732908964157104,0.0,0.5798339247703552,100.0,176973.0,1.0
15:01:57.999203,177207.234375,182149.65625,195832.671875,174088.265625,170698.3125,193805.546875,688445.5,173867.609375,0.064208984375,0.974609375,-0.250244140625,-1.3427733182907104,0.0610351525247097,0.7019042372703552,100.0,176974.0,1.0
15:01:57.999205,177266.0625,182172.625,195846.984375,174083.625,170703.5,193870.453125,688696.4375,173866.359375,0.0654296875,0.97607421875,-0.254150390625,-1.3427733182907104,-0.03051757626235485,0.6408690810203552,100.0,176975.0,1.0
15:01:58.002302,177202.21875,182161.265625,195826.59375,174078.4375,170692.859375,193852.484375,688746.3125,173860.546875,0.063720703125,0.9755859375,-0.25732421875,-1.2512205839157104,-0.1220703050494194,0.6713866591453552,100.0,176976.0,1.0
15:01:58.002304,177127.5625,182106.734375,195792.4375,174071.640625,170666.21875,193739.390625,688568.25,173852.40625,0.06298828125,0.973388671875,-0.253662109375,-1.2207030057907104,0.1220703050494194,0.5798339247703552,100.0,176977.0,1.0
15:01:58.004258,177167.625,182122.5625,195805.046875,174068.0625,170670.859375,193769.15625,688420.0,173851.25,0.062255859375,0.97509765625,-0.255615234375,-1.2817381620407104,0.1831054538488388,0.6408690810203552,100.0,176978.0,1.0
15:01:58.006795,177253.90625,182151.796875,195831.0625,174068.953125,170688.84375,193841.671875,688662.375,173857.953125,0.063232421875,0.97314453125,-0.25537109375,-1.2817381620407104,0.1525878757238388,0.7019042372703552,100.0,176979.0,1.0
15:01:58.009280,177211.875,182147.859375,195823.90625,174072.4375,170694.296875,193833.796875,688764.8125,173859.828125,0.0634765625,0.975341796875,-0.25341796875,-1.1901854276657104,0.0915527269244194,0.7019042372703552,100.0,176980.0,1.0
15:01:58.016789,177152.421875,182128.640625,195809.421875,174081.828125,170693.671875,193775.59375,688605.75,173867.25,0.06396484375,0.975830078125,-0.25146484375,-1.0986326932907104,0.0610351525247097,0.6103515028953552,100.0,176981.0,1.0
15:01:58.043550,177172.0,182139.546875,195819.0,174083.078125,170702.34375,193793.390625,688412.3125,173871.90625,0.06591796875,0.977294921875,-0.2548828125,-1.0986326932907104,0.1831054538488388,0.5493163466453552,100.0,176982.0,1.0
15:01:58.043564,177261.234375,182161.0,195838.65625,174074.859375,170707.515625,193848.015625,688616.0,173870.109375,0.064697265625,0.977783203125,-0.255859375,-1.1901854276657104,0.1831054538488388,0.6408690810203552,100.0,176983.0,1.0
15:01:58.043566,177239.859375,182154.921875,195843.484375,174085.765625,170719.953125,193864.109375,688770.625,173880.671875,0.064697265625,0.9765625,-0.25732421875,-1.1901854276657104,0.1525878757238388,0.6713866591453552,100.0,176984.0,1.0
15:01:58.043567,177173.875,182139.375,195824.8125,174087.109375,170710.109375,193805.375,688650.375,173878.609375,0.062744140625,0.97607421875,-0.255615234375,-1.1291502714157104,0.2441406100988388,0.7324218153953552,100.0,176985.0,1.0
15:01:58.045678,177164.765625,182139.8125,195821.234375,174083.34375,170703.953125,193791.15625,688430.75,173872.4375,0.062744140625,0.97607421875,-0.256103515625,-1.0681151151657104,0.2746581733226776,0.5798339247703552,100.0,176986.0,1.0
15:01:58.048049,177259.71875,182149.828125,195842.328125,174079.78125,170709.578125,193847.390625,688576.1875,173872.53125,0.064697265625,0.976318359375,-0.257080078125,-1.0986326932907104,0.3051757514476776,0.5798339247703552,100.0,176987.0,1.0
15:01:58.050704,177256.859375,182163.5,195852.96875,174088.71875,170721.109375,193871.796875,688773.0,173880.3125,0.063232421875,0.977783203125,-0.25732421875,-1.0681151151657104,0.2746581733226776,0.5187987685203552,100.0,176988.0,1.0
15:01:58.052967,177189.796875,182147.40625,195834.734375,174092.734375,170713.609375,193812.078125,688684.75,173882.8125,0.0625,0.9775390625,-0.254150390625,-1.0986326932907104,0.3051757514476776,0.4577636420726776,100.0,176989.0,1.0
15:01:58.055440,177168.96875,182147.59375,195833.828125,174096.046875,170713.0625,193790.265625,688457.5625,173883.4375,0.063232421875,0.97802734375,-0.251220703125,-0.9765624403953552,0.2746581733226776,0.3662109076976776,100.0,176990.0,1.0
15:01:58.057968,177259.171875,182156.984375,195848.3125,174084.78125,170710.828125,193818.15625,688508.5,173876.375,0.062255859375,0.977294921875,-0.256591796875,-1.0070799589157104,0.3051757514476776,0.4882812201976776,100.0,176991.0,1.0
15:01:58.068614,177274.46875,182166.28125,195857.703125,174088.171875,170719.0625,193849.625,688729.25,173880.578125,0.06298828125,0.978271484375,-0.254638671875,-1.0070799589157104,0.2441406100988388,0.4882812201976776,100.0,176992.0,1.0
15:01:58.068624,177204.640625,182145.8125,195838.484375,174090.765625,170709.484375,193797.859375,688691.3125,173881.734375,0.063232421875,0.97607421875,-0.252685546875,-1.0070799589157104,0.2746581733226776,0.4577636420726776,100.0,176993.0,1.0
15:01:58.071045,177165.921875,182146.515625,195828.65625,174091.84375,170704.125,193768.0,688476.5625,173877.453125,0.06591796875,0.97607421875,-0.251220703125,-1.0681151151657104,0.3356933295726776,0.3967284858226776,100.0,176994.0,1.0
15:01:58.071058,177246.75,182157.78125,195844.390625,174087.375,170703.140625,193809.21875,688464.4375,173874.59375,0.063232421875,0.975830078125,-0.253662109375,-1.0986326932907104,0.2746581733226776,0.5187987685203552,100.0,176995.0,1.0
15:01:58.076796,177283.3125,182164.765625,195853.5,174085.40625,170706.8125,193851.953125,688714.4375,173871.8125,0.062744140625,0.975341796875,-0.2548828125,-1.0375975370407104,0.3051757514476776,0.5187987685203552,100.0,176996.0,1.0
15:01:58.091477,177212.234375,182145.171875,195831.875,174084.953125,170695.28125,193809.296875,688719.6875,173868.0625,0.062255859375,0.974609375,-0.257568359375,-1.0986326932907104,0.2746581733226776,0.6103515028953552,100.0,176997.0,1.0
15:01:58.091488,177152.15625,182125.6875,195810.59375,174078.703125,170680.703125,193755.5625,688511.4375,173860.546875,0.0615234375,0.97607421875,-0.25732421875,-1.0986326932907104,0.1831054538488388,0.5493163466453552,100.0,176998.0,1.0
15:01:58.092317,177214.390625,182134.1875,195819.625,174072.625,170679.8125,193783.46875,688433.6875,173858.40625,0.059814453125,0.97509765625,-0.2568359375,-1.1596678495407104,0.1831054538488388,0.5798339247703552,100.0,176999.0,1.0
15:01:58.092321,177277.140625,182150.71875,195835.359375,174072.625,170688.484375,193839.171875,688694.3125,173860.015625,0.059814453125,0.975830078125,-0.252685546875,-1.1596678495407104,0.0915527269244194,0.6713866591453552,100.0,177000.0,1.0
15:01:58.094350,177222.96875,182146.4375,195826.5,174077.546875,170690.890625,193824.40625,688750.6875,173864.484375,0.05859375,0.976806640625,-0.25341796875,-1.1291502714157104,0.03051757626235485,0.6408690810203552,100.0,177001.0,1.0
15:01:58.100507,177159.84375,182133.28125,195808.265625,174077.265625,170681.328125,193768.984375,688567.3125,173865.640625,0.0595703125,0.976318359375,-0.255126953125,-1.1291502714157104,0.03051757626235485,0.5798339247703552,100.0,177002.0,1.0
15:01:58.109830,177199.625,182143.296875,195820.15625,174078.34375,170686.6875,193796.96875,688418.0,173870.734375,0.059326171875,0.9775390625,-0.2568359375,-1.1596678495407104,0.0,0.4577636420726776,100.0,177003.0,1.0
15:01:58.109843,177284.390625,182162.078125,195844.109375,174083.078125,170700.1875,193858.484375,688657.125,173880.125,0.059326171875,0.976318359375,-0.257080078125,-1.2512205839157104,-0.1220703050494194,0.4882812201976776,100.0,177004.0,1.0
15:01:58.112308,177243.4375,182164.40625,195840.359375,174087.109375,170704.65625,193858.65625,688766.375,173879.5,0.0595703125,0.977783203125,-0.25927734375,-1.2817381620407104,-0.1220703050494194,0.5493163466453552,100.0,177005.0,1.0
15:01:58.112314,177174.15625,182138.828125,195817.5625,174086.65625,170693.671875,193792.140625,688613.8125,173876.828125,0.059326171875,0.97802734375,-0.25927734375,-1.2207030057907104,-0.0915527269244194,0.5493163466453552,100.0,177006.0,1.0
15:01:58.121702,177187.5625,182145.265625,195823.734375,174085.140625,170695.71875,193800.359375,688411.75,173874.859375,0.060546875,0.9775390625,-0.258544921875,-1.3427733182907104,-0.1831054538488388,0.5187987685203552,100.0,177007.0,1.0
15:01:58.126091,177287.609375,182170.921875,195852.4375,174088.171875,170712.625,193864.828125,688606.3125,173881.296875,0.06103515625,0.976806640625,-0.259521484375,-1.3427733182907104,-0.0915527269244194,0.4882812201976776,100.0,177008.0,1.0
15:01:58.126112,177262.75,182185.046875,195855.203125,174089.78125,170723.609375,193878.953125,688752.5625,173881.921875,0.062255859375,0.97802734375,-0.254150390625,-1.4343260526657104,-0.1525878757238388,0.5798339247703552,100.0,177009.0,1.0
15:01:58.131712,177178.625,182127.828125,195821.671875,174079.6875,170702.875,193795.53125,688633.4375,173871.71875,0.0615234375,0.977294921875,-0.257568359375,-1.5258787870407104,-0.1220703050494194,0.4882812201976776,100.0,177010.0,1.0
15:01:58.138649,177172.359375,182131.859375,195820.515625,174081.734375,170700.546875,193784.71875,688416.3125,173873.6875,0.06298828125,0.978515625,-0.2578125,-1.4648436307907104,-0.1220703050494194,0.4577636420726776,100.0,177011.0,1.0
15:01:58.138664,177277.328125,182153.140625,195847.78125,174088.71875,170710.109375,193841.578125,688551.75,173883.53125,0.06298828125,0.980224609375,-0.258544921875,-1.4953612089157104,-0.1525878757238388,0.4882812201976776,100.0,177012.0,1.0
15:01:58.140431,177272.59375,182163.234375,195854.9375,174092.921875,170719.328125,193866.796875,688756.4375,173886.125,0.060302734375,0.97802734375,-0.2587890625,-1.6479490995407104,-0.0610351525247097,0.4882812201976776,100.0,177013.0,1.0
15:01:58.150485,177194.984375,182137.40625,195827.21875,174090.5,170702.25,193796.609375,688674.375,173881.5625,0.0615234375,0.97802734375,-0.2578125,-1.6479490995407104,-0.0915527269244194,0.4882812201976776,100.0,177014.0,1.0
15:01:58.153603,177156.1875,182123.453125,195810.046875,174076.828125,170683.65625,193758.609375,688440.0,173862.96875,0.061279296875,0.979248046875,-0.258544921875,-1.6784666776657104,-0.0915527269244194,0.4577636420726776,100.0,177015.0,1.0
15:01:58.153613,177259.53125,182147.59375,195838.84375,174079.953125,170693.84375,193815.203125,688493.75,173868.5,0.0634765625,0.98046875,-0.259765625,-1.7700194120407104,-0.03051757626235485,0.3356933295726776,100.0,177016.0,1.0
15:01:58.155461,177274.90625,182150.8125,195845.015625,174077.890625,170699.828125,193845.609375,688722.1875,173864.390625,0.064697265625,0.9794921875,-0.260498046875,-1.8005369901657104,0.03051757626235485,0.2746581733226776,100.0,177017.0,1.0
15:01:58.165511,177202.765625,182135.796875,195824.09375,174075.03125,170691.421875,193797.140625,688687.6875,173857.6875,0.06494140625,0.97607421875,-0.259765625,-1.8310545682907104,0.1220703050494194,0.3662109076976776,100.0,177018.0,1.0
15:01:58.171031,177159.046875,182128.90625,195812.90625,174072.890625,170684.71875,193762.625,688475.6875,173852.234375,0.066162109375,0.974609375,-0.2568359375,-1.7700194120407104,0.0915527269244194,0.6103515028953552,100.0,177019.0,1.0
15:01:58.171042,177239.953125,182140.265625,195830.265625,174067.53125,170684.984375,193803.765625,688466.3125,173851.34375,0.062255859375,0.97509765625,-0.259033203125,-1.6479490995407104,0.0915527269244194,0.8850097060203552,100.0,177020.0,1.0
15:01:58.172973,177276.15625,182152.6875,195837.765625,174063.59375,170688.296875,193849.09375,688714.5625,173848.84375,0.0576171875,0.9765625,-0.257568359375,-1.4953612089157104,-0.0610351525247097,0.9155272841453552,100.0,177021.0,1.0
15:01:58.181726,177205.0,182133.734375,195813.1875,174059.84375,170678.734375,193807.25,688722.1875,173845.625,0.054931640625,0.9775390625,-0.255615234375,-1.5869139432907104,-0.2441406100988388,0.9460448622703552,100.0,177022.0,1.0
15:01:58.231070,177151.796875,182122.015625,195800.671875,174063.234375,170673.734375,193761.109375,688513.25,173850.890625,0.052001953125,0.9775390625,-0.2509765625,-1.6174315214157104,-0.2746581733226776,0.7934569716453552,100.0,177023.0,1.0
15:01:58.231097,177214.46875,182133.90625,195816.40625,174064.9375,170679.8125,193794.90625,688433.75,173858.21875,0.05615234375,0.976806640625,-0.2509765625,-1.7089842557907104,-0.3356933295726776,0.7324218153953552,100.0,177024.0,1.0
15:01:58.233662,177277.421875,182148.9375,195835.71875,174067.4375,170693.03125,193850.34375,688686.5,173863.765625,0.057373046875,0.976318359375,-0.254638671875,-1.7089842557907104,-0.3662109076976776,0.6713866591453552,100.0,177025.0,1.0
15:01:58.233684,177229.40625,182148.9375,195836.25,174085.5,170707.703125,193838.625,688749.25,173881.828125,0.06103515625,0.976318359375,-0.254150390625,-1.7700194120407104,-0.3356933295726776,0.5798339247703552,100.0,177026.0,1.0
15:01:58.235498,177170.484375,182137.046875,195823.546875,174091.390625,170702.875,193786.5,688562.875,173885.671875,0.06201171875,0.97509765625,-0.25537109375,-1.7395018339157104,-0.5187987685203552,0.4272460639476776,100.0,177027.0,1.0
15:01:58.237948,177214.65625,182151.078125,195841.4375,174097.75,170715.390625,193814.484375,688430.4375,173892.921875,0.064453125,0.97265625,-0.256591796875,-1.7395018339157104,-0.4272460639476776,0.2746581733226776,100.0,177028.0,1.0
15:01:58.240731,177288.765625,182160.375,195856.453125,174091.125,170721.109375,193866.171875,688664.875,173891.65625,0.06640625,0.9736328125,-0.256591796875,-1.6784666776657104,-0.4272460639476776,0.1525878757238388,100.0,177029.0,1.0
15:01:58.243086,177242.453125,182158.953125,195850.546875,174089.15625,170724.953125,193860.625,688756.875,173889.96875,0.068359375,0.976318359375,-0.258056640625,-1.6479490995407104,-0.3356933295726776,0.1220703050494194,100.0,177030.0,1.0
15:01:58.245664,177176.75,182143.125,195832.40625,174089.96875,170715.296875,193799.5625,688598.5625,173882.546875,0.06884765625,0.97509765625,-0.257080078125,-1.7089842557907104,-0.1525878757238388,0.1831054538488388,100.0,177031.0,1.0
15:01:58.247961,177194.53125,182148.3125,195837.671875,174092.65625,170714.5,193803.578125,688414.1875,173887.109375,0.068603515625,0.973876953125,-0.25634765625,-1.7395018339157104,0.03051757626235485,0.2441406100988388,100.0,177032.0,1.0
15:01:58.250489,177287.25,182158.234375,195853.0625,174086.03125,170715.296875,193854.984375,688614.0,173883.890625,0.068603515625,0.97412109375,-0.256591796875,-1.5869139432907104,0.1525878757238388,0.1525878757238388,100.0,177033.0,1.0
15:01:58.252923,177267.3125,182165.203125,195858.78125,174095.78125,170725.765625,193869.5625,688764.0625,173891.84375,0.068359375,0.9736328125,-0.256591796875,-1.5869139432907104,0.2136230319738388,0.1831054538488388,100.0,177034.0,1.0
15:01:58.255475,177204.28125,182150.09375,195842.328125,174101.046875,170719.859375,193811.1875,688647.8125,173894.25,0.068603515625,0.97802734375,-0.25830078125,-1.5869139432907104,0.3967284858226776,0.1831054538488388,100.0,177035.0,1.0
15:01:58.257934,177199.09375,182154.125,195842.0625,174101.6875,170716.90625,193801.96875,688424.1875,173890.5,0.06884765625,0.978271484375,-0.2568359375,-1.5869139432907104,0.6408690810203552,0.1220703050494194,100.0,177036.0,1.0
15:01:58.260476,177295.828125,182166.640625,195862.359375,174099.265625,170718.875,193853.5625,688560.125,173888.984375,0.068603515625,0.978271484375,-0.25537109375,-1.5563963651657104,0.6713866591453552,0.1525878757238388,100.0,177037.0,1.0
15:01:58.263582,177303.96875,182186.3125,195881.578125,174124.5625,170740.15625,193887.890625,688758.875,173910.703125,0.06591796875,0.97705078125,-0.2529296875,-1.5869139432907104,0.7934569716453552,0.5798339247703552,100.0,177038.0,1.0
15:01:58.263593,177238.96875,182169.5,195865.84375,174131.359375,170733.359375,193829.953125,688677.5625,173912.5,0.06005859375,0.97705078125,-0.251953125,-1.5869139432907104,0.7629393935203552,0.8850097060203552,100.0,177039.0,1.0
15:01:58.266087,177208.75,182163.5,195857.96875,174121.53125,170727.90625,193805.453125,688462.9375,173905.15625,0.05126953125,0.97802734375,-0.25146484375,-1.5258787870407104,0.5798339247703552,1.4038084745407104,100.0,177040.0,1.0
15:01:58.266095,177297.890625,182174.953125,195875.234375,174118.125,170730.328125,193851.140625,688523.875,173906.0625,0.043701171875,0.97900390625,-0.250732421875,-1.4648436307907104,0.0,1.6784666776657104,100.0,177041.0,1.0
15:01:58.267953,177294.21875,182170.484375,195865.75,174095.78125,170723.53125,193874.84375,688743.4375,173884.78125,0.038330078125,0.9765625,-0.253662109375,-1.4953612089157104,-0.3051757514476776,1.5563963651657104,100.0,177042.0,1.0
15:01:58.273600,177206.515625,182140.265625,195826.6875,174077.09375,170698.046875,193811.890625,688698.0625,173855.359375,0.037841796875,0.97509765625,-0.25439453125,-1.5869139432907104,-0.6103515028953552,1.2512205839157104,100.0,177043.0,1.0
15:01:58.273637,177166.734375,182139.375,195821.5,174086.03125,170701.4375,193783.90625,688489.125,173866.265625,0.0439453125,0.975341796875,-0.25634765625,-1.6479490995407104,-0.7629393935203552,0.6408690810203552,100.0,177044.0,1.0
15:01:58.275460,177246.125,182150.984375,195837.953125,174088.453125,170706.265625,193826.109375,688468.8125,173878.34375,0.0546875,0.977294921875,-0.254150390625,-1.7089842557907104,-0.8239745497703552,0.2136230319738388,100.0,177045.0,1.0
15:01:58.278625,177281.890625,182159.21875,195843.140625,174077.09375,170708.6875,193869.109375,688713.25,173866.1875,0.064208984375,0.9765625,-0.255126953125,-1.7089842557907104,-0.7934569716453552,-0.03051757626235485,100.0,177046.0,1.0
15:01:58.278642,177224.125,182153.578125,195834.640625,174087.734375,170714.3125,193838.8125,688733.125,173884.15625,0.07080078125,0.976806640625,-0.255859375,-1.6174315214157104,-0.7324218153953552,-0.03051757626235485,100.0,177047.0,1.0
15:01:58.280522,177177.453125,182148.125,195828.015625,174097.125,170715.84375,193797.046875,688529.875,173891.03125,0.072265625,0.97509765625,-0.251708984375,-1.7089842557907104,-0.6713866591453552,0.03051757626235485,100.0,177048.0,1.0
15:01:58.313698,177229.40625,182147.40625,195832.21875,174092.375,170706.8125,193818.59375,688444.75,173881.296875,0.071044921875,0.974365234375,-0.25341796875,-1.6479490995407104,-0.6408690810203552,0.2441406100988388,100.0,177049.0,1.0
15:01:58.313718,177298.609375,182166.8125,195858.515625,174113.84375,170726.828125,193877.78125,688707.875,173914.546875,0.069580078125,0.975830078125,-0.25537109375,-1.7395018339157104,-0.6103515028953552,0.3051757514476776,100.0,177050.0,1.0
15:01:58.315561,177252.03125,182167.078125,195859.046875,174134.3125,170738.8125,193863.21875,688764.9375,173945.21875,0.067626953125,0.974365234375,-0.25537109375,-1.6784666776657104,-0.4272460639476776,0.4272460639476776,100.0,177051.0,1.0
15:01:58.318010,177162.96875,182130.515625,195810.234375,174074.140625,170698.9375,193784.1875,688571.625,173856.53125,0.070556640625,0.972900390625,-0.255615234375,-1.7089842557907104,-0.3051757514476776,0.3662109076976776,100.0,177052.0,1.0
15:01:58.320476,177212.6875,182148.125,195831.328125,174082.015625,170711.546875,193811.8125,688427.3125,173873.421875,0.0712890625,0.9716796875,-0.257568359375,-1.5563963651657104,-0.0610351525247097,0.3356933295726776,100.0,177053.0,1.0
15:01:58.323014,177291.359375,182159.75,195849.390625,174083.34375,170718.25,193864.015625,688654.875,173879.140625,0.06982421875,0.972412109375,-0.256591796875,-1.4648436307907104,0.1831054538488388,0.2441406100988388,100.0,177054.0,1.0
15:01:58.325461,177249.4375,182156.71875,195842.953125,174094.96875,170719.0625,193855.53125,688758.125,173887.28125,0.069580078125,0.975830078125,-0.256103515625,-1.3427733182907104,0.2746581733226776,0.3356933295726776,100.0,177055.0,1.0
15:01:58.327966,177183.71875,182140.078125,195824.453125,174093.71875,170710.109375,193794.8125,688603.25,173893.09375,0.068115234375,0.979736328125,-0.257568359375,-1.3122557401657104,0.4577636420726776,0.3051757514476776,100.0,177056.0,1.0
15:01:58.330518,177200.796875,182147.40625,195831.0625,174097.828125,170709.484375,193800.90625,688410.9375,173902.65625,0.067626953125,0.98779296875,-0.255615234375,-1.4648436307907104,0.4882812201976776,0.5798339247703552,100.0,177057.0,1.0
15:01:58.333028,177301.28125,182166.8125,195861.8125,174120.90625,170725.578125,193861.15625,688618.3125,173948.25,0.063232421875,0.98876953125,-0.248291015625,-1.4953612089157104,0.4882812201976776,0.8850097060203552,100.0,177058.0,1.0
15:01:58.336168,177276.796875,182173.703125,195862.796875,174121.890625,170735.5,193876.171875,688776.0,173936.359375,0.058349609375,0.9833984375,-0.24658203125,-1.7089842557907104,0.4882812201976776,1.0375975370407104,100.0,177059.0,1.0
15:01:58.336187,177221.359375,182164.40625,195851.890625,174148.703125,170736.125,193824.765625,688663.875,173944.140625,0.0517578125,0.975830078125,-0.252197265625,-1.8615721464157104,0.3662109076976776,1.1291502714157104,100.0,177060.0,1.0
15:01:58.338038,177216.625,182169.40625,195858.421875,174183.484375,170744.359375,193821.8125,688456.5,173989.46875,0.048583984375,0.972900390625,-0.255615234375,-1.8920897245407104,0.0915527269244194,0.8850097060203552,100.0,177061.0,1.0
15:01:58.341151,177293.6875,182168.78125,195850.546875,174085.59375,170717.984375,193861.96875,688588.375,173857.78125,0.05078125,0.96923828125,-0.2568359375,-1.7700194120407104,-0.2441406100988388,0.6408690810203552,100.0,177062.0,1.0
15:01:58.341160,177291.09375,182178.609375,195862.265625,174099.890625,170737.203125,193890.125,688796.75,173878.703125,0.053955078125,0.968994140625,-0.25634765625,-1.6174315214157104,-0.1831054538488388,0.2746581733226776,100.0,177063.0,1.0
15:01:58.350494,177225.5625,182159.9375,195846.53125,174118.21875,170732.90625,193830.3125,688702.3125,173910.703125,0.05859375,0.969970703125,-0.253662109375,-1.4343260526657104,0.0,0.1525878757238388,100.0,177064.0,1.0
15:01:58.352982,177205.171875,182159.65625,195853.421875,174169.546875,170744.625,193809.578125,688472.375,173948.34375,0.061767578125,0.970458984375,-0.25537109375,-1.2512205839157104,0.03051757626235485,0.0,100.0,177065.0,1.0
15:01:58.366161,177262.84375,182148.9375,195834.015625,174057.609375,170709.484375,193832.453125,688523.625,173850.890625,0.065673828125,0.97509765625,-0.2548828125,-1.1901854276657104,0.0915527269244194,-0.03051757626235485,100.0,177066.0,1.0
15:01:58.366235,177283.046875,182163.328125,195851.359375,174083.265625,170727.109375,193873.3125,688747.875,173901.140625,0.067138671875,0.977783203125,-0.25537109375,-1.1291502714157104,0.1220703050494194,0.0915527269244194,100.0,177067.0,1.0
15:01:58.368564,177218.140625,182148.671875,195838.3125,174128.859375,170719.5,193824.953125,688702.25,173895.5,0.06884765625,0.9814453125,-0.2548828125,-1.1291502714157104,0.1831054538488388,0.2746581733226776,100.0,177068.0,1.0
15:01:58.368585,177172.546875,182141.328125,195829.71875,174150.5,170717.171875,193789.90625,688478.8125,173912.765625,0.065673828125,0.982177734375,-0.251708984375,-1.2512205839157104,0.1831054538488388,0.5187987685203552,100.0,177069.0,1.0
15:01:58.378684,177231.453125,182137.21875,195820.875,174052.140625,170697.421875,193818.25,688464.0625,173877.625,0.0634765625,0.98193359375,-0.2509765625,-1.3427733182907104,0.2441406100988388,0.8850097060203552,100.0,177070.0,1.0
15:01:58.378831,177267.21875,182138.734375,195825.703125,174069.046875,170691.515625,193852.046875,688698.0625,173853.3125,0.0595703125,0.98388671875,-0.249755859375,-1.4953612089157104,0.2136230319738388,1.0375975370407104,100.0,177071.0,1.0
15:01:58.382378,177194.984375,182122.109375,195801.828125,174034.359375,170681.421875,193812.796875,688705.75,173828.265625,0.056640625,0.984130859375,-0.24853515625,-1.5258787870407104,0.1220703050494194,1.3122557401657104,100.0,177072.0,1.0
15:01:58.382389,177151.796875,182117.90625,195798.78125,174058.234375,170686.25,193772.015625,688514.75,173851.609375,0.053955078125,0.983642578125,-0.25,-1.6174315214157104,0.0,1.4343260526657104,100.0,177073.0,1.0
15:01:58.394239,177225.734375,182138.921875,195824.890625,174072.4375,170698.578125,193811.625,688432.25,173869.21875,0.0517578125,0.97900390625,-0.2529296875,-1.7700194120407104,-0.1831054538488388,1.3427733182907104,100.0,177074.0,1.0
15:01:58.402639,177298.6875,182161.359375,195852.609375,174084.78125,170714.671875,193869.921875,688686.5,173881.65625,0.052978515625,0.97314453125,-0.252197265625,-1.7395018339157104,-0.3051757514476776,1.3427733182907104,100.0,177075.0,1.0
15:01:58.402650,177250.5,182159.21875,195850.109375,174110.078125,170722.546875,193850.78125,688746.0,173904.09375,0.05517578125,0.971923828125,-0.255126953125,-1.6174315214157104,-0.3356933295726776,1.1596678495407104,100.0,177076.0,1.0
15:01:58.402651,177206.15625,182156.171875,195850.375,174159.078125,170731.75,193803.578125,688564.125,173953.71875,0.05810546875,0.971923828125,-0.2548828125,-1.6479490995407104,-0.4882812201976776,1.1596678495407104,100.0,177077.0,1.0
15:01:58.412421,177238.703125,182156.0,195850.109375,174107.9375,170722.625,193816.90625,688416.0625,173928.859375,0.062255859375,0.975341796875,-0.254150390625,-1.5258787870407104,-0.4272460639476776,0.9155272841453552,100.0,177078.0,1.0
15:01:58.412434,177309.15625,182161.8125,195861.734375,174099.625,170723.4375,193865.8125,688659.6875,173894.703125,0.0654296875,0.97705078125,-0.250732421875,-1.4648436307907104,-0.4882812201976776,0.7324218153953552,100.0,177079.0,1.0
15:01:58.422506,177268.203125,182162.34375,195858.78125,174114.90625,170732.015625,193863.03125,688756.6875,173882.546875,0.067138671875,0.976806640625,-0.25244140625,-1.4038084745407104,-0.3356933295726776,0.6408690810203552,100.0,177080.0,1.0
15:01:58.422528,177208.03125,182149.203125,195847.609375,174117.59375,170733.1875,193806.4375,688607.1875,173924.75,0.0693359375,0.976806640625,-0.253173828125,-1.3122557401657104,-0.2746581733226776,0.7629393935203552,100.0,177081.0,1.0
15:01:58.424767,177214.828125,182147.234375,195841.4375,174090.140625,170720.9375,193805.375,688405.9375,173879.765625,0.070068359375,0.975341796875,-0.25537109375,-1.4343260526657104,-0.0610351525247097,0.7019042372703552,100.0,177082.0,1.0
15:01:58.424779,177325.875,182173.078125,195879.703125,174128.6875,170741.9375,193870.015625,688606.6875,173907.9375,0.070068359375,0.973876953125,-0.2529296875,-1.4343260526657104,-0.0915527269244194,0.7019042372703552,100.0,177083.0,1.0
15:01:58.432421,177298.875,182175.671875,195882.296875,174132.875,170751.515625,193879.84375,688762.3125,173935.109375,0.0712890625,0.9716796875,-0.255859375,-1.3427733182907104,0.0915527269244194,0.8850097060203552,100.0,177084.0,1.0
15:01:58.432490,177212.5,182140.171875,195840.71875,174106.328125,170723.171875,193800.625,688636.875,173891.03125,0.07080078125,0.96923828125,-0.25537109375,-1.1901854276657104,0.1220703050494194,0.9155272841453552,100.0,177085.0,1.0
15:01:58.442384,177209.734375,182143.84375,195844.75,174141.90625,170727.8125,193792.9375,688428.6875,173909.359375,0.069580078125,0.97119140625,-0.255859375,-1.0986326932907104,0.2441406100988388,0.8239745497703552,100.0,177086.0,1.0
15:01:58.442399,177293.59375,182146.4375,195852.796875,174124.296875,170722.984375,193835.5,688568.125,173904.1875,0.068603515625,0.972412109375,-0.2548828125,-1.1596678495407104,0.3662109076976776,0.7629393935203552,100.0,177087.0,1.0
15:01:58.444302,177269.453125,182141.515625,195836.96875,174054.828125,170712.625,193848.546875,688761.375,173860.015625,0.06640625,0.971923828125,-0.25634765625,-1.0681151151657104,0.4272460639476776,0.7629393935203552,100.0,177088.0,1.0
15:01:58.450590,177198.296875,182124.796875,195820.875,174077.1875,170708.59375,193793.484375,688679.8125,173871.8125,0.063720703125,0.97314453125,-0.25341796875,-0.9765624403953552,0.5187987685203552,0.6103515028953552,100.0,177089.0,1.0
15:01:58.466494,177171.203125,182120.5,195816.046875,174090.5,170704.03125,193771.390625,688448.9375,173878.4375,0.0654296875,0.973876953125,-0.255859375,-0.9460448622703552,0.5187987685203552,0.4577636420726776,100.0,177090.0,1.0
15:01:58.466572,177261.6875,182134.359375,195835.984375,174086.484375,170708.234375,193822.453125,688503.75,173890.59375,0.06298828125,0.973876953125,-0.25830078125,-0.9765624403953552,0.5187987685203552,0.4272460639476776,100.0,177091.0,1.0
15:01:58.494557,177282.328125,182151.609375,195852.34375,174091.390625,170725.140625,193867.5,688734.4375,173904.0,0.06494140625,0.975830078125,-0.2587890625,-0.9460448622703552,0.5493163466453552,0.3662109076976776,100.0,177092.0,1.0
15:01:58.494576,177219.21875,182139.28125,195838.84375,174108.75,170722.359375,193822.0,688704.125,173931.71875,0.065673828125,0.97705078125,-0.25927734375,-0.8239745497703552,0.6103515028953552,0.3662109076976776,100.0,177093.0,1.0
15:01:58.494578,177170.75,182126.765625,195817.65625,174094.890625,170703.859375,193779.625,688487.75,173865.375,0.064697265625,0.97607421875,-0.258056640625,-0.8239745497703552,0.6408690810203552,0.2746581733226776,100.0,177094.0,1.0
15:01:58.494580,177252.734375,182141.875,195835.359375,174091.75,170708.328125,193822.71875,688468.875,173871.8125,0.064697265625,0.974853515625,-0.25634765625,-0.6713866591453552,0.7019042372703552,0.2136230319738388,100.0,177095.0,1.0
15:01:58.494582,177289.484375,182152.515625,195845.90625,174090.5,170717.171875,193867.6875,688711.25,173882.28125,0.064697265625,0.97216796875,-0.25732421875,-0.6713866591453552,0.7019042372703552,0.1831054538488388,100.0,177096.0,1.0
15:01:58.494584,177229.9375,182141.953125,195836.96875,174107.765625,170719.859375,193833.0,688726.375,173897.828125,0.06396484375,0.971923828125,-0.258056640625,-0.5798339247703552,0.5493163466453552,0.1220703050494194,100.0,177097.0,1.0
15:01:58.498674,177178.984375,182132.21875,195826.59375,174119.03125,170716.015625,193784.53125,688524.125,173904.359375,0.061767578125,0.972412109375,-0.259765625,-0.5493163466453552,0.5187987685203552,0.0,100.0,177098.0,1.0
15:01:58.498688,177243.359375,182144.734375,195844.46875,174118.40625,170722.546875,193819.671875,688442.875,173909.1875,0.05810546875,0.975830078125,-0.258544921875,-0.4577636420726776,0.4577636420726776,-0.0915527269244194,100.0,177099.0,1.0
15:01:58.498690,177295.390625,182147.140625,195848.046875,174092.296875,170715.84375,193860.4375,688689.0,173889.25,0.05419921875,0.977783203125,-0.2587890625,-0.5798339247703552,0.4882812201976776,-0.2441406100988388,100.0,177100.0,1.0
15:01:58.498692,177240.140625,182138.203125,195836.421875,174098.28125,170712.171875,193833.984375,688744.0625,173888.796875,0.05224609375,0.979736328125,-0.256591796875,-0.6103515028953552,0.2441406100988388,-0.3051757514476776,100.0,177101.0,1.0
15:01:58.500494,177187.03125,182128.546875,195828.015625,174117.0625,170712.703125,193779.984375,688567.25,173903.375,0.0517578125,0.9814453125,-0.2548828125,-0.7324218153953552,0.1220703050494194,-0.3356933295726776,100.0,177102.0,1.0
15:01:58.502946,177230.203125,182143.5625,195844.109375,174109.015625,170723.34375,193805.09375,688418.375,173904.265625,0.05126953125,0.985107421875,-0.256591796875,-0.8850097060203552,-0.03051757626235485,-0.3662109076976776,100.0,177103.0,1.0
15:01:58.505465,177308.796875,182156.171875,195862.359375,174106.328125,170732.109375,193860.625,688646.125,173905.609375,0.0498046875,0.987548828125,-0.257568359375,-0.9765624403953552,-0.1220703050494194,-0.4577636420726776,100.0,177104.0,1.0
15:01:58.515527,177262.03125,182153.046875,195855.296875,174106.0625,170735.421875,193856.0625,688750.0625,173905.609375,0.053955078125,0.990234375,-0.257080078125,-1.1291502714157104,-0.3967284858226776,-0.4882812201976776,100.0,177105.0,1.0
15:01:58.522484,177192.921875,182134.0,195834.90625,174102.9375,170726.03125,193794.640625,688605.875,173916.078125,0.05419921875,0.990234375,-0.2548828125,-1.1901854276657104,-0.5187987685203552,-0.4882812201976776,100.0,177106.0,1.0
15:01:58.522511,177208.390625,182140.265625,195839.375,174104.0,170726.390625,193802.0625,688415.375,173904.53125,0.056396484375,0.9873046875,-0.255615234375,-1.3122557401657104,-0.6103515028953552,-0.3662109076976776,100.0,177107.0,1.0
15:01:58.524916,177302.453125,182158.765625,195861.1875,174101.046875,170733.1875,193861.421875,688613.375,173894.53125,0.058349609375,0.9873046875,-0.25390625,-1.4648436307907104,-0.7019042372703552,-0.0915527269244194,100.0,177108.0,1.0
15:01:58.524936,177275.625,182162.171875,195860.5625,174104.890625,170739.984375,193871.796875,688770.3125,173898.8125,0.06298828125,0.987548828125,-0.254150390625,-1.6479490995407104,-0.7324218153953552,0.1831054538488388,100.0,177109.0,1.0
15:01:58.534319,177205.71875,182136.859375,195834.453125,174099.625,170726.203125,193805.015625,688645.125,173892.46875,0.06298828125,0.98388671875,-0.253662109375,-1.6479490995407104,-0.6713866591453552,0.3356933295726776,100.0,177110.0,1.0
15:01:58.537396,177205.0,182143.5625,195840.359375,174110.625,170730.765625,193800.71875,688431.875,173903.109375,0.0615234375,0.98046875,-0.254638671875,-1.6784666776657104,-0.5798339247703552,0.4882812201976776,100.0,177111.0,1.0
15:01:58.537404,177302.625,182158.5,195862.4375,174105.796875,170734.96875,193854.546875,688584.125,173909.546875,0.060546875,0.978515625,-0.25390625,-1.8310545682907104,-0.7019042372703552,0.6408690810203552,100.0,177112.0,1.0
15:01:58.543058,177303.796875,182172.625,195874.421875,174116.875,170747.75,193885.921875,688781.1875,173939.5,0.06005859375,0.97900390625,-0.256103515625,-1.8920897245407104,-0.7324218153953552,0.7629393935203552,100.0,177113.0,1.0
15:01:58.553788,177226.28125,182148.9375,195843.21875,174100.703125,170725.5,193824.328125,688689.125,173882.8125,0.057861328125,0.977783203125,-0.256591796875,-1.9226073026657104,-0.6408690810203552,1.0070799589157104,100.0,177114.0,1.0
15:01:58.553816,177190.875,182139.375,195831.59375,174099.359375,170716.46875,193795.796875,688458.25,173880.578125,0.056640625,0.97607421875,-0.256591796875,-1.9531248807907104,-0.6408690810203552,1.0070799589157104,100.0,177115.0,1.0
15:01:58.582415,177284.484375,182153.671875,195853.328125,174100.515625,170723.34375,193845.25,688508.75,173892.28125,0.056640625,0.9755859375,-0.255859375,-1.9226073026657104,-0.7324218153953552,1.0986326932907104,100.0,177116.0,1.0
15:01:58.582487,177300.84375,182163.5,195864.40625,174104.09375,170733.71875,193882.4375,688734.25,173899.796875,0.05908203125,0.97509765625,-0.252685546875,-1.9836424589157104,-0.7934569716453552,1.0986326932907104,100.0,177117.0,1.0
15:01:58.608122,177238.703125,182153.140625,195853.328125,174113.921875,170733.984375,193837.734375,688705.625,173912.046875,0.057861328125,0.97509765625,-0.25390625,-2.014159917831421,-0.8850097060203552,1.0375975370407104,100.0,177118.0,1.0
15:01:58.610579,177195.34375,182144.28125,195840.1875,174110.265625,170724.78125,193797.953125,688483.0,173896.3125,0.06005859375,0.976806640625,-0.25048828125,-2.105712652206421,-0.8544921278953552,0.9765624403953552,100.0,177119.0,1.0
15:01:58.612938,177284.484375,182163.0625,195867.71875,174123.765625,170735.78125,193844.703125,688478.4375,173917.234375,0.060546875,0.9775390625,-0.2529296875,-2.105712652206421,-0.9155272841453552,1.0070799589157104,100.0,177120.0,1.0
15:01:58.615461,177319.34375,182170.03125,195871.296875,174109.640625,170733.890625,193883.78125,688725.75,173897.921875,0.0625,0.978515625,-0.2568359375,-2.105712652206421,-0.9460448622703552,0.9155272841453552,100.0,177121.0,1.0
15:01:58.617934,177251.671875,182154.296875,195852.609375,174115.453125,170729.515625,193843.09375,688732.1875,173903.46875,0.06494140625,0.976806640625,-0.2548828125,-2.136230230331421,-0.7629393935203552,0.7629393935203552,100.0,177122.0,1.0
15:01:58.620456,177196.953125,182143.75,195840.1875,174115.71875,170726.5625,193798.03125,688531.5,173907.578125,0.0693359375,0.97607421875,-0.25341796875,-2.136230230331421,-0.7324218153953552,0.6408690810203552,100.0,177123.0,1.0
15:01:58.622915,177259.890625,182155.8125,195856.546875,174116.4375,170732.203125,193831.203125,688442.25,173910.265625,0.0693359375,0.97412109375,-0.254150390625,-2.258300542831421,-0.5798339247703552,0.4577636420726776,100.0,177124.0,1.0
15:01:58.625470,177318.09375,182165.75,195866.828125,174100.078125,170734.515625,193880.921875,688695.8125,173895.953125,0.071533203125,0.974609375,-0.254638671875,-2.227782964706421,-0.4272460639476776,0.3051757514476776,100.0,177125.0,1.0
15:01:58.627932,177264.90625,182160.46875,195856.0,174106.59375,170736.3125,193859.546875,688757.25,173904.265625,0.07275390625,0.974609375,-0.256103515625,-2.227782964706421,-0.3051757514476776,0.3051757514476776,100.0,177126.0,1.0
15:01:58.630535,177210.71875,182151.53125,195845.015625,174120.90625,170737.296875,193807.609375,688587.375,173917.328125,0.074462890625,0.972412109375,-0.254638671875,-2.136230230331421,-0.1831054538488388,0.2441406100988388,100.0,177127.0,1.0
15:01:58.632927,177251.484375,182159.9375,195857.4375,174121.96875,170741.9375,193828.53125,688438.0625,173919.734375,0.074462890625,0.971923828125,-0.25439453125,-2.014159917831421,0.0,0.2136230319738388,100.0,177128.0,1.0
15:01:58.635427,177320.875,182161.71875,195865.03125,174104.09375,170737.734375,193872.0625,688662.0,173905.875,0.073974609375,0.97412109375,-0.25390625,-2.014159917831421,0.2136230319738388,0.2746581733226776,100.0,177129.0,1.0
15:01:58.637930,177274.28125,182156.890625,195858.328125,174110.265625,170741.40625,193863.3125,688769.125,173922.0625,0.073486328125,0.975341796875,-0.253662109375,-2.014159917831421,0.3967284858226776,0.2441406100988388,100.0,177130.0,1.0
15:01:58.640576,177208.03125,182140.53125,195839.28125,174110.53125,170731.484375,193801.96875,688618.9375,173910.96875,0.0712890625,0.973388671875,-0.252685546875,-1.8920897245407104,0.5493163466453552,0.2441406100988388,100.0,177131.0,1.0
15:01:58.644244,177225.296875,182150.09375,195846.984375,174115.265625,170734.34375,193809.21875,688432.3125,173906.765625,0.071044921875,0.971923828125,-0.253662109375,-1.7700194120407104,0.7019042372703552,0.2136230319738388,100.0,177132.0,1.0
15:01:58.644259,177311.84375,182161.453125,195862.359375,174101.6875,170735.421875,193860.984375,688633.4375,173902.75,0.06982421875,0.970947265625,-0.25244140625,-1.6479490995407104,0.7629393935203552,0.1831054538488388,100.0,177133.0,1.0
15:01:58.644262,177283.140625,182163.6875,195858.421875,174102.03125,170739.0,193871.984375,688786.1875,173901.40625,0.069580078125,0.969970703125,-0.259033203125,-1.4953612089157104,0.9155272841453552,0.2136230319738388,100.0,177134.0,1.0
15:01:58.646720,177214.921875,182143.65625,195835.625,174107.484375,170727.1875,193809.921875,688659.3125,173904.265625,0.066162109375,0.968994140625,-0.25537109375,-1.3732908964157104,0.8850097060203552,0.2136230319738388,100.0,177135.0,1.0
15:01:58.649786,177203.203125,182143.03125,195830.4375,174100.515625,170721.65625,193799.828125,688437.0,173896.40625,0.06298828125,0.96923828125,-0.258056640625,-1.1596678495407104,1.0986326932907104,0.1220703050494194,100.0,177136.0,1.0
15:01:58.649807,177298.875,182155.90625,195851.0,174093.28125,170727.1875,193854.546875,688564.625,173894.609375,0.06201171875,0.970703125,-0.256103515625,-1.0375975370407104,1.1901854276657104,0.0915527269244194,100.0,177137.0,1.0
15:01:58.652326,177301.90625,182171.734375,195865.03125,174107.484375,170744.171875,193888.25,688771.625,173906.0625,0.059326171875,0.9716796875,-0.254638671875,-1.0070799589157104,1.1901854276657104,-0.03051757626235485,100.0,177138.0,1.0
15:01:58.652330,177231.734375,182153.578125,195845.640625,174112.765625,170736.84375,193830.5,688687.875,173908.203125,0.05859375,0.96923828125,-0.2578125,-0.7934569716453552,1.1291502714157104,0.1831054538488388,100.0,177139.0,1.0
15:01:58.654255,177210.265625,182156.71875,195847.25,174121.890625,170740.78125,193812.96875,688464.3125,173914.640625,0.058349609375,0.9716796875,-0.254638671875,-0.6103515028953552,1.0375975370407104,0.1831054538488388,100.0,177140.0,1.0
15:01:58.656709,177298.875,182164.84375,195862.265625,174113.03125,170737.921875,193854.984375,688528.8125,173907.9375,0.054443359375,0.9736328125,-0.25341796875,-0.3967284858226776,0.8544921278953552,0.0915527269244194,100.0,177141.0,1.0
15:01:58.663617,177309.953125,182169.140625,195865.125,174109.1875,170740.328125,193885.203125,688747.9375,173902.125,0.0546875,0.97265625,-0.255859375,-0.3356933295726776,0.8239745497703552,0.1525878757238388,100.0,177142.0,1.0
15:01:58.663628,177241.75,182152.515625,195847.25,174107.40625,170733.546875,193836.296875,688709.875,173905.078125,0.05419921875,0.973876953125,-0.2568359375,-0.1831054538488388,0.6103515028953552,0.1220703050494194,100.0,177143.0,1.0
15:01:58.670650,177198.5625,182145.8125,195838.03125,174108.46875,170727.8125,193800.453125,688486.3125,173896.9375,0.05322265625,0.97509765625,-0.258056640625,-0.03051757626235485,0.5187987685203552,0.1220703050494194,100.0,177144.0,1.0
15:01:58.677428,177276.515625,182159.84375,195857.078125,174104.546875,170733.984375,193844.078125,688473.375,173902.125,0.054931640625,0.97607421875,-0.25439453125,-0.0915527269244194,0.4272460639476776,0.1220703050494194,100.0,177145.0,1.0
15:01:58.677495,177317.203125,182171.109375,195872.734375,174110.890625,170748.203125,193890.9375,688721.625,173911.0625,0.05322265625,0.97998046875,-0.254150390625,-0.1220703050494194,0.2746581733226776,0.3051757514476776,100.0,177146.0,1.0
15:01:58.679785,177250.234375,182154.203125,195855.203125,174116.4375,170744.625,193849.265625,688724.125,173916.34375,0.05322265625,0.982421875,-0.256103515625,-0.1220703050494194,0.2136230319738388,0.3356933295726776,100.0,177147.0,1.0
15:01:58.679795,177196.40625,182138.734375,195837.59375,174116.34375,170736.125,193797.765625,688520.875,173917.234375,0.054931640625,0.982177734375,-0.257568359375,-0.1525878757238388,0.0610351525247097,0.4272460639476776,100.0,177148.0,1.0
15:01:58.690997,177257.5625,182149.203125,195851.359375,174115.71875,170738.1875,193828.890625,688433.75,173924.828125,0.05615234375,0.9814453125,-0.257080078125,-0.2746581733226776,-0.03051757626235485,0.4882812201976776,100.0,177149.0,1.0
15:01:58.693665,177316.484375,182161.8125,195866.296875,174106.59375,170744.09375,193881.546875,688682.5625,173912.046875,0.05712890625,0.982666015625,-0.2587890625,-0.3356933295726776,-0.1831054538488388,0.5187987685203552,100.0,177150.0,1.0
15:01:58.693731,177256.578125,182152.953125,195853.421875,174105.078125,170741.671875,193858.296875,688739.375,173899.703125,0.0556640625,0.9833984375,-0.2568359375,-0.3662109076976776,-0.2746581733226776,0.5798339247703552,100.0,177151.0,1.0
15:01:58.695594,177192.484375,182133.46875,195834.734375,174108.921875,170730.953125,193795.984375,688555.0625,173903.828125,0.05712890625,0.984130859375,-0.255615234375,-0.4272460639476776,-0.3662109076976776,0.6713866591453552,100.0,177152.0,1.0
15:01:58.711080,177227.078125,182137.578125,195842.15625,174106.953125,170728.4375,193810.28125,688407.1875,173901.234375,0.05859375,0.98291015625,-0.25830078125,-0.5798339247703552,-0.3662109076976776,0.6408690810203552,100.0,177153.0,1.0
15:01:58.711092,177302.890625,182148.21875,195854.84375,174093.640625,170730.671875,193861.515625,688650.5,173894.171875,0.058837890625,0.98388671875,-0.2587890625,-0.6103515028953552,-0.5493163466453552,0.7019042372703552,100.0,177154.0,1.0
15:01:58.718827,177257.484375,182145.359375,195847.875,174092.296875,170732.375,193855.609375,688755.5625,173891.390625,0.0595703125,0.984619140625,-0.25927734375,-0.7629393935203552,-0.6408690810203552,0.7019042372703552,100.0,177155.0,1.0
15:01:58.718838,177194.53125,182131.671875,195833.203125,174101.5,170726.390625,193796.25,688605.875,173899.171875,0.056884765625,0.9814453125,-0.258056640625,-0.7934569716453552,-0.5798339247703552,0.5798339247703552,100.0,177156.0,1.0
15:01:58.721041,177211.875,182138.46875,195839.640625,174107.9375,170727.734375,193800.90625,688412.1875,173906.0625,0.056396484375,0.98095703125,-0.259033203125,-0.9460448622703552,-0.6713866591453552,0.6713866591453552,100.0,177157.0,1.0
15:01:58.721046,177311.296875,182159.9375,195865.578125,174105.4375,170739.265625,193865.359375,688620.8125,173906.5,0.05810546875,0.97998046875,-0.26025390625,-1.1901854276657104,-0.7019042372703552,0.7934569716453552,100.0,177158.0,1.0
15:01:58.731858,177282.0625,182158.59375,195860.65625,174103.28125,170741.671875,193872.6875,688768.0625,173900.421875,0.060546875,0.977294921875,-0.262451171875,-1.3732908964157104,-0.7019042372703552,0.7324218153953552,100.0,177159.0,1.0
15:01:58.736065,177209.203125,182135.171875,195838.21875,174102.390625,170729.609375,193806.265625,688646.3125,173898.640625,0.062255859375,0.979736328125,-0.263427734375,-1.4038084745407104,-0.7934569716453552,0.7934569716453552,100.0,177160.0,1.0
15:01:58.736073,177195.609375,182132.390625,195834.734375,174101.5,170726.5625,193794.8125,688421.5,173897.65625,0.065185546875,0.9794921875,-0.26025390625,-1.4953612089157104,-0.7629393935203552,0.7629393935203552,100.0,177161.0,1.0
15:01:58.743710,177292.171875,182142.40625,195850.828125,174095.953125,170726.921875,193845.609375,688551.875,173895.78125,0.064697265625,0.9814453125,-0.259033203125,-1.5869139432907104,-0.8239745497703552,0.6713866591453552,100.0,177162.0,1.0
15:01:58.743713,177283.671875,182145.8125,195851.0,174095.6875,170730.328125,193865.265625,688743.9375,173891.3125,0.065185546875,0.979736328125,-0.25927734375,-1.6784666776657104,-0.7019042372703552,0.6713866591453552,100.0,177163.0,1.0
15:01:58.757354,177217.6875,182131.046875,195835.09375,174104.453125,170727.453125,193810.28125,688662.0,173905.875,0.06494140625,0.976806640625,-0.26171875,-1.7089842557907104,-0.5798339247703552,0.6713866591453552,100.0,177164.0,1.0
15:01:58.757372,177201.421875,182140.796875,195842.953125,174120.984375,170737.65625,193798.03125,688442.6875,173926.359375,0.061767578125,0.974853515625,-0.26123046875,-1.8005369901657104,-0.5493163466453552,0.6713866591453552,100.0,177165.0,1.0
15:01:58.759871,177286.71875,182145.53125,195851.71875,174096.140625,170729.25,193838.0,688493.9375,173885.140625,0.06201171875,0.971435546875,-0.26171875,-1.8310545682907104,-0.6408690810203552,0.5187987685203552,100.0,177166.0,1.0
15:01:58.759887,177308.265625,182157.875,195866.640625,174104.8125,170744.0,193876.265625,688721.9375,173899.890625,0.062255859375,0.971923828125,-0.2578125,-1.8310545682907104,-0.5493163466453552,0.5187987685203552,100.0,177167.0,1.0
15:01:58.766084,177245.140625,182147.5,195855.03125,174113.21875,170743.28125,193832.546875,688692.9375,173904.984375,0.0625,0.974609375,-0.259521484375,-1.8615721464157104,-0.4882812201976776,0.3967284858226776,100.0,177168.0,1.0
15:01:58.766091,177201.859375,182141.515625,195845.90625,174113.578125,170740.25,193797.59375,688476.4375,173904.984375,0.063232421875,0.977294921875,-0.258056640625,-1.8615721464157104,-0.4577636420726776,0.0915527269244194,100.0,177169.0,1.0
15:01:58.771879,177275.265625,182151.703125,195860.65625,174107.140625,170742.390625,193838.09375,688464.0625,173905.34375,0.062744140625,0.978759765625,-0.256591796875,-1.9836424589157104,-0.3967284858226776,0.2136230319738388,100.0,177170.0,1.0
15:01:58.778683,177310.765625,182159.390625,195869.78125,174106.15625,170745.875,193880.296875,688708.125,173907.3125,0.061767578125,0.978271484375,-0.2568359375,-2.075195074081421,-0.3662109076976776,0.1220703050494194,100.0,177171.0,1.0
15:01:58.778756,177234.5,182135.25,195842.5,174093.8125,170730.046875,193832.015625,688716.625,173892.015625,0.0615234375,0.9765625,-0.2548828125,-2.105712652206421,-0.3356933295726776,-0.03051757626235485,100.0,177172.0,1.0
15:01:58.788046,177183.265625,182125.953125,195832.5,174107.40625,170728.0,193785.96875,688527.9375,173907.046875,0.060546875,0.977294921875,-0.258544921875,-2.044677495956421,-0.3356933295726776,-0.0915527269244194,100.0,177173.0,1.0
15:01:58.801663,177240.578125,182132.578125,195840.890625,174097.125,170724.875,193813.234375,688426.3125,173891.75,0.060791015625,0.9765625,-0.25634765625,-2.136230230331421,-0.3662109076976776,-0.2136230319738388,100.0,177174.0,1.0
15:01:58.801740,177299.671875,182140.703125,195851.625,174090.421875,170725.9375,193858.296875,688672.3125,173891.9375,0.06103515625,0.975341796875,-0.259521484375,-2.166747808456421,-0.3967284858226776,-0.1220703050494194,100.0,177175.0,1.0
15:01:58.801768,177236.015625,182126.40625,195832.5,174084.609375,170716.734375,193828.34375,688735.75,173885.765625,0.060791015625,0.976318359375,-0.2587890625,-2.075195074081421,-0.3967284858226776,-0.1525878757238388,100.0,177176.0,1.0
15:01:58.802356,177173.171875,182112.09375,195814.171875,174088.0,170706.265625,193770.328125,688556.625,173888.265625,0.061767578125,0.976806640625,-0.257080078125,-2.136230230331421,-0.3967284858226776,-0.0610351525247097,100.0,177177.0,1.0
15:01:58.802419,177218.59375,182125.515625,195829.453125,174100.515625,170713.421875,193792.765625,688407.8125,173908.734375,0.060791015625,0.97802734375,-0.260009765625,-2.044677495956421,-0.3967284858226776,-0.0610351525247097,100.0,177178.0,1.0
15:01:58.804245,177304.859375,182143.84375,195852.15625,174103.5625,170723.890625,193854.28125,688652.875,173909.640625,0.0625,0.9794921875,-0.259521484375,-2.166747808456421,-0.2136230319738388,0.03051757626235485,100.0,177179.0,1.0
15:01:58.811836,177259.4375,182142.234375,195847.15625,174105.53125,170727.8125,193850.96875,688762.125,173904.53125,0.061279296875,0.978515625,-0.255126953125,-2.075195074081421,-0.1525878757238388,0.0610351525247097,100.0,177180.0,1.0
15:01:58.822418,177184.4375,182116.03125,195820.515625,174094.53125,170713.515625,193782.578125,688611.5625,173912.3125,0.06103515625,0.978515625,-0.254150390625,-2.136230230331421,-0.03051757626235485,0.1220703050494194,100.0,177181.0,1.0
15:01:58.822483,177201.15625,182125.421875,195824.625,174090.234375,170710.921875,193789.71875,688414.625,173881.296875,0.06103515625,0.97802734375,-0.256591796875,-2.105712652206421,-0.0610351525247097,0.2746581733226776,100.0,177182.0,1.0
15:01:58.824839,177298.0625,182141.25,195849.125,174095.328125,170719.6875,193845.953125,688623.125,173891.3125,0.060546875,0.977783203125,-0.25830078125,-2.166747808456421,-0.0915527269244194,0.4882812201976776,100.0,177183.0,1.0
15:01:58.824894,177268.75,182140.703125,195846.0,174096.765625,170724.15625,193854.546875,688769.125,173892.375,0.0595703125,0.977294921875,-0.255859375,-2.166747808456421,-0.03051757626235485,0.4577636420726776,100.0,177184.0,1.0
15:01:58.830512,177198.109375,182122.109375,195822.84375,174090.421875,170715.03125,193793.390625,688652.5625,173885.765625,0.0576171875,0.975830078125,-0.258544921875,-2.105712652206421,-0.1831054538488388,0.5798339247703552,100.0,177185.0,1.0
15:01:58.851116,177197.578125,182133.015625,195832.21875,174102.75,170723.34375,193794.015625,688435.75,173898.375,0.0556640625,0.978759765625,-0.25830078125,-2.044677495956421,-0.03051757626235485,0.5187987685203552,100.0,177186.0,1.0
15:01:58.851128,177297.265625,182150.984375,195857.703125,174103.015625,170731.84375,193852.21875,688571.6875,173905.34375,0.055419921875,0.977294921875,-0.2587890625,-2.014159917831421,-0.0915527269244194,0.5187987685203552,100.0,177187.0,1.0
15:01:58.853758,177289.84375,182157.875,195859.859375,174103.203125,170738.1875,193876.71875,688767.5,173903.375,0.0576171875,0.979736328125,-0.25927734375,-2.044677495956421,-0.0610351525247097,0.6103515028953552,100.0,177188.0,1.0
15:01:58.853771,177217.78125,182134.1875,195834.8125,174101.59375,170726.296875,193812.34375,688679.5625,173900.875,0.0576171875,0.97900390625,-0.260498046875,-2.044677495956421,-0.03051757626235485,0.6408690810203552,100.0,177189.0,1.0
15:01:58.856698,177192.03125,182133.28125,195832.5,174107.046875,170725.5,193789.0,688450.5625,173904.0,0.05859375,0.978759765625,-0.2587890625,-2.044677495956421,-0.0915527269244194,0.6713866591453552,100.0,177190.0,1.0
15:01:58.856744,177279.65625,182143.84375,195851.53125,174099.625,170730.859375,193834.96875,688515.6875,173906.765625,0.058837890625,0.978515625,-0.25927734375,-2.044677495956421,-0.03051757626235485,0.7324218153953552,100.0,177191.0,1.0
15:01:58.856757,177300.21875,182153.84375,195864.59375,174111.328125,170745.703125,193872.421875,688745.0625,173925.015625,0.06005859375,0.975830078125,-0.256591796875,-2.136230230331421,-0.1525878757238388,0.7934569716453552,100.0,177192.0,1.0
15:01:58.860594,177230.03125,182133.28125,195839.921875,174101.765625,170731.65625,193818.15625,688707.1875,173891.3125,0.061279296875,0.9775390625,-0.258544921875,-2.105712652206421,-0.0610351525247097,0.7324218153953552,100.0,177193.0,1.0
15:01:58.870611,177182.375,182120.59375,195824.890625,174101.140625,170720.9375,193773.1875,688483.1875,173893.546875,0.060302734375,0.979248046875,-0.251953125,-2.014159917831421,-0.0610351525247097,0.6713866591453552,100.0,177194.0,1.0
15:01:58.877344,177263.734375,182134.8125,195844.109375,174102.9375,170724.421875,193814.578125,688471.875,173900.609375,0.0634765625,0.978515625,-0.25537109375,-2.075195074081421,0.0,0.6408690810203552,100.0,177195.0,1.0
15:01:58.877353,177308.703125,182152.6875,195861.28125,174104.984375,170734.875,193864.734375,688732.125,173903.546875,0.065185546875,0.97900390625,-0.25537109375,-2.166747808456421,-0.0915527269244194,0.6408690810203552,100.0,177196.0,1.0
15:01:58.879867,177245.859375,182139.71875,195845.28125,174110.796875,170729.78125,193827.546875,688746.75,173904.984375,0.064453125,0.97705078125,-0.25732421875,-2.288818120956421,0.03051757626235485,0.6103515028953552,100.0,177197.0,1.0
15:01:58.879882,177191.3125,182126.765625,195830.4375,174113.296875,170722.28125,193778.90625,688532.375,173907.390625,0.063232421875,0.97802734375,-0.255126953125,-2.319335699081421,0.0610351525247097,0.6408690810203552,100.0,177198.0,1.0
15:01:58.889239,177255.6875,182143.84375,195848.046875,174108.296875,170728.984375,193818.328125,688454.0625,173903.90625,0.062744140625,0.977783203125,-0.254150390625,-2.319335699081421,0.1831054538488388,0.6408690810203552,100.0,177199.0,1.0
15:01:58.901185,177304.6875,182147.40625,195853.234375,174085.859375,170725.140625,193861.875,688698.9375,173884.875,0.063232421875,0.978271484375,-0.255615234375,-2.410888433456421,0.2441406100988388,0.5493163466453552,100.0,177200.0,1.0
15:01:58.901198,177267.765625,182153.9375,195859.3125,174109.71875,170741.140625,193855.078125,688761.0,173907.671875,0.064697265625,0.9755859375,-0.25341796875,-2.380370855331421,0.3051757514476776,0.5493163466453552,100.0,177201.0,1.0
15:01:58.904140,177210.359375,182141.25,195843.578125,174117.6875,170734.34375,193800.09375,688576.4375,173913.828125,0.06396484375,0.975341796875,-0.25537109375,-2.349853277206421,0.3356933295726776,0.5493163466453552,100.0,177202.0,1.0
15:01:58.904148,177241.828125,182144.375,195846.890625,174114.734375,170730.046875,193813.0625,688417.75,173909.90625,0.06298828125,0.97509765625,-0.255126953125,-2.410888433456421,0.3662109076976776,0.4577636420726776,100.0,177203.0,1.0
15:01:58.904150,177314.703125,182150.546875,195858.59375,174101.59375,170728.796875,193860.09375,688653.375,173901.3125,0.06103515625,0.974853515625,-0.253662109375,-2.410888433456421,0.3967284858226776,0.4272460639476776,100.0,177204.0,1.0
15:01:58.906897,177276.96875,182152.0625,195859.140625,174114.015625,170736.3125,193856.515625,688761.6875,173911.25,0.060546875,0.972412109375,-0.2529296875,-2.380370855331421,0.4272460639476776,0.3967284858226776,100.0,177205.0,1.0
15:01:58.916747,177207.40625,182129.890625,195838.125,174119.296875,170727.375,193790.34375,688605.3125,173927.25,0.061279296875,0.97119140625,-0.251953125,-2.288818120956421,0.4882812201976776,0.3051757514476776,100.0,177206.0,1.0
15:01:58.920509,177223.40625,182135.515625,195842.953125,174110.890625,170728.359375,193796.96875,688407.5625,173910.796875,0.059814453125,0.97265625,-0.254150390625,-2.319335699081421,0.4577636420726776,0.2746581733226776,100.0,177207.0,1.0
15:01:58.946086,177314.25,182148.390625,195861.109375,174101.140625,170731.484375,193851.40625,688607.3125,173898.015625,0.05859375,0.975341796875,-0.25390625,-2.197265386581421,0.4882812201976776,0.2136230319738388,100.0,177208.0,1.0
15:01:58.946100,177289.75,182153.140625,195863.703125,174110.359375,170739.984375,193864.015625,688761.625,173908.46875,0.058837890625,0.973876953125,-0.25439453125,-2.136230230331421,0.4577636420726776,0.3356933295726776,100.0,177209.0,1.0
15:01:58.970588,177216.796875,182127.5625,195838.578125,174110.984375,170725.40625,193795.984375,688647.875,173907.84375,0.05810546875,0.974609375,-0.25146484375,-2.044677495956421,0.3356933295726776,0.3051757514476776,100.0,177210.0,1.0
15:01:58.995663,177211.4375,182130.96875,195840.265625,174116.703125,170725.765625,193788.03125,688430.0,173912.140625,0.05810546875,0.972412109375,-0.251953125,-2.014159917831421,0.3662109076976776,0.2136230319738388,100.0,177211.0,1.0
15:01:59.004217,177306.921875,182145.8125,195859.3125,174107.578125,170729.421875,193839.703125,688570.8125,173906.140625,0.056640625,0.97265625,-0.25048828125,-1.8615721464157104,0.2746581733226776,0.3967284858226776,100.0,177212.0,1.0
15:01:59.006742,177305.046875,182158.40625,195868.703125,174116.796875,170742.921875,193869.46875,688767.9375,173912.859375,0.055908203125,0.9736328125,-0.253662109375,-1.8615721464157104,0.1831054538488388,0.2746581733226776,100.0,177213.0,1.0
15:01:59.009241,177237.546875,182141.953125,195850.203125,174117.328125,170737.734375,193815.109375,688685.1875,173910.4375,0.055419921875,0.9736328125,-0.253662109375,-1.7700194120407104,0.1525878757238388,0.2136230319738388,100.0,177214.0,1.0
15:01:59.011729,177218.046875,182148.75,195853.421875,174123.140625,170744.53125,193800.71875,688461.9375,173920.265625,0.05517578125,0.97509765625,-0.252685546875,-1.7089842557907104,0.03051757626235485,0.2441406100988388,100.0,177215.0,1.0
15:01:59.019542,177316.9375,182170.578125,195884.265625,174130.640625,170759.921875,193858.390625,688523.1875,173946.921875,0.05419921875,0.975830078125,-0.253173828125,-1.5869139432907104,-0.0610351525247097,0.3356933295726776,100.0,177216.0,1.0
15:01:59.020482,177315.6875,182165.03125,195876.484375,174119.296875,170750.4375,193878.859375,688740.1875,173918.125,0.053466796875,0.97509765625,-0.252685546875,-1.5563963651657104,-0.1220703050494194,0.2441406100988388,100.0,177217.0,1.0
15:01:59.023076,177234.859375,182137.125,195841.796875,174103.203125,170729.0625,193819.234375,688704.5,173893.359375,0.052978515625,0.975341796875,-0.252685546875,-1.5563963651657104,-0.1525878757238388,0.2746581733226776,100.0,177218.0,1.0
15:01:59.025482,177198.734375,182134.984375,195836.96875,174113.03125,170728.625,193788.5625,688493.5,173904.984375,0.0546875,0.976318359375,-0.254638671875,-1.4038084745407104,-0.1831054538488388,0.3356933295726776,100.0,177219.0,1.0
15:01:59.027942,177278.21875,182149.375,195856.1875,174111.0625,170731.65625,193830.40625,688481.5,173914.28125,0.05615234375,0.97705078125,-0.253173828125,-1.4648436307907104,-0.2136230319738388,0.3967284858226776,100.0,177220.0,1.0
15:01:59.030483,177315.0625,182161.625,195868.875,174111.609375,170739.34375,193876.359375,688727.9375,173925.546875,0.056640625,0.97607421875,-0.255126953125,-1.4038084745407104,-0.3662109076976776,0.4882812201976776,100.0,177221.0,1.0
15:01:59.033146,177248.09375,182146.515625,195848.046875,174100.34375,170730.234375,193839.25,688733.5625,173890.5,0.055908203125,0.976318359375,-0.254150390625,-1.4343260526657104,-0.5187987685203552,0.5187987685203552,100.0,177222.0,1.0
15:01:59.035449,177207.234375,182144.640625,195847.25,174121.96875,170736.125,193800.625,688528.6875,173912.046875,0.056640625,0.976318359375,-0.25341796875,-1.4953612089157104,-0.5798339247703552,0.5493163466453552,100.0,177223.0,1.0
15:01:59.037949,177271.0625,182160.828125,195864.6875,174118.125,170741.9375,193836.484375,688443.5,173913.921875,0.0556640625,0.976806640625,-0.251953125,-1.4343260526657104,-0.5187987685203552,0.5798339247703552,100.0,177224.0,1.0
15:01:59.040782,177332.578125,182171.015625,195877.640625,174116.875,170745.875,193886.46875,688687.75,173916.078125,0.057373046875,0.977783203125,-0.2548828125,-1.3732908964157104,-0.6103515028953552,0.6713866591453552,100.0,177225.0,1.0
15:01:59.042962,177279.5625,182163.328125,195868.703125,174120.09375,170747.9375,193864.921875,688757.3125,173917.6875,0.058349609375,0.9765625,-0.253662109375,-1.3732908964157104,-0.6408690810203552,0.7934569716453552,100.0,177226.0,1.0
15:01:59.045570,177207.140625,182134.8125,195842.234375,174114.828125,170730.5,193795.359375,688570.625,173908.375,0.05859375,0.97998046875,-0.252685546875,-1.2512205839157104,-0.6713866591453552,0.8544921278953552,100.0,177227.0,1.0
15:01:59.047973,177243.4375,182140.703125,195851.1875,174118.125,170731.578125,193810.015625,688411.5625,173914.46875,0.060791015625,0.980712890625,-0.253662109375,-1.2817381620407104,-0.6713866591453552,0.7934569716453552,100.0,177228.0,1.0
15:01:59.050453,177324.53125,182156.0,195869.328125,174116.25,170739.4375,193863.9375,688643.3125,173918.125,0.061279296875,0.980712890625,-0.252685546875,-1.2817381620407104,-0.7324218153953552,0.7019042372703552,100.0,177229.0,1.0
15:01:59.053628,177274.375,182146.875,195853.953125,174112.859375,170733.546875,193848.1875,688745.4375,173912.046875,0.061279296875,0.979736328125,-0.2509765625,-1.3732908964157104,-0.6408690810203552,0.6713866591453552,100.0,177230.0,1.0
