Timestamp,Fz,FC3,FCz,FC4,Cz,C3,C4
14:56:34.429515,176268.375,183955.578125,198378.171875,175356.59375,177442.109375,196552.75,687855.8125,170706.984375,0.036376953125,0.98046875,-0.230712890625,-0.6408690810203552,0.9460448622703552,0.3356933295726776,100.0,96031.0,1.0
14:56:34.435236,176331.671875,183973.015625,198397.9375,175357.578125,177453.1875,196603.359375,687937.1875,170715.484375,0.03369140625,0.979248046875,-0.234130859375,-0.4577636420726776,0.8239745497703552,0.3967284858226776,100.0,96032.0,1.0
14:56:34.441922,176307.96875,183980.34375,198402.046875,175371.53125,177465.171875,196618.296875,687964.4375,170727.734375,0.035888671875,0.978759765625,-0.233154296875,-0.3967284858226776,0.7324218153953552,0.3967284858226776,100.0,96033.0,1.0
14:56:34.441930,176271.3125,183961.578125,198383.625,175363.03125,177453.546875,196566.34375,687915.0,170719.5,0.03466796875,0.981689453125,-0.231201171875,-0.2746581733226776,0.6103515028953552,0.5798339247703552,100.0,96034.0,1.0
14:56:34.470277,176268.1875,183970.15625,198388.8125,175364.546875,177458.546875,196562.6875,687866.5625,170721.5625,0.034912109375,0.98291015625,-0.2333984375,-0.1220703050494194,0.5187987685203552,0.6103515028953552,100.0,96035.0,1.0
14:56:34.473186,176339.984375,183989.5625,198412.59375,175367.859375,177469.734375,196611.59375,687930.5,170730.140625,0.035888671875,0.982666015625,-0.235595703125,-0.1220703050494194,0.3662109076976776,0.5493163466453552,100.0,96036.0,1.0
14:56:34.473194,176329.96875,183998.859375,198416.359375,175365.8125,177479.03125,196640.28125,687977.9375,170728.265625,0.0361328125,0.983154296875,-0.234375,0.0,0.3051757514476776,0.5493163466453552,100.0,96037.0,1.0
14:56:34.481394,176289.46875,183979.90625,198397.9375,175367.140625,177467.40625,196597.546875,687917.5,170726.296875,0.03515625,0.986328125,-0.233642578125,0.0610351525247097,0.1831054538488388,0.6103515028953552,100.0,96038.0,1.0
14:56:34.484227,176264.875,183970.59375,198386.671875,175364.28125,177457.03125,196570.734375,687871.5,170718.78125,0.03466796875,0.986328125,-0.233154296875,0.0610351525247097,0.03051757626235485,0.6713866591453552,100.0,96039.0,1.0
14:56:34.486484,176322.453125,183979.546875,198398.46875,175354.71875,177456.3125,196602.734375,687900.0625,170712.0,0.03369140625,0.98681640625,-0.234619140625,0.03051757626235485,0.03051757626235485,0.7019042372703552,100.0,96040.0,1.0
14:56:34.489460,176323.796875,183983.75,198404.203125,175355.34375,177460.96875,196628.125,687966.4375,170711.359375,0.037109375,0.987060546875,-0.2353515625,-0.03051757626235485,0.03051757626235485,0.6713866591453552,100.0,96041.0,1.0
14:56:34.489475,176284.28125,183969.96875,198390.609375,175354.453125,177454.0,196589.5,687912.625,170711.8125,0.035888671875,0.98974609375,-0.233154296875,-0.1220703050494194,-0.0915527269244194,0.8544921278953552,100.0,96042.0,1.0
14:56:34.491379,176259.875,183958.796875,198381.390625,175351.953125,177445.671875,196550.25,687878.125,170708.234375,0.035888671875,0.990234375,-0.233154296875,-0.1831054538488388,-0.1831054538488388,0.9155272841453552,100.0,96043.0,1.0
14:56:34.494073,176314.40625,183972.84375,198399.8125,175354.71875,177451.484375,196584.578125,687879.5,170711.546875,0.037109375,0.990478515625,-0.23193359375,-0.3662109076976776,-0.2441406100988388,0.8850097060203552,100.0,96044.0,1.0
14:56:34.496326,176340.34375,183987.765625,198412.78125,175357.578125,177460.875,196625.4375,687965.375,170715.390625,0.0380859375,0.9892578125,-0.23046875,-0.4272460639476776,-0.2136230319738388,0.8850097060203552,100.0,96045.0,1.0
14:56:34.498822,176303.421875,183986.15625,198407.0625,175366.78125,177464.640625,196607.296875,687929.625,170723.890625,0.039794921875,0.986572265625,-0.23291015625,-0.4882812201976776,-0.2746581733226776,1.0070799589157104,100.0,96046.0,1.0
14:56:34.506325,176277.578125,183971.765625,198395.796875,175365.8125,177455.421875,196561.25,687897.875,170722.359375,0.041015625,0.98681640625,-0.234619140625,-0.6713866591453552,-0.3051757514476776,1.0070799589157104,100.0,96047.0,1.0
14:56:34.510689,176311.375,183981.421875,198406.78125,175366.515625,177458.828125,196583.875,687867.625,170730.046875,0.0419921875,0.986328125,-0.23779296875,-0.7629393935203552,-0.3356933295726776,1.0375975370407104,100.0,96048.0,1.0
14:56:34.510710,176346.0625,183985.796875,198415.546875,175363.921875,177461.140625,196620.4375,687970.25,170722.71875,0.043212890625,0.9853515625,-0.236083984375,-0.8239745497703552,-0.2441406100988388,1.0375975370407104,100.0,96049.0,1.0
14:56:34.519907,176296.4375,183973.015625,198400.796875,175361.15625,177455.328125,196602.5625,687950.4375,170713.609375,0.044189453125,0.986083984375,-0.23486328125,-0.9155272841453552,-0.2441406100988388,1.0681151151657104,100.0,96050.0,1.0
14:56:34.519982,176263.359375,183953.4375,198383.625,175359.28125,177445.328125,196552.21875,687928.5,170711.015625,0.04541015625,0.987548828125,-0.23681640625,-1.0070799589157104,-0.1831054538488388,1.0070799589157104,100.0,96051.0,1.0
14:56:34.522001,176278.828125,183959.421875,198389.359375,175355.25,177447.203125,196566.34375,687872.375,170709.671875,0.04541015625,0.984375,-0.237060546875,-1.0681151151657104,-0.0610351525247097,1.0681151151657104,100.0,96052.0,1.0
14:56:34.522009,176335.6875,183973.28125,198409.65625,175357.671875,177459.09375,196614.625,687962.5625,170716.28125,0.045166015625,0.9833984375,-0.2392578125,-1.1596678495407104,-0.03051757626235485,1.1901854276657104,100.0,96053.0,1.0
14:56:34.531412,176298.59375,183973.8125,198405.53125,175356.0625,177464.90625,196617.046875,687973.5,170717.796875,0.046875,0.981689453125,-0.236328125,-1.3122557401657104,-0.03051757626235485,1.1291502714157104,100.0,96054.0,1.0
14:56:34.535174,176269.171875,183959.421875,198392.390625,175359.546875,177457.84375,196571.890625,687921.75,170722.984375,0.046142578125,0.978759765625,-0.2392578125,-1.2817381620407104,-0.0610351525247097,1.1901854276657104,100.0,96055.0,1.0
14:56:34.544607,176267.828125,183963.53125,198392.578125,175350.96875,177457.65625,196574.84375,687873.0,170716.28125,0.0439453125,0.98095703125,-0.23779296875,-1.3122557401657104,0.0,1.0375975370407104,100.0,96056.0,1.0
14:56:34.544615,176331.9375,183976.765625,198409.65625,175352.03125,177464.28125,196620.96875,687962.25,170720.125,0.0419921875,0.9833984375,-0.235595703125,-1.2817381620407104,0.0915527269244194,0.8850097060203552,100.0,96057.0,1.0
14:56:34.546871,176304.125,183978.828125,198408.484375,175357.9375,177467.859375,196632.78125,687976.375,170721.109375,0.044677734375,0.9853515625,-0.233642578125,-1.2817381620407104,0.0,0.9765624403953552,100.0,96058.0,1.0
14:56:34.546877,176271.3125,183959.6875,198392.84375,175363.125,177458.828125,196581.546875,687924.0625,170725.84375,0.042724609375,0.985107421875,-0.233154296875,-1.4343260526657104,0.1220703050494194,0.8544921278953552,100.0,96059.0,1.0
14:56:34.549462,176260.59375,183958.890625,198389.625,175359.015625,177455.78125,196566.53125,687878.75,170721.203125,0.04248046875,0.983642578125,-0.233154296875,-1.4648436307907104,0.1220703050494194,0.7324218153953552,100.0,96060.0,1.0
14:56:34.549469,176325.765625,183970.78125,198406.078125,175357.125,177459.1875,196603.984375,687922.875,170721.46875,0.043212890625,0.98291015625,-0.2373046875,-1.5563963651657104,0.03051757626235485,0.4577636420726776,100.0,96061.0,1.0
14:56:34.555212,176307.890625,183974.625,198404.28125,175353.109375,177461.5,196623.75,687978.5625,170714.046875,0.04248046875,0.982421875,-0.2373046875,-1.5869139432907104,0.03051757626235485,0.3356933295726776,100.0,96062.0,1.0
14:56:34.565782,176271.59375,183957.90625,198389.71875,175355.96875,177454.890625,196581.8125,687925.3125,170718.34375,0.04248046875,0.98291015625,-0.238037109375,-1.5869139432907104,0.1220703050494194,0.1525878757238388,100.0,96063.0,1.0
14:56:34.565794,176255.5,183955.671875,198386.5,175355.609375,177452.390625,196558.484375,687874.3125,170720.046875,0.043701171875,0.9833984375,-0.236572265625,-1.6784666776657104,0.1831054538488388,0.1831054538488388,100.0,96064.0,1.0
14:56:34.568208,176321.5625,183972.484375,198407.140625,175354.984375,177457.390625,196597.375,687899.625,170721.375,0.043212890625,0.98388671875,-0.238037109375,-1.6784666776657104,0.1525878757238388,0.2746581733226776,100.0,96065.0,1.0
14:56:34.568224,176325.234375,183980.171875,198415.8125,175356.6875,177462.84375,196627.765625,687977.625,170721.828125,0.0439453125,0.983154296875,-0.239990234375,-1.7089842557907104,0.2441406100988388,0.2136230319738388,100.0,96066.0,1.0
14:56:34.580163,176284.46875,183965.421875,198403.65625,175360.4375,177459.09375,196591.734375,687934.3125,170725.21875,0.043701171875,0.985107421875,-0.23779296875,-1.7700194120407104,0.2441406100988388,0.2746581733226776,100.0,96067.0,1.0
14:56:34.583135,176263.453125,183956.03125,198396.6875,175369.46875,177454.984375,196557.765625,687892.375,170730.140625,0.04248046875,0.98583984375,-0.2373046875,-1.6784666776657104,0.2746581733226776,0.2441406100988388,100.0,96068.0,1.0
14:56:34.583143,176312.53125,183965.859375,198409.109375,175367.953125,177458.375,196588.25,687897.4375,170731.84375,0.045166015625,0.986572265625,-0.236572265625,-1.6784666776657104,0.2441406100988388,0.4882812201976776,100.0,96069.0,1.0
14:56:34.585078,176333.1875,183976.6875,198416.359375,175360.984375,177463.5625,196627.046875,687995.125,170732.734375,0.04541015625,0.985107421875,-0.23876953125,-1.7089842557907104,0.3051757514476776,0.4272460639476776,100.0,96070.0,1.0
14:56:34.588844,176284.734375,183963.453125,198400.625,175359.015625,177456.859375,196598.0,687948.1875,170720.046875,0.044189453125,0.984375,-0.2373046875,-1.8310545682907104,0.3662109076976776,0.3967284858226776,100.0,96071.0,1.0
14:56:34.604883,176257.1875,183948.421875,198387.921875,175357.765625,177448.546875,196552.84375,687892.25,170717.625,0.0419921875,0.9853515625,-0.238037109375,-1.8005369901657104,0.5187987685203552,0.4882812201976776,100.0,96072.0,1.0
14:56:34.604925,176289.46875,183955.84375,198397.484375,175356.15625,177451.671875,196575.375,687879.0625,170721.375,0.0419921875,0.986328125,-0.234619140625,-1.8310545682907104,0.5187987685203552,0.6408690810203552,100.0,96073.0,1.0
14:56:34.607249,176322.8125,183962.109375,198405.09375,175351.234375,177453.640625,196612.65625,687982.0625,170718.4375,0.038818359375,0.984619140625,-0.2373046875,-1.8920897245407104,0.4577636420726776,0.7019042372703552,100.0,96074.0,1.0
14:56:34.607285,176280.96875,183958.265625,198396.5,175355.171875,177453.71875,196601.84375,687956.5,170720.3125,0.03662109375,0.9853515625,-0.236083984375,-1.8310545682907104,0.3967284858226776,0.7934569716453552,100.0,96075.0,1.0
14:56:34.609015,176249.421875,183942.078125,198378.09375,175349.984375,177441.484375,196554.8125,687911.375,170718.875,0.03759765625,0.986083984375,-0.238037109375,-1.8310545682907104,0.3051757514476776,0.7629393935203552,100.0,96076.0,1.0
14:56:34.612592,176264.796875,183948.34375,198383.09375,175344.703125,177442.8125,196568.3125,687870.875,170718.078125,0.03662109375,0.983642578125,-0.239501953125,-1.8615721464157104,0.3356933295726776,0.7934569716453552,100.0,96077.0,1.0
14:56:34.638218,176312.625,183951.375,198392.84375,175339.4375,177443.890625,196606.671875,687961.8125,170715.5625,0.035400390625,0.9833984375,-0.23388671875,-1.9226073026657104,0.1831054538488388,0.8544921278953552,100.0,96078.0,1.0
14:56:34.638230,176272.21875,183950.84375,198384.609375,175335.5,177444.15625,196608.09375,687964.4375,170707.96875,0.03759765625,0.98583984375,-0.236328125,-1.8920897245407104,0.1525878757238388,0.7019042372703552,100.0,96079.0,1.0
14:56:34.666519,176243.25,183939.3125,198371.390625,175334.515625,177436.03125,196561.703125,687929.0,170709.21875,0.0390625,0.98681640625,-0.23583984375,-2.014159917831421,0.0915527269244194,0.8239745497703552,100.0,96080.0,1.0
14:56:34.676931,176248.34375,183947.984375,198377.46875,175341.75,177440.21875,196564.203125,687882.125,170715.21875,0.04150390625,0.986328125,-0.236572265625,-2.044677495956421,0.1220703050494194,0.7629393935203552,100.0,96081.0,1.0
14:56:34.676954,176313.609375,183962.734375,198396.421875,175338.984375,177447.921875,196609.984375,687962.6875,170716.1875,0.04150390625,0.98583984375,-0.236083984375,-2.075195074081421,0.1220703050494194,0.7934569716453552,100.0,96082.0,1.0
14:56:34.678815,176282.046875,183963.0,198393.28125,175340.140625,177450.859375,196616.140625,687980.75,170715.84375,0.041259765625,0.986572265625,-0.236572265625,-2.075195074081421,0.0915527269244194,0.7324218153953552,100.0,96083.0,1.0
14:56:34.683830,176251.65625,183946.015625,198380.328125,175347.296875,177444.703125,196565.71875,687917.0625,170721.734375,0.0439453125,0.988037109375,-0.234619140625,-2.136230230331421,0.0,0.7324218153953552,100.0,96084.0,1.0
14:56:34.686569,176242.984375,183950.21875,198380.234375,175343.8125,177446.03125,196553.828125,687872.8125,170720.671875,0.0458984375,0.987548828125,-0.233154296875,-2.197265386581421,0.0915527269244194,0.7934569716453552,100.0,96085.0,1.0
14:56:34.688926,176313.96875,183967.65625,198402.40625,175345.328125,177455.421875,196597.28125,687933.0,170726.203125,0.048095703125,0.98681640625,-0.23291015625,-2.258300542831421,0.1525878757238388,0.7019042372703552,100.0,96086.0,1.0
14:56:34.691406,176309.765625,183981.328125,198412.328125,175354.453125,177467.3125,196626.15625,687992.0,170731.390625,0.0478515625,0.98583984375,-0.231201171875,-2.319335699081421,0.0915527269244194,0.7629393935203552,100.0,96087.0,1.0
14:56:34.693826,176274.71875,183967.375,198399.453125,175358.46875,177459.71875,196581.8125,687935.0625,170732.5625,0.04736328125,0.98779296875,-0.234619140625,-2.441406011581421,0.2441406100988388,0.7934569716453552,100.0,96088.0,1.0
14:56:34.696507,176254.875,183958.984375,198392.578125,175359.453125,177452.109375,196552.21875,687883.8125,170727.109375,0.047119140625,0.984375,-0.232421875,-2.471923589706421,0.2441406100988388,0.7324218153953552,100.0,96089.0,1.0
14:56:34.701456,176312.0,183968.90625,198407.140625,175353.828125,177453.09375,196584.40625,687920.9375,170724.6875,0.047119140625,0.984130859375,-0.234375,-2.441406011581421,0.1831054538488388,0.7019042372703552,100.0,96090.0,1.0
14:56:34.704023,176320.5,183979.09375,198418.046875,175361.25,177463.46875,196618.734375,688002.9375,170727.90625,0.0478515625,0.981689453125,-0.23388671875,-2.502441167831421,0.1525878757238388,0.7019042372703552,100.0,96091.0,1.0
14:56:34.706317,176279.546875,183963.265625,198404.015625,175365.453125,177457.75,196584.859375,687947.375,170728.53125,0.04638671875,0.9814453125,-0.23291015625,-2.532958745956421,0.3662109076976776,0.6713866591453552,100.0,96092.0,1.0
14:56:34.708835,176253.265625,183957.1875,198393.015625,175359.375,177449.96875,196553.46875,687891.3125,170725.578125,0.045166015625,0.980712890625,-0.232421875,-2.532958745956421,0.5187987685203552,0.6103515028953552,100.0,96093.0,1.0
14:56:34.711439,176300.203125,183969.171875,198405.53125,175352.578125,177454.796875,196587.09375,687908.3125,170727.90625,0.04541015625,0.982666015625,-0.232177734375,-2.532958745956421,0.4882812201976776,0.4272460639476776,100.0,96094.0,1.0
14:56:34.714015,176321.125,183974.796875,198415.546875,175352.84375,177463.375,196624.546875,688006.125,170735.234375,0.043212890625,0.982177734375,-0.230712890625,-2.502441167831421,0.5187987685203552,0.3662109076976776,100.0,96095.0,1.0
14:56:34.716441,176276.328125,183964.4375,198403.578125,175356.78125,177461.953125,196603.453125,687960.8125,170727.546875,0.04345703125,0.98095703125,-0.23193359375,-2.563476324081421,0.4882812201976776,0.3662109076976776,100.0,96096.0,1.0
14:56:34.720800,176247.453125,183949.328125,198388.546875,175352.21875,177452.828125,196558.203125,687906.625,170724.421875,0.04345703125,0.981201171875,-0.231201171875,-2.410888433456421,0.4882812201976776,0.3356933295726776,100.0,96097.0,1.0
14:56:34.720860,176282.046875,183961.921875,198400.984375,175353.203125,177458.90625,196582.0,687893.8125,170727.8125,0.0439453125,0.97998046875,-0.23046875,-2.349853277206421,0.5493163466453552,0.3356933295726776,100.0,96098.0,1.0
14:56:34.720861,176322.8125,183973.90625,198416.09375,175352.65625,177467.859375,196625.625,687990.3125,170729.703125,0.044677734375,0.978515625,-0.2294921875,-2.319335699081421,0.5798339247703552,0.2746581733226776,100.0,96099.0,1.0
14:56:34.722562,176282.234375,183968.09375,198409.828125,175361.609375,177469.375,196613.375,687954.625,170734.875,0.042724609375,0.9814453125,-0.232666015625,-2.166747808456421,0.5798339247703552,0.3051757514476776,100.0,96100.0,1.0
14:56:34.725043,176250.21875,183947.53125,198390.609375,175355.515625,177454.625,196558.75,687903.0625,170728.984375,0.044189453125,0.981201171875,-0.23388671875,-2.105712652206421,0.4882812201976776,0.3051757514476776,100.0,96101.0,1.0
14:56:34.727566,176267.390625,183953.078125,198395.796875,175355.96875,177454.625,196567.328125,687872.3125,170731.578125,0.040283203125,0.981689453125,-0.23193359375,-2.044677495956421,0.4272460639476776,0.3051757514476776,100.0,96102.0,1.0
14:56:34.730112,176320.5,183962.828125,198408.125,175348.8125,177455.515625,196609.0,687984.3125,170726.296875,0.039794921875,0.980712890625,-0.234130859375,-1.9836424589157104,0.4882812201976776,0.3356933295726776,100.0,96103.0,1.0
14:56:34.734398,176286.515625,183965.765625,198404.203125,175350.609375,177458.828125,196610.875,687982.0625,170722.453125,0.0400390625,0.980712890625,-0.231689453125,-1.8615721464157104,0.4882812201976776,0.3356933295726776,100.0,96104.0,1.0
14:56:34.734414,176257.015625,183946.734375,198390.34375,175351.859375,177451.140625,196560.984375,687914.375,170727.90625,0.037841796875,0.97998046875,-0.230224609375,-1.8615721464157104,0.5493163466453552,0.3356933295726776,100.0,96105.0,1.0
14:56:34.737086,176261.125,183949.6875,198396.859375,175355.796875,177455.6875,196560.0,687870.75,170733.625,0.037353515625,0.982177734375,-0.23046875,-1.8615721464157104,0.3967284858226776,0.3356933295726776,100.0,96106.0,1.0
14:56:34.737610,176330.5,183965.421875,198419.390625,175359.8125,177467.9375,196609.34375,687965.625,170741.765625,0.03759765625,0.983642578125,-0.2294921875,-1.8005369901657104,0.3662109076976776,0.2441406100988388,100.0,96107.0,1.0
14:56:34.741385,176305.390625,183971.578125,198415.90625,175358.03125,177468.921875,196622.671875,687987.5625,170735.59375,0.037353515625,0.984619140625,-0.230224609375,-1.7089842557907104,0.3356933295726776,0.3662109076976776,100.0,96108.0,1.0
14:56:34.750719,176271.5,183955.3125,198396.5,175355.609375,177454.359375,196572.96875,687923.0625,170732.640625,0.037841796875,0.98486328125,-0.230712890625,-1.6784666776657104,0.1220703050494194,0.3662109076976776,100.0,96109.0,1.0
14:56:34.750727,176262.828125,183959.421875,198394.71875,175354.984375,177450.78125,196563.21875,687884.1875,170731.390625,0.037109375,0.985595703125,-0.23095703125,-1.6479490995407104,0.1220703050494194,0.3967284858226776,100.0,96110.0,1.0
14:56:34.753207,176319.421875,183965.0625,198403.75,175344.53125,177447.28125,196598.359375,687954.8125,170723.4375,0.0380859375,0.984130859375,-0.229248046875,-1.6479490995407104,0.0610351525247097,0.5187987685203552,100.0,96111.0,1.0
14:56:34.753221,176307.703125,183973.640625,198406.96875,175347.203125,177454.703125,196623.75,688013.0,170727.640625,0.039306640625,0.984375,-0.228759765625,-1.6479490995407104,0.03051757626235485,0.4882812201976776,100.0,96112.0,1.0
14:56:34.760111,176269.359375,183958.0,198390.875,175346.21875,177446.390625,196580.296875,687947.5625,170731.9375,0.039306640625,0.985107421875,-0.22802734375,-1.6174315214157104,-0.03051757626235485,0.4577636420726776,100.0,96113.0,1.0
14:56:34.768262,176244.9375,183949.234375,198378.796875,175339.4375,177436.296875,196551.140625,687894.5625,170712.265625,0.040283203125,0.985595703125,-0.2275390625,-1.7089842557907104,-0.03051757626235485,0.5493163466453552,100.0,96114.0,1.0
14:56:34.768270,176301.265625,183963.09375,198393.375,175333.890625,177440.765625,196589.40625,687924.6875,170713.6875,0.04345703125,0.986572265625,-0.228759765625,-1.7089842557907104,-0.0610351525247097,0.5493163466453552,100.0,96115.0,1.0
14:56:34.770693,176311.375,183978.640625,198405.171875,175334.15625,177454.796875,196628.84375,688011.3125,170716.015625,0.0439453125,0.98583984375,-0.2275390625,-1.7089842557907104,-0.03051757626235485,0.6103515028953552,100.0,96116.0,1.0
14:56:34.770703,176275.796875,183976.140625,198398.75,175344.703125,177458.90625,196604.609375,687963.5625,170726.484375,0.044921875,0.98388671875,-0.22802734375,-1.7089842557907104,-0.0610351525247097,0.7324218153953552,100.0,96117.0,1.0
14:56:34.783896,176248.609375,183966.75,198384.96875,175336.21875,177450.421875,196571.4375,687898.75,170718.78125,0.044189453125,0.985107421875,-0.2314453125,-1.6479490995407104,0.0,0.7629393935203552,100.0,96118.0,1.0
14:56:34.786938,176299.921875,183982.046875,198403.578125,175339.15625,177459.8125,196607.03125,687916.5625,170722.546875,0.044189453125,0.98388671875,-0.23046875,-1.6479490995407104,0.0,0.8239745497703552,100.0,96119.0,1.0
14:56:34.786949,176326.84375,183992.140625,198415.90625,175343.546875,177469.46875,196648.15625,688009.5,170728.4375,0.0458984375,0.98291015625,-0.231201171875,-1.5563963651657104,0.0915527269244194,0.8544921278953552,100.0,96120.0,1.0
14:56:34.789051,176279.71875,183977.9375,198399.28125,175337.90625,177460.96875,196617.9375,687966.25,170723.34375,0.0439453125,0.98193359375,-0.232666015625,-1.5563963651657104,0.0610351525247097,0.7629393935203552,100.0,96121.0,1.0
14:56:34.795069,176256.484375,183968.09375,198392.578125,175343.984375,177456.5,196578.328125,687912.3125,170726.921875,0.044189453125,0.983154296875,-0.23291015625,-1.5869139432907104,0.0915527269244194,0.7019042372703552,100.0,96122.0,1.0
14:56:34.802036,176295.28125,183983.390625,198408.671875,175351.140625,177465.265625,196603.09375,687892.25,170733.1875,0.043212890625,0.982177734375,-0.234619140625,-1.5563963651657104,0.1525878757238388,0.7324218153953552,100.0,96123.0,1.0
14:56:34.802049,176341.859375,183997.875,198425.296875,175355.34375,177473.9375,196646.453125,687998.4375,170736.046875,0.044921875,0.983154296875,-0.232421875,-1.4953612089157104,0.2441406100988388,0.7324218153953552,100.0,96124.0,1.0
14:56:34.807816,176300.90625,183993.9375,198417.703125,175358.203125,177471.875,196635.09375,687978.4375,170733.890625,0.045654296875,0.98095703125,-0.23095703125,-1.5258787870407104,0.1525878757238388,0.6103515028953552,100.0,96125.0,1.0
14:56:34.812012,176262.921875,183969.53125,198394.8125,175349.625,177453.09375,196580.109375,687911.0625,170726.828125,0.044189453125,0.98291015625,-0.230224609375,-1.4343260526657104,0.1831054538488388,0.5798339247703552,100.0,96126.0,1.0
14:56:34.812021,176275.609375,183973.109375,198398.65625,175348.8125,177452.921875,196588.078125,687877.9375,170727.1875,0.044189453125,0.984619140625,-0.231201171875,-1.3732908964157104,0.2441406100988388,0.4272460639476776,100.0,96127.0,1.0
14:56:34.818888,176323.796875,183977.75,198408.21875,175339.078125,177454.359375,196628.578125,687983.3125,170722.453125,0.046142578125,0.98388671875,-0.23095703125,-1.3427733182907104,0.3356933295726776,0.4577636420726776,100.0,96128.0,1.0
14:56:34.826930,176281.59375,183975.515625,198399.640625,175334.421875,177455.15625,196630.625,687975.625,170721.203125,0.04833984375,0.983154296875,-0.233154296875,-1.3732908964157104,0.3967284858226776,0.4882812201976776,100.0,96129.0,1.0
14:56:34.826943,176244.234375,183952.265625,198379.25,175330.3125,177441.03125,196575.828125,687918.25,170723.265625,0.04638671875,0.98291015625,-0.234375,-1.3427733182907104,0.5798339247703552,0.4272460639476776,100.0,96130.0,1.0
14:56:34.828875,176242.796875,183952.0,198378.53125,175328.515625,177437.453125,196570.28125,687878.8125,170711.546875,0.046630859375,0.983154296875,-0.234619140625,-1.1901854276657104,0.5187987685203552,0.3662109076976776,100.0,96131.0,1.0
14:56:34.838876,176307.078125,183965.6875,198396.59375,175328.078125,177443.625,196613.828125,687959.875,170717.09375,0.04638671875,0.982666015625,-0.23095703125,-1.1596678495407104,0.6408690810203552,0.3967284858226776,100.0,96132.0,1.0
14:56:34.843204,176282.9375,183971.234375,198397.484375,175335.046875,177450.6875,196628.125,687987.6875,170722.1875,0.046630859375,0.981201171875,-0.231201171875,-1.1596678495407104,0.6713866591453552,0.2746581733226776,100.0,96133.0,1.0
14:56:34.843232,176246.203125,183953.4375,198378.265625,175335.40625,177438.796875,196577.96875,687918.25,170719.859375,0.048095703125,0.98193359375,-0.231689453125,-1.1596678495407104,0.7629393935203552,0.3662109076976776,100.0,96134.0,1.0
14:56:34.858786,176232.0625,183951.296875,198371.46875,175329.234375,177431.90625,196561.703125,687876.5625,170715.296875,0.04736328125,0.981689453125,-0.2314453125,-1.1596678495407104,0.8850097060203552,0.3356933295726776,100.0,96135.0,1.0
14:56:34.858797,176293.484375,183963.1875,198384.96875,175323.15625,177433.4375,196602.203125,687941.5625,170714.234375,0.0458984375,0.9833984375,-0.23095703125,-1.1291502714157104,0.9155272841453552,0.3051757514476776,100.0,96136.0,1.0
14:56:34.858799,176274.1875,183961.921875,198381.84375,175316.359375,177435.125,196621.15625,687992.375,170707.515625,0.044921875,0.9833984375,-0.231689453125,-1.1291502714157104,1.0375975370407104,0.2746581733226776,100.0,96137.0,1.0
14:56:34.861934,176240.203125,183948.96875,198370.125,175323.34375,177432.265625,196583.15625,687930.6875,170714.671875,0.04345703125,0.98388671875,-0.23291015625,-1.0375975370407104,1.1291502714157104,0.3051757514476776,100.0,96138.0,1.0
14:56:34.861953,176222.59375,183945.203125,198364.046875,175326.5625,177429.59375,196561.703125,687883.3125,170714.9375,0.04345703125,0.984375,-0.23193359375,-1.1291502714157104,1.0986326932907104,0.3051757514476776,100.0,96139.0,1.0
14:56:34.863944,176278.375,183958.265625,198378.71875,175316.71875,177433.34375,196603.546875,687908.875,170706.890625,0.04345703125,0.984130859375,-0.234130859375,-1.1901854276657104,1.0986326932907104,0.3051757514476776,100.0,96140.0,1.0
14:56:34.876413,176289.734375,183973.734375,198392.390625,175318.6875,177448.359375,196646.546875,687988.0,170709.9375,0.043701171875,0.98486328125,-0.2294921875,-1.1596678495407104,1.0986326932907104,0.2136230319738388,100.0,96141.0,1.0
14:56:34.879552,176255.140625,183965.953125,198385.6875,175325.125,177450.421875,196620.96875,687942.125,170714.40625,0.04248046875,0.985107421875,-0.230224609375,-1.0986326932907104,1.0986326932907104,0.2746581733226776,100.0,96142.0,1.0
14:56:34.879565,176231.796875,183956.5625,198376.484375,175325.84375,177443.625,196585.75,687902.9375,170712.265625,0.039306640625,0.98486328125,-0.232666015625,-1.1291502714157104,1.0375975370407104,0.3051757514476776,100.0,96143.0,1.0
14:56:34.881391,176283.203125,183971.671875,198394.1875,175330.484375,177450.78125,196617.84375,687900.0,170717.796875,0.039794921875,0.985595703125,-0.232177734375,-1.1596678495407104,0.9460448622703552,0.2441406100988388,100.0,96144.0,1.0
14:56:34.897632,176309.046875,183981.953125,198406.15625,175333.171875,177457.921875,196655.21875,687992.0,170719.328125,0.03955078125,0.986328125,-0.2353515625,-1.1596678495407104,0.8850097060203552,0.1831054538488388,100.0,96145.0,1.0
14:56:34.900689,176266.40625,183971.765625,198394.890625,175335.40625,177455.25,196629.5625,687952.6875,170721.65625,0.0390625,0.984619140625,-0.2353515625,-1.2817381620407104,0.8544921278953552,0.2441406100988388,100.0,96146.0,1.0
14:56:34.900700,176237.171875,183958.078125,198380.765625,175335.234375,177446.578125,196584.765625,687919.5,170723.609375,0.0380859375,0.9833984375,-0.233642578125,-1.3732908964157104,0.7629393935203552,0.2441406100988388,100.0,96147.0,1.0
14:56:34.902642,176261.65625,183955.84375,198380.859375,175322.265625,177440.578125,196596.46875,687881.3125,170714.671875,0.03759765625,0.984375,-0.231689453125,-1.3732908964157104,0.6713866591453552,0.2746581733226776,100.0,96148.0,1.0
14:56:34.905099,176303.6875,183966.578125,198393.375,175326.375,177446.390625,196638.5,687984.75,170724.328125,0.036865234375,0.985107421875,-0.23193359375,-1.2512205839157104,0.6103515028953552,0.2136230319738388,100.0,96149.0,1.0
14:56:34.907689,176254.328125,183955.84375,198378.625,175319.046875,177441.03125,196623.5625,687962.25,170708.953125,0.037109375,0.984619140625,-0.230712890625,-1.2817381620407104,0.4272460639476776,0.1831054538488388,100.0,96150.0,1.0
14:56:34.917000,176220.625,183933.859375,198360.203125,175317.890625,177427.625,196570.453125,687904.375,170709.484375,0.0380859375,0.984375,-0.23095703125,-1.3122557401657104,0.4882812201976776,0.3051757514476776,100.0,96151.0,1.0
14:56:34.917029,176234.21875,183941.359375,198366.109375,175311.71875,177428.515625,196579.84375,687853.9375,170708.859375,0.037109375,0.985595703125,-0.232177734375,-1.4953612089157104,0.4272460639476776,0.2441406100988388,100.0,96152.0,1.0
14:56:34.926989,176294.296875,183953.875,198383.90625,175313.5,177436.109375,196623.125,687956.625,170711.28125,0.037841796875,0.986328125,-0.2333984375,-1.5869139432907104,0.3662109076976776,0.3356933295726776,100.0,96153.0,1.0
14:56:34.927002,176261.75,183954.859375,198382.375,175322.703125,177442.28125,196626.609375,687970.25,170716.46875,0.038330078125,0.986572265625,-0.232177734375,-1.5563963651657104,0.1831054538488388,0.4577636420726776,100.0,96154.0,1.0
14:56:34.929588,176223.9375,183932.6875,198361.1875,175311.09375,177426.71875,196571.4375,687926.75,170704.125,0.038330078125,0.98486328125,-0.233642578125,-1.5869139432907104,0.2136230319738388,0.5493163466453552,100.0,96155.0,1.0
14:56:34.929601,176225.0,183940.46875,198362.265625,175309.125,177427.0,196573.234375,687877.5,170701.4375,0.0380859375,0.983642578125,-0.234375,-1.6174315214157104,0.1220703050494194,0.5493163466453552,100.0,96156.0,1.0
14:56:34.937626,176293.3125,183954.78125,198382.296875,175310.90625,177434.953125,196620.4375,687953.4375,170705.28125,0.0390625,0.985595703125,-0.232421875,-1.6479490995407104,0.0,0.5493163466453552,100.0,96157.0,1.0
14:56:34.955677,176276.328125,183963.625,198388.640625,175321.546875,177445.953125,196637.6875,687986.8125,170714.40625,0.041748046875,0.984375,-0.2314453125,-1.5869139432907104,-0.0915527269244194,0.6103515028953552,100.0,96158.0,1.0
14:56:34.955692,176241.546875,183945.296875,198372.28125,175321.546875,177437.0,196586.109375,687924.875,170716.1875,0.040283203125,0.984619140625,-0.232177734375,-1.6479490995407104,-0.3051757514476776,0.7019042372703552,100.0,96159.0,1.0
14:56:34.958871,176233.859375,183949.328125,198375.765625,175327.453125,177440.21875,196577.515625,687880.9375,170718.25,0.039306640625,0.984375,-0.233154296875,-1.5869139432907104,-0.3051757514476776,0.6103515028953552,100.0,96160.0,1.0
14:56:34.967607,176302.875,183968.453125,198396.78125,175328.4375,177447.921875,196624.8125,687940.5625,170722.984375,0.039794921875,0.98388671875,-0.23046875,-1.6479490995407104,-0.3356933295726776,0.5798339247703552,100.0,96161.0,1.0
14:56:34.967664,176295.1875,183979.1875,198401.515625,175332.28125,177454.0,196652.265625,688002.3125,170725.21875,0.04052734375,0.98388671875,-0.234375,-1.6479490995407104,-0.2746581733226776,0.6103515028953552,100.0,96162.0,1.0
14:56:34.967686,176256.75,183963.53125,198384.171875,175334.609375,177443.265625,196610.6875,687945.875,170726.921875,0.040771484375,0.98486328125,-0.234375,-1.6174315214157104,-0.3356933295726776,0.7934569716453552,100.0,96163.0,1.0
14:56:34.971010,176239.40625,183962.28125,198379.875,175332.90625,177441.390625,196589.6875,687904.375,170722.0,0.041259765625,0.986083984375,-0.2333984375,-1.6784666776657104,-0.3967284858226776,0.7629393935203552,100.0,96164.0,1.0
14:56:34.971063,176299.484375,183976.859375,198397.765625,175332.09375,177446.84375,196628.484375,687930.0625,170722.90625,0.0439453125,0.98486328125,-0.231201171875,-1.6174315214157104,-0.3967284858226776,0.7324218153953552,100.0,96165.0,1.0
14:56:34.973207,176304.578125,183985.890625,198400.890625,175327.1875,177449.4375,196658.078125,688001.375,170716.828125,0.044189453125,0.98486328125,-0.23193359375,-1.6174315214157104,-0.3967284858226776,0.7019042372703552,100.0,96166.0,1.0
14:56:34.973258,176260.859375,183971.671875,198385.59375,175326.90625,177442.109375,196620.4375,687947.125,170714.9375,0.043212890625,0.983642578125,-0.23388671875,-1.5563963651657104,-0.3356933295726776,0.7019042372703552,100.0,96167.0,1.0
14:56:34.975141,176232.25,183957.1875,198372.09375,175324.953125,177433.15625,196579.75,687902.5,170715.5625,0.04345703125,0.98486328125,-0.2333984375,-1.6174315214157104,-0.3967284858226776,0.5493163466453552,100.0,96168.0,1.0
14:56:34.985135,176273.640625,183961.921875,198380.859375,175320.03125,177432.453125,196602.640625,687899.3125,170717.453125,0.045654296875,0.98388671875,-0.233154296875,-1.6174315214157104,-0.2441406100988388,0.6103515028953552,100.0,96169.0,1.0
14:56:34.989502,176301.53125,183971.3125,198391.671875,175321.015625,177437.1875,196641.1875,687995.9375,170705.90625,0.045654296875,0.982666015625,-0.2353515625,-1.5869139432907104,-0.2746581733226776,0.6713866591453552,100.0,96170.0,1.0
14:56:34.989530,176264.53125,183964.15625,198386.9375,175330.046875,177440.140625,196622.3125,687961.3125,170718.4375,0.044677734375,0.9833984375,-0.235107421875,-1.5869139432907104,-0.1831054538488388,0.4272460639476776,100.0,96171.0,1.0
14:56:35.023391,176234.9375,183947.53125,198370.3125,175326.28125,177431.109375,196574.578125,687923.5,170716.90625,0.045166015625,0.983642578125,-0.233154296875,-1.5563963651657104,-0.1220703050494194,0.2746581733226776,100.0,96172.0,1.0
14:56:35.023486,176259.25,183952.546875,198373.890625,175317.078125,177428.25,196589.859375,687891.625,170707.4375,0.044921875,0.983642578125,-0.232177734375,-1.5258787870407104,-0.1525878757238388,0.3356933295726776,100.0,96173.0,1.0
14:56:35.045836,176310.84375,183973.546875,198395.25,175322.703125,177443.0,196640.28125,687999.625,170714.5,0.044921875,0.9853515625,-0.23193359375,-1.4648436307907104,-0.1220703050494194,0.4272460639476776,100.0,96174.0,1.0
14:56:35.045912,176274.1875,183973.28125,198391.859375,175329.234375,177449.4375,196635.453125,687972.4375,170719.765625,0.046142578125,0.9853515625,-0.233154296875,-1.4953612089157104,-0.1220703050494194,0.3356933295726776,100.0,96175.0,1.0
14:56:35.049112,176249.234375,183958.625,198380.5,175331.734375,177443.0,196586.828125,687917.8125,170721.828125,0.044921875,0.985595703125,-0.23388671875,-1.5869139432907104,-0.0915527269244194,0.3356933295726776,100.0,96176.0,1.0
14:56:35.049163,176271.046875,183973.109375,198394.890625,175335.859375,177451.3125,196602.46875,687886.5,170726.921875,0.045654296875,0.98291015625,-0.2353515625,-1.6174315214157104,-0.0610351525247097,0.4272460639476776,100.0,96177.0,1.0
14:56:35.049179,176332.828125,183994.5625,198416.796875,175335.140625,177461.59375,196652.265625,687991.1875,170728.796875,0.04541015625,0.9833984375,-0.234619140625,-1.5258787870407104,0.1525878757238388,0.3967284858226776,100.0,96178.0,1.0
14:56:35.051994,176298.953125,183995.28125,198414.75,175340.5,177467.671875,196657.265625,687990.9375,170729.703125,0.04443359375,0.98388671875,-0.233642578125,-1.4953612089157104,0.0915527269244194,0.3051757514476776,100.0,96179.0,1.0
14:56:35.052039,176266.40625,183977.125,198398.46875,175341.3125,177459.625,196608.375,687936.5625,170730.765625,0.044189453125,0.984130859375,-0.23388671875,-1.4648436307907104,0.2746581733226776,0.3051757514476776,100.0,96180.0,1.0
14:56:35.053964,176266.84375,183984.453125,198403.84375,175344.34375,177465.703125,196611.671875,687891.4375,170734.171875,0.042724609375,0.9853515625,-0.234619140625,-1.4953612089157104,0.3051757514476776,0.2441406100988388,100.0,96181.0,1.0
14:56:35.056864,176330.0625,183996.0,198422.4375,175347.5625,177474.015625,196656.296875,687980.125,170738.015625,0.042724609375,0.984619140625,-0.233154296875,-1.5563963651657104,0.2746581733226776,0.3662109076976776,100.0,96182.0,1.0
14:56:35.058941,176297.515625,183995.09375,198413.671875,175341.3125,177472.5,196666.65625,688001.375,170730.953125,0.041015625,0.984375,-0.233642578125,-1.5869139432907104,0.3051757514476776,0.2746581733226776,100.0,96183.0,1.0
14:56:35.061958,176265.953125,183982.9375,198398.46875,175343.09375,177464.8125,196622.21875,687936.6875,170735.234375,0.04150390625,0.98486328125,-0.23388671875,-1.5258787870407104,0.2746581733226776,0.3356933295726776,100.0,96184.0,1.0
14:56:35.063919,176247.625,183976.59375,198390.34375,175338.359375,177456.234375,196601.21875,687880.875,170728.4375,0.0419921875,0.98388671875,-0.232421875,-1.5563963651657104,0.3051757514476776,0.4272460639476776,100.0,96185.0,1.0
14:56:35.066416,176307.96875,183983.296875,198403.75,175338.171875,177456.046875,196638.234375,687943.75,170728.09375,0.041748046875,0.9833984375,-0.232666015625,-1.5258787870407104,0.3662109076976776,0.5187987685203552,100.0,96186.0,1.0
14:56:35.068900,176298.046875,183990.53125,198405.359375,175335.234375,177461.421875,196665.3125,688003.0,170724.875,0.039794921875,0.984130859375,-0.230712890625,-1.5869139432907104,0.2746581733226776,0.3967284858226776,100.0,96187.0,1.0
14:56:35.071429,176256.296875,183972.03125,198384.96875,175326.46875,177450.15625,196621.953125,687938.8125,170720.046875,0.040771484375,0.98388671875,-0.232421875,-1.4953612089157104,0.3356933295726776,0.3051757514476776,100.0,96188.0,1.0
14:56:35.074630,176236.09375,183966.578125,198378.09375,175327.453125,177444.609375,196596.75,687890.4375,170719.328125,0.03955078125,0.98486328125,-0.2333984375,-1.5869139432907104,0.3051757514476776,0.2746581733226776,100.0,96189.0,1.0
14:56:35.074676,176292.59375,183977.03125,198394.453125,175329.6875,177449.53125,196630.453125,687924.6875,170728.359375,0.037841796875,0.985595703125,-0.232177734375,-1.5563963651657104,0.2746581733226776,0.3356933295726776,100.0,96190.0,1.0
14:56:35.076385,176296.890625,183979.359375,198397.21875,175320.46875,177452.46875,196659.515625,688001.6875,170716.1875,0.038818359375,0.98583984375,-0.2333984375,-1.6174315214157104,0.2441406100988388,0.2746581733226776,100.0,96191.0,1.0
14:56:35.079446,176252.90625,183963.0,198380.59375,175320.203125,177446.3125,196625.53125,687946.9375,170711.1875,0.038330078125,0.985595703125,-0.2314453125,-1.5869139432907104,0.2136230319738388,0.3356933295726776,100.0,96192.0,1.0
14:56:35.079460,176230.90625,183954.515625,198372.90625,175327.359375,177441.75,196589.59375,687909.3125,170718.96875,0.03857421875,0.98388671875,-0.23193359375,-1.6479490995407104,0.1220703050494194,0.4272460639476776,100.0,96193.0,1.0
14:56:35.112676,176285.4375,183977.125,198393.734375,175336.84375,177450.421875,196624.453125,687895.0625,170728.4375,0.0390625,0.98486328125,-0.23046875,-1.5869139432907104,0.1220703050494194,0.3967284858226776,100.0,96194.0,1.0
14:56:35.115732,176316.015625,183990.53125,198406.515625,175338.984375,177457.84375,196664.0625,687983.0625,170731.125,0.038818359375,0.984619140625,-0.231689453125,-1.5563963651657104,0.0915527269244194,0.4577636420726776,100.0,96195.0,1.0
14:56:35.115747,176273.203125,183979.28125,198395.171875,175337.828125,177454.171875,196638.765625,687953.0,170727.453125,0.040771484375,0.983154296875,-0.232421875,-1.6174315214157104,0.1525878757238388,0.5187987685203552,100.0,96196.0,1.0
14:56:35.117707,176248.515625,183966.40625,198383.625,175335.671875,177447.28125,196594.15625,687905.1875,170724.15625,0.04150390625,0.98291015625,-0.230712890625,-1.5869139432907104,0.1525878757238388,0.4882812201976776,100.0,96197.0,1.0
14:56:35.120082,176285.4375,183981.234375,198401.609375,175345.515625,177458.203125,196619.0,687878.8125,170733.453125,0.041015625,0.98388671875,-0.229736328125,-1.7089842557907104,0.0610351525247097,0.3662109076976776,100.0,96198.0,1.0
14:56:35.122572,176330.859375,183991.96875,198416.625,175346.671875,177467.5,196659.953125,687980.125,170736.765625,0.041015625,0.984619140625,-0.23046875,-1.6784666776657104,0.1525878757238388,0.5798339247703552,100.0,96199.0,1.0
14:56:35.125137,176288.9375,183987.5,198409.46875,175344.609375,177469.015625,196651.8125,687964.4375,170736.21875,0.04052734375,0.985107421875,-0.232177734375,-1.6479490995407104,0.2136230319738388,0.4577636420726776,100.0,96200.0,1.0
14:56:35.127662,176258.796875,183969.34375,198394.0,175347.203125,177458.640625,196600.671875,687918.3125,170739.53125,0.04296875,0.984130859375,-0.23046875,-1.6479490995407104,0.1220703050494194,0.4882812201976776,100.0,96201.0,1.0
14:56:35.130158,176269.625,183975.875,198396.6875,175340.6875,177456.3125,196609.796875,687877.1875,170735.0625,0.042724609375,0.984375,-0.233154296875,-1.6479490995407104,0.0915527269244194,0.5493163466453552,100.0,96202.0,1.0
14:56:35.132643,176320.671875,183980.796875,198405.359375,175332.015625,177455.875,196650.203125,687985.125,170728.71875,0.041748046875,0.982666015625,-0.232666015625,-1.6784666776657104,0.03051757626235485,0.6713866591453552,100.0,96203.0,1.0
14:56:35.135127,176284.28125,183981.59375,198399.375,175338.796875,177457.921875,196654.59375,687985.0,170729.421875,0.0419921875,0.982177734375,-0.230224609375,-1.6479490995407104,0.03051757626235485,0.5798339247703552,100.0,96204.0,1.0
14:56:35.138210,176250.390625,183966.84375,198380.953125,175336.75,177445.953125,196606.21875,687926.4375,170731.9375,0.04150390625,0.982421875,-0.23095703125,-1.6479490995407104,0.03051757626235485,0.6713866591453552,100.0,96205.0,1.0
14:56:35.138225,176244.671875,183969.53125,198378.265625,175328.078125,177444.34375,196603.265625,687877.0,170725.3125,0.040771484375,0.983154296875,-0.23095703125,-1.5563963651657104,0.0,0.6408690810203552,100.0,96206.0,1.0
14:56:35.140090,176308.0625,183978.46875,198392.84375,175324.140625,177448.09375,196646.90625,687951.75,170716.28125,0.040771484375,0.984619140625,-0.232666015625,-1.6174315214157104,0.1220703050494194,0.6713866591453552,100.0,96207.0,1.0
14:56:35.143196,176288.21875,183982.84375,198396.0625,175330.484375,177456.671875,196661.203125,687986.4375,170723.34375,0.0400390625,0.98291015625,-0.232666015625,-1.6174315214157104,0.0915527269244194,0.6408690810203552,100.0,96208.0,1.0
14:56:35.143209,176254.515625,183965.765625,198382.015625,175333.890625,177448.890625,196614.0,687936.5625,170727.90625,0.041259765625,0.98291015625,-0.231689453125,-1.4953612089157104,0.1525878757238388,0.4577636420726776,100.0,96209.0,1.0
14:56:35.145115,176239.84375,183963.984375,198378.53125,175328.703125,177446.578125,196599.515625,687896.9375,170723.703125,0.040283203125,0.986083984375,-0.23046875,-1.5258787870407104,-0.03051757626235485,0.5187987685203552,100.0,96210.0,1.0
14:56:35.156356,176304.40625,183976.765625,198395.96875,175323.609375,177452.390625,196641.625,687949.625,170722.984375,0.041748046875,0.984130859375,-0.2275390625,-1.4953612089157104,0.03051757626235485,0.4882812201976776,100.0,96211.0,1.0
14:56:35.159576,176294.921875,183984.453125,198398.296875,175326.109375,177458.734375,196666.84375,688002.8125,170725.671875,0.043701171875,0.9833984375,-0.232421875,-1.4648436307907104,0.0,0.5798339247703552,100.0,96212.0,1.0
14:56:35.159591,176255.40625,183969.53125,198379.96875,175322.890625,177449.609375,196625.4375,687946.125,170725.140625,0.04248046875,0.982666015625,-0.234375,-1.4343260526657104,0.0915527269244194,0.5493163466453552,100.0,96213.0,1.0
14:56:35.167005,176232.96875,183961.296875,198371.65625,175326.109375,177443.984375,196597.8125,687901.8125,170724.875,0.04248046875,0.98388671875,-0.23193359375,-1.4343260526657104,0.0915527269244194,0.4882812201976776,100.0,96214.0,1.0
14:56:35.167020,176285.625,183967.46875,198383.625,175323.421875,177443.890625,196626.0625,687925.9375,170722.0,0.043701171875,0.984619140625,-0.22998046875,-1.4648436307907104,0.0915527269244194,0.5493163466453552,100.0,96215.0,1.0
14:56:35.170109,176302.171875,183984.8125,198397.671875,175328.4375,177455.875,196661.75,688005.6875,170726.5625,0.042236328125,0.9833984375,-0.2314453125,-1.4648436307907104,0.0915527269244194,0.3967284858226776,100.0,96216.0,1.0
14:56:35.180723,176263.984375,183975.15625,198386.84375,175330.3125,177450.78125,196628.125,687952.8125,170728.53125,0.042236328125,0.98388671875,-0.232421875,-1.3427733182907104,0.0610351525247097,0.4272460639476776,100.0,96217.0,1.0
14:56:35.180740,176238.859375,183964.34375,198373.0,175330.3125,177438.34375,196586.1875,687913.0625,170725.21875,0.041748046875,0.983642578125,-0.233154296875,-1.3427733182907104,0.0610351525247097,0.4577636420726776,100.0,96218.0,1.0
14:56:35.183216,176287.234375,183977.671875,198388.734375,175333.890625,177443.71875,196617.3125,687904.3125,170729.25,0.041748046875,0.984130859375,-0.22998046875,-1.3427733182907104,0.1831054538488388,0.3967284858226776,100.0,96219.0,1.0
14:56:35.183220,176323.265625,183991.34375,198406.78125,175339.078125,177454.890625,196662.09375,688004.0,170735.859375,0.04248046875,0.984130859375,-0.2314453125,-1.3122557401657104,0.1525878757238388,0.4272460639476776,100.0,96220.0,1.0
14:56:35.192675,176281.78125,183990.359375,198397.84375,175342.109375,177454.53125,196645.828125,687965.875,170744.0,0.0400390625,0.984375,-0.23388671875,-1.3122557401657104,0.1525878757238388,0.3967284858226776,100.0,96221.0,1.0
14:56:35.195735,176249.0625,183972.390625,198380.5,175338.625,177441.828125,196597.8125,687923.4375,170731.390625,0.04052734375,0.985107421875,-0.2353515625,-1.3427733182907104,0.0610351525247097,0.3967284858226776,100.0,96222.0,1.0
14:56:35.195741,176273.734375,183974.359375,198384.796875,175327.890625,177441.75,196613.640625,687891.9375,170728.265625,0.03857421875,0.98486328125,-0.232666015625,-1.3122557401657104,0.1220703050494194,0.3967284858226776,100.0,96223.0,1.0
14:56:35.198856,176320.046875,183982.84375,198396.5,175329.859375,177447.828125,196654.953125,687991.5625,170728.53125,0.039794921875,0.985107421875,-0.229248046875,-1.3732908964157104,0.1525878757238388,0.4272460639476776,100.0,96224.0,1.0
14:56:35.207660,176275.4375,183975.25,198385.953125,175330.9375,177446.75,196643.765625,687973.75,170728.09375,0.0390625,0.98486328125,-0.227783203125,-1.4343260526657104,0.0610351525247097,0.3967284858226776,100.0,96225.0,1.0
14:56:35.214643,176239.125,183951.640625,198366.28125,175326.5625,177434.328125,196590.484375,687922.875,170725.84375,0.0400390625,0.98486328125,-0.23046875,-1.3732908964157104,0.03051757626235485,0.4882812201976776,100.0,96226.0,1.0
14:56:35.214726,176247.625,183955.84375,198370.046875,175323.15625,177434.59375,196598.265625,687877.75,170722.09375,0.040771484375,0.985107421875,-0.22998046875,-1.2817381620407104,0.0915527269244194,0.4577636420726776,100.0,96227.0,1.0
14:56:35.216397,176305.828125,183968.453125,198387.921875,175320.75,177442.28125,196645.375,687985.8125,170723.96875,0.0400390625,0.986572265625,-0.232177734375,-1.2512205839157104,0.0,0.5187987685203552,100.0,96228.0,1.0
14:56:35.232695,176276.6875,183972.5625,198388.1875,175328.34375,177451.3125,196654.140625,687995.75,170730.59375,0.0400390625,0.985595703125,-0.2333984375,-1.2512205839157104,-0.0915527269244194,0.4577636420726776,100.0,96229.0,1.0
14:56:35.236265,176241.71875,183954.0625,198370.671875,175328.796875,177439.15625,196599.96875,687946.125,170731.484375,0.038818359375,0.985595703125,-0.23193359375,-1.3427733182907104,-0.0610351525247097,0.5493163466453552,100.0,96230.0,1.0
14:56:35.236308,176239.21875,183961.21875,198372.28125,175327.09375,177438.703125,196596.203125,687895.6875,170729.421875,0.03955078125,0.9853515625,-0.232177734375,-1.3122557401657104,-0.1220703050494194,0.5187987685203552,100.0,96231.0,1.0
14:56:35.236327,176297.515625,183967.203125,198381.21875,175312.15625,177435.390625,196631.4375,687972.4375,170717.09375,0.039306640625,0.9853515625,-0.228759765625,-1.3427733182907104,-0.1525878757238388,0.4882812201976776,100.0,96232.0,1.0
14:56:35.239651,176284.28125,183980.34375,198389.53125,175323.875,177447.203125,196654.765625,688015.6875,170725.671875,0.039794921875,0.984130859375,-0.22900390625,-1.3122557401657104,-0.1525878757238388,0.5187987685203552,100.0,96233.0,1.0
14:56:35.239697,176258.171875,183968.90625,198378.0,175330.046875,177440.140625,196612.125,687956.0625,170730.046875,0.039306640625,0.984375,-0.22900390625,-1.3122557401657104,-0.2136230319738388,0.5798339247703552,100.0,96234.0,1.0
14:56:35.246359,176246.109375,183965.234375,198373.0,175333.265625,177435.125,196593.96875,687906.4375,170728.796875,0.0400390625,0.98486328125,-0.229248046875,-1.4343260526657104,-0.1831054538488388,0.4577636420726776,100.0,96235.0,1.0
14:56:35.256949,176309.40625,183975.078125,198387.203125,175328.609375,177438.171875,196634.109375,687953.75,170728.796875,0.0400390625,0.985107421875,-0.229248046875,-1.3122557401657104,-0.1831054538488388,0.6103515028953552,100.0,96236.0,1.0
14:56:35.256959,176301.53125,183980.53125,198390.34375,175326.375,177443.984375,196660.140625,688004.3125,170726.75,0.0380859375,0.9873046875,-0.228515625,-1.3122557401657104,-0.2746581733226776,0.5798339247703552,100.0,96237.0,1.0
14:56:35.259698,176263.453125,183967.46875,198375.59375,175328.796875,177438.796875,196621.6875,687948.625,170731.84375,0.041015625,0.988037109375,-0.2333984375,-1.3732908964157104,-0.2441406100988388,0.5798339247703552,100.0,96238.0,1.0
14:56:35.259719,176234.484375,183958.0,198362.890625,175322.4375,177430.03125,196594.421875,687909.1875,170723.078125,0.040771484375,0.988037109375,-0.23046875,-1.3732908964157104,-0.3356933295726776,0.6408690810203552,100.0,96239.0,1.0
14:56:35.268867,176290.984375,183971.046875,198379.609375,175321.28125,177437.0,196631.25,687941.0625,170726.5625,0.03955078125,0.98779296875,-0.232177734375,-1.4038084745407104,-0.3051757514476776,0.6103515028953552,100.0,96240.0,1.0
14:56:35.273205,176304.75,183984.28125,198392.75,175327.09375,177450.859375,196669.078125,688038.25,170735.59375,0.040771484375,0.9873046875,-0.231201171875,-1.4648436307907104,-0.2441406100988388,0.6713866591453552,100.0,96241.0,1.0
14:56:35.273236,176265.6875,183975.96875,198383.625,175333.171875,177451.40625,196642.875,687991.125,170747.3125,0.040771484375,0.98681640625,-0.229736328125,-1.4953612089157104,-0.2746581733226776,0.6713866591453552,100.0,96242.0,1.0
14:56:35.288192,176238.859375,183962.109375,198369.328125,175332.71875,177441.921875,196600.671875,687928.375,170733.71875,0.040771484375,0.98583984375,-0.22998046875,-1.5869139432907104,-0.3356933295726776,0.6103515028953552,100.0,96243.0,1.0
14:56:35.288213,176281.328125,183971.578125,198379.875,175326.734375,177444.96875,196625.796875,687934.9375,170733.453125,0.0419921875,0.98388671875,-0.229736328125,-1.5563963651657104,-0.3356933295726776,0.6713866591453552,100.0,96244.0,1.0
14:56:35.290737,176314.0625,183983.75,198394.890625,175331.203125,177453.546875,196667.5625,688031.9375,170738.28125,0.041259765625,0.984130859375,-0.2314453125,-1.5563963651657104,-0.3662109076976776,0.6713866591453552,100.0,96245.0,1.0
14:56:35.290770,176275.96875,183979.453125,198389.265625,175336.03125,177454.171875,196645.828125,687997.25,170741.59375,0.04052734375,0.984130859375,-0.231201171875,-1.5258787870407104,-0.3662109076976776,0.6408690810203552,100.0,96246.0,1.0
14:56:35.296993,176253.078125,183967.734375,198379.15625,175339.703125,177446.84375,196597.109375,687926.625,170740.328125,0.039794921875,0.984375,-0.23046875,-1.5563963651657104,-0.3356933295726776,0.7629393935203552,100.0,96247.0,1.0
14:56:35.297026,176280.703125,183970.875,198385.875,175332.09375,177444.96875,196607.46875,687882.9375,170732.5625,0.041015625,0.984619140625,-0.231201171875,-1.4648436307907104,-0.2136230319738388,0.8544921278953552,100.0,96248.0,1.0
14:56:35.298894,176329.875,183983.390625,198402.5,175335.40625,177450.859375,196648.875,687974.3125,170734.171875,0.040771484375,0.9833984375,-0.230224609375,-1.5258787870407104,-0.2441406100988388,0.9460448622703552,100.0,96249.0,1.0
14:56:35.314062,176291.703125,183981.59375,198395.96875,175336.390625,177450.78125,196639.390625,687955.25,170731.65625,0.040283203125,0.981201171875,-0.232421875,-1.5563963651657104,-0.2136230319738388,0.9765624403953552,100.0,96250.0,1.0
14:56:35.318778,176261.9375,183963.0,198379.4375,175336.484375,177438.34375,196588.25,687923.875,170729.34375,0.041015625,0.983642578125,-0.2333984375,-1.5869139432907104,-0.2746581733226776,0.8850097060203552,100.0,96251.0,1.0
14:56:35.318815,176277.40625,183972.390625,198389.0,175343.28125,177443.359375,196599.25,687876.9375,170735.0625,0.040771484375,0.98095703125,-0.23291015625,-1.5869139432907104,-0.2746581733226776,0.9460448622703552,100.0,96252.0,1.0
14:56:35.318827,176336.234375,183987.40625,198404.109375,175335.40625,177449.875,196647.625,687986.625,170733.09375,0.042236328125,0.98388671875,-0.231201171875,-1.6479490995407104,-0.2746581733226776,0.9155272841453552,100.0,96253.0,1.0
14:56:35.321959,176299.75,183986.6875,198397.578125,175335.3125,177451.046875,196652.09375,687989.9375,170730.40625,0.041015625,0.985107421875,-0.231201171875,-1.5258787870407104,-0.2136230319738388,0.9460448622703552,100.0,96254.0,1.0
14:56:35.321992,176261.9375,183965.140625,198376.296875,175333.171875,177435.046875,196599.609375,687926.9375,170728.796875,0.043701171875,0.986083984375,-0.233154296875,-1.5869139432907104,-0.1525878757238388,0.9460448622703552,100.0,96255.0,1.0
14:56:35.334796,176253.890625,183965.859375,198373.265625,175330.84375,177431.828125,196593.796875,687881.5,170731.125,0.0458984375,0.9873046875,-0.231201171875,-1.5563963651657104,-0.2136230319738388,0.8544921278953552,100.0,96256.0,1.0
14:56:35.338243,176308.875,183969.625,198379.609375,175317.609375,177427.078125,196628.65625,687959.75,170724.78125,0.04541015625,0.98486328125,-0.233154296875,-1.5563963651657104,-0.0610351525247097,0.9765624403953552,100.0,96257.0,1.0
14:56:35.338290,176284.90625,183972.65625,198379.96875,175320.5625,177432.984375,196647.171875,688003.0625,170728.09375,0.045654296875,0.9853515625,-0.230712890625,-1.4953612089157104,-0.0915527269244194,1.1291502714157104,100.0,96258.0,1.0
14:56:35.344576,176252.71875,183961.03125,198367.625,175326.109375,177428.515625,196606.9375,687948.4375,170731.65625,0.046630859375,0.98388671875,-0.2314453125,-1.5563963651657104,-0.0915527269244194,1.0681151151657104,100.0,96259.0,1.0
14:56:35.344659,176239.9375,183966.046875,198366.015625,175328.4375,177428.25,196594.421875,687897.4375,170735.421875,0.046630859375,0.984619140625,-0.2333984375,-1.5258787870407104,0.03051757626235485,0.9765624403953552,100.0,96260.0,1.0
14:56:35.346411,176307.0,183981.953125,198388.1875,175333.4375,177436.828125,196637.875,687940.3125,170744.359375,0.04736328125,0.984130859375,-0.23193359375,-1.6174315214157104,0.0915527269244194,0.9460448622703552,100.0,96261.0,1.0
14:56:35.358974,176310.390625,183997.953125,198400.359375,175338.359375,177449.4375,196671.578125,688011.875,170737.03125,0.0478515625,0.984619140625,-0.234130859375,-1.5563963651657104,0.1831054538488388,0.9155272841453552,100.0,96262.0,1.0
14:56:35.393349,176273.109375,183982.5,198386.765625,175342.65625,177444.515625,196629.109375,687958.0,170743.28125,0.0458984375,0.984130859375,-0.2333984375,-1.5258787870407104,0.2136230319738388,0.9460448622703552,100.0,96263.0,1.0
14:56:35.393386,176252.90625,183974.71875,198380.0625,175346.84375,177440.5,196598.359375,687911.875,170746.234375,0.046142578125,0.98388671875,-0.232421875,-1.5869139432907104,0.2746581733226776,0.9155272841453552,100.0,96264.0,1.0
14:56:35.409540,176311.640625,183988.125,198396.5,175336.65625,177445.671875,196635.09375,687932.0,170741.9375,0.04931640625,0.980712890625,-0.23193359375,-1.6174315214157104,0.3356933295726776,0.8850097060203552,100.0,96265.0,1.0
14:56:35.409555,176322.28125,183995.8125,198403.390625,175336.484375,177452.203125,196667.46875,688013.9375,170740.515625,0.046630859375,0.979736328125,-0.233642578125,-1.5563963651657104,0.3967284858226776,0.9460448622703552,100.0,96266.0,1.0
14:56:35.414547,176277.3125,183978.921875,198388.546875,175339.25,177445.671875,196631.703125,687965.1875,170741.859375,0.04638671875,0.978759765625,-0.232177734375,-1.5563963651657104,0.4577636420726776,0.8239745497703552,100.0,96267.0,1.0
14:56:35.414559,176246.015625,183964.25,198374.0625,175338.796875,177436.828125,196592.90625,687913.9375,170739.078125,0.045166015625,0.980712890625,-0.2333984375,-1.3732908964157104,0.3967284858226776,0.7324218153953552,100.0,96268.0,1.0
14:56:35.416320,176291.171875,183975.34375,198388.546875,175343.90625,177443.984375,196623.03125,687913.0625,170746.953125,0.044189453125,0.978759765625,-0.235595703125,-1.2512205839157104,0.3967284858226776,0.6408690810203552,100.0,96269.0,1.0
14:56:35.418943,176317.359375,183980.34375,198394.625,175338.171875,177448.265625,196659.0625,688009.875,170744.8125,0.043212890625,0.9794921875,-0.236083984375,-1.2512205839157104,0.4882812201976776,0.7629393935203552,100.0,96270.0,1.0
14:56:35.421412,176271.3125,183967.03125,198379.78125,175336.296875,177443.890625,196633.9375,687969.1875,170738.71875,0.04443359375,0.98046875,-0.233154296875,-1.2512205839157104,0.6103515028953552,0.5798339247703552,100.0,96271.0,1.0
14:56:35.423849,176243.25,183953.96875,198367.265625,175334.15625,177434.953125,196586.640625,687916.75,170736.9375,0.044921875,0.979248046875,-0.234375,-1.1291502714157104,0.6103515028953552,0.5493163466453552,100.0,96272.0,1.0
14:56:35.426638,176277.578125,183968.1875,198383.90625,175337.640625,177442.8125,196607.828125,687886.9375,170741.9375,0.047119140625,0.97900390625,-0.23486328125,-0.9765624403953552,0.5798339247703552,0.5187987685203552,100.0,96273.0,1.0
14:56:35.428907,176330.0625,183982.3125,198401.609375,175339.078125,177450.6875,196653.875,687991.75,170743.90625,0.046630859375,0.9794921875,-0.234130859375,-1.0375975370407104,0.6103515028953552,0.5187987685203552,100.0,96274.0,1.0
14:56:35.431350,176290.0,183978.5625,198393.828125,175338.09375,177449.53125,196646.09375,687981.875,170740.609375,0.04736328125,0.983154296875,-0.2353515625,-0.9765624403953552,0.5798339247703552,0.4577636420726776,100.0,96275.0,1.0
14:56:35.433846,176262.203125,183962.828125,198377.828125,175337.828125,177438.078125,196596.390625,687934.5,170739.078125,0.043701171875,0.983642578125,-0.23583984375,-1.0375975370407104,0.5798339247703552,0.3967284858226776,100.0,96276.0,1.0
14:56:35.436307,176269.53125,183964.515625,198378.71875,175332.640625,177433.96875,196598.890625,687879.6875,170735.5,0.04443359375,0.985107421875,-0.23779296875,-1.0375975370407104,0.6103515028953552,0.4272460639476776,100.0,96277.0,1.0
14:56:35.438827,176324.96875,183973.734375,198392.3125,175329.140625,177436.734375,196640.90625,687968.5625,170736.125,0.045654296875,0.985595703125,-0.23486328125,-0.9460448622703552,0.6713866591453552,0.4272460639476776,100.0,96278.0,1.0
14:56:35.441999,176287.5,183972.390625,198386.5,175337.828125,177440.5,196645.828125,687975.3125,170746.234375,0.045654296875,0.983642578125,-0.23583984375,-1.0070799589157104,0.6713866591453552,0.4882812201976776,100.0,96279.0,1.0
14:56:35.442018,176247.359375,183948.515625,198364.40625,175326.5625,177425.734375,196590.75,687922.625,170731.84375,0.045654296875,0.98193359375,-0.23291015625,-1.0375975370407104,0.6408690810203552,0.3967284858226776,100.0,96280.0,1.0
14:56:35.444198,176241.375,183949.953125,198363.78125,175325.296875,177422.703125,196585.21875,687875.9375,170728.984375,0.042724609375,0.98095703125,-0.23486328125,-1.0375975370407104,0.5493163466453552,0.3051757514476776,100.0,96281.0,1.0
14:56:35.446387,176306.359375,183962.203125,198381.9375,175320.65625,177429.59375,196631.34375,687959.75,170733.625,0.040771484375,0.98193359375,-0.23486328125,-0.9765624403953552,0.4577636420726776,0.3356933295726776,100.0,96282.0,1.0
14:56:35.449493,176283.84375,183969.171875,198383.625,175322.890625,177437.640625,196653.609375,687994.125,170734.796875,0.038330078125,0.985595703125,-0.23486328125,-0.9155272841453552,0.3662109076976776,0.2746581733226776,100.0,96283.0,1.0
14:56:35.449543,176246.734375,183951.296875,198365.21875,175321.640625,177427.0,196606.21875,687928.0625,170733.0,0.034912109375,0.986572265625,-0.234619140625,-0.9155272841453552,0.3051757514476776,0.3356933295726776,100.0,96284.0,1.0
14:56:35.451962,176236.265625,183957.8125,198364.765625,175324.140625,177427.0,196594.6875,687883.375,170734.609375,0.031982421875,0.989013671875,-0.232666015625,-1.0375975370407104,0.2441406100988388,0.2136230319738388,100.0,96285.0,1.0
14:56:35.452007,176303.421875,183974.796875,198384.796875,175323.15625,177433.609375,196637.6875,687937.8125,170738.09375,0.03271484375,0.99072265625,-0.23095703125,-1.0986326932907104,0.0610351525247097,0.2136230319738388,100.0,96286.0,1.0
14:56:35.458488,176300.203125,183984.1875,198392.84375,175325.390625,177442.8125,196666.578125,688000.0625,170735.859375,0.031982421875,0.994140625,-0.2314453125,-1.2817381620407104,-0.0915527269244194,0.0610351525247097,100.0,96287.0,1.0
14:56:35.458565,176264.171875,183971.9375,198382.5625,175328.875,177440.046875,196626.609375,687940.5625,170739.0,0.033203125,0.9951171875,-0.232666015625,-1.4648436307907104,-0.2441406100988388,-0.0610351525247097,100.0,96288.0,1.0
14:56:35.470714,176251.375,183969.890625,198382.46875,175338.796875,177440.9375,196600.046875,687902.0625,170746.859375,0.034912109375,0.995849609375,-0.233154296875,-1.5869139432907104,-0.4272460639476776,-0.0915527269244194,100.0,96289.0,1.0
14:56:35.470729,176307.796875,183983.296875,198400.171875,175338.171875,177447.015625,196632.59375,687918.25,170749.453125,0.0380859375,0.99658203125,-0.234130859375,-1.7395018339157104,-0.4882812201976776,-0.0610351525247097,100.0,96290.0,1.0
14:56:35.473248,176311.734375,183984.1875,198399.546875,175328.34375,177444.515625,196658.34375,687992.4375,170738.8125,0.039794921875,0.99658203125,-0.23583984375,-1.8615721464157104,-0.4577636420726776,0.0,100.0,96291.0,1.0
14:56:35.473251,176272.390625,183974.0,198388.640625,175332.359375,177440.5,196629.015625,687948.5625,170739.703125,0.040283203125,0.993896484375,-0.232177734375,-1.9531248807907104,-0.5493163466453552,0.2136230319738388,100.0,96292.0,1.0
14:56:35.480201,176250.046875,183966.578125,198380.5,175334.0625,177436.109375,196593.609375,687924.0625,170740.0625,0.04296875,0.991455078125,-0.23388671875,-2.136230230331421,-0.6103515028953552,0.4272460639476776,100.0,96293.0,1.0
14:56:35.484587,176296.703125,183982.21875,198397.578125,175340.953125,177445.234375,196626.421875,687905.4375,170748.828125,0.044189453125,0.990234375,-0.230224609375,-2.166747808456421,-0.5798339247703552,0.5493163466453552,100.0,96294.0,1.0
14:56:35.484611,176330.0625,183995.71875,198411.4375,175343.90625,177453.71875,196668.625,688000.875,170749.28125,0.043701171875,0.986083984375,-0.2333984375,-2.258300542831421,-0.5798339247703552,0.8239745497703552,100.0,96295.0,1.0
14:56:35.486349,176286.96875,183990.53125,198402.40625,175340.328125,177454.359375,196651.90625,687970.125,170751.0625,0.04443359375,0.986083984375,-0.231689453125,-2.380370855331421,-0.6103515028953552,1.0681151151657104,100.0,96296.0,1.0
14:56:35.497620,176262.203125,183978.921875,198393.828125,175340.59375,177451.671875,196610.6875,687918.6875,170746.953125,0.04541015625,0.9873046875,-0.232421875,-2.410888433456421,-0.5493163466453552,1.1901854276657104,100.0,96297.0,1.0
14:56:35.502107,176289.921875,183989.375,198405.625,175340.140625,177457.84375,196631.609375,687894.75,170747.046875,0.043701171875,0.986083984375,-0.23193359375,-2.471923589706421,-0.4272460639476776,1.4038084745407104,100.0,96298.0,1.0
14:56:35.502173,176344.625,184004.125,198425.390625,175346.140625,177469.109375,196678.1875,688007.1875,170755.171875,0.0439453125,0.984130859375,-0.22900390625,-2.410888433456421,-0.3662109076976776,1.4953612089157104,100.0,96299.0,1.0
14:56:35.513945,176307.625,184000.640625,198419.65625,175352.484375,177471.34375,196670.0625,687998.375,170759.296875,0.0419921875,0.985107421875,-0.22900390625,-2.563476324081421,-0.3356933295726776,1.4343260526657104,100.0,96300.0,1.0
14:56:35.516986,176274.984375,183977.125,198397.3125,175350.421875,177455.328125,196613.203125,687931.1875,170756.421875,0.041015625,0.983642578125,-0.228271484375,-2.685546636581421,-0.2746581733226776,1.6479490995407104,100.0,96301.0,1.0
14:56:35.517051,176279.546875,183973.46875,198396.5,175351.59375,177451.484375,196611.140625,687892.75,170754.640625,0.04248046875,0.984375,-0.229248046875,-2.593993902206421,-0.3662109076976776,1.6479490995407104,100.0,96302.0,1.0
14:56:35.518904,176332.734375,183975.78125,198406.96875,175341.9375,177450.234375,196648.953125,688003.0625,170748.65625,0.0439453125,0.9833984375,-0.2265625,-2.777099370956421,-0.3662109076976776,1.6174315214157104,100.0,96303.0,1.0
14:56:35.525120,176303.5,183981.59375,198406.15625,175347.390625,177455.328125,196659.0625,688020.0,170751.515625,0.042236328125,0.982177734375,-0.227783203125,-2.655029058456421,-0.2746581733226776,1.4953612089157104,100.0,96304.0,1.0
14:56:35.533230,176264.796875,183958.703125,198383.71875,175341.390625,177438.890625,196602.46875,687945.125,170744.0,0.044189453125,0.982421875,-0.228271484375,-2.746581792831421,-0.3662109076976776,1.3732908964157104,100.0,96305.0,1.0
14:56:35.533262,176255.671875,183958.53125,198382.296875,175339.875,177437.8125,196597.546875,687897.3125,170740.609375,0.0458984375,0.983642578125,-0.227294921875,-2.746581792831421,-0.2136230319738388,1.2817381620407104,100.0,96306.0,1.0
14:56:35.535698,176327.375,183977.3125,198404.46875,175340.328125,177447.640625,196647.53125,687980.8125,170746.765625,0.046142578125,0.982421875,-0.23046875,-2.716064214706421,-0.2441406100988388,1.0681151151657104,100.0,96307.0,1.0
14:56:35.535727,176312.453125,183988.296875,198407.765625,175347.921875,177456.859375,196667.109375,688028.5,170750.4375,0.047119140625,0.981201171875,-0.22900390625,-2.624511480331421,-0.1525878757238388,0.9155272841453552,100.0,96308.0,1.0
14:56:35.542717,176276.953125,183972.203125,198391.765625,175353.203125,177448.0,196619.1875,687962.25,170754.015625,0.049072265625,0.97900390625,-0.228271484375,-2.593993902206421,0.0,0.9155272841453552,100.0,96309.0,1.0
14:56:35.549588,176259.0625,183967.5625,198385.59375,175344.4375,177443.171875,196597.1875,687909.9375,170745.078125,0.05078125,0.978759765625,-0.227783203125,-2.563476324081421,0.2441406100988388,0.7324218153953552,100.0,96310.0,1.0
14:56:35.549601,176323.359375,183980.609375,198402.9375,175341.75,177450.859375,196638.59375,687955.8125,170746.6875,0.05126953125,0.978515625,-0.23046875,-2.441406011581421,0.3051757514476776,0.6408690810203552,100.0,96311.0,1.0
14:56:35.558948,176322.28125,183991.609375,198413.765625,175352.296875,177464.015625,196668.71875,688021.875,170759.375,0.05322265625,0.97900390625,-0.22705078125,-2.410888433456421,0.3662109076976776,0.6103515028953552,100.0,96312.0,1.0
14:56:35.563221,176279.640625,183972.484375,198395.53125,175344.890625,177453.546875,196622.671875,687964.0,170753.03125,0.052001953125,0.9775390625,-0.22607421875,-2.197265386581421,0.6408690810203552,0.5798339247703552,100.0,96313.0,1.0
14:56:35.563251,176253.171875,183961.84375,198381.484375,175337.015625,177444.25,196591.015625,687910.8125,170736.84375,0.05322265625,0.976318359375,-0.228515625,-2.166747808456421,0.6713866591453552,0.6103515028953552,100.0,96314.0,1.0
14:56:35.573287,176304.578125,183967.734375,198393.203125,175333.625,177446.03125,196620.078125,687925.0625,170739.984375,0.052001953125,0.97607421875,-0.22900390625,-2.075195074081421,0.8239745497703552,0.4882812201976776,100.0,96315.0,1.0
14:56:35.573315,176318.796875,183980.796875,198402.671875,175331.65625,177453.28125,196657.71875,688016.125,170738.640625,0.05029296875,0.977783203125,-0.22998046875,-1.9531248807907104,0.9765624403953552,0.5493163466453552,100.0,96316.0,1.0
14:56:35.575737,176278.734375,183972.296875,198390.78125,175334.78125,177451.3125,196631.53125,687969.75,170741.40625,0.050048828125,0.976806640625,-0.22900390625,-1.8310545682907104,0.9765624403953552,0.4882812201976776,100.0,96317.0,1.0
14:56:35.575760,176255.21875,183962.375,198382.828125,175342.921875,177446.3125,196592.0,687906.625,170748.46875,0.047607421875,0.97802734375,-0.22802734375,-1.8615721464157104,1.1596678495407104,0.4272460639476776,100.0,96318.0,1.0
14:56:35.585120,176297.6875,183972.203125,198393.921875,175340.765625,177447.375,196615.15625,687901.8125,170746.140625,0.045166015625,0.978759765625,-0.23095703125,-1.5869139432907104,1.2207030057907104,0.4577636420726776,100.0,96319.0,1.0
14:56:35.589645,176326.03125,183979.984375,198401.96875,175334.15625,177448.625,196650.921875,688002.9375,170737.734375,0.04443359375,0.9775390625,-0.231689453125,-1.4648436307907104,1.1901854276657104,0.4272460639476776,100.0,96320.0,1.0
14:56:35.589669,176282.40625,183971.671875,198389.171875,175329.59375,177443.4375,196630.359375,687966.6875,170733.09375,0.04150390625,0.979248046875,-0.230712890625,-1.2817381620407104,1.1596678495407104,0.3967284858226776,100.0,96321.0,1.0
14:56:35.604054,176260.765625,183961.921875,198379.875,175337.546875,177439.15625,196589.59375,687925.125,170741.234375,0.03857421875,0.98046875,-0.229736328125,-1.1901854276657104,1.2207030057907104,0.2441406100988388,100.0,96322.0,1.0
14:56:35.608213,176286.515625,183974.984375,198390.421875,175336.125,177445.234375,196612.296875,687890.0625,170740.328125,0.03857421875,0.98193359375,-0.23095703125,-1.0375975370407104,1.1291502714157104,0.2746581733226776,100.0,96323.0,1.0
14:56:35.608235,176338.640625,183994.296875,198410.71875,175338.09375,177457.578125,196663.703125,687986.8125,170744.359375,0.037109375,0.981201171875,-0.2314453125,-0.8544921278953552,1.0986326932907104,0.2441406100988388,100.0,96324.0,1.0
14:56:35.608241,176298.40625,183992.78125,198404.015625,175342.015625,177458.375,196660.046875,687977.875,170745.703125,0.037841796875,0.982666015625,-0.234375,-0.7629393935203552,1.0070799589157104,0.2136230319738388,100.0,96325.0,1.0
14:56:35.610142,176265.15625,183971.765625,198384.53125,175340.765625,177443.890625,196607.296875,687933.875,170745.25,0.036865234375,0.98486328125,-0.232421875,-0.7019042372703552,0.8239745497703552,0.3051757514476776,100.0,96326.0,1.0
14:56:35.620691,176267.65625,183971.765625,198383.0,175336.390625,177439.875,196608.8125,687889.0,170741.5,0.036865234375,0.98388671875,-0.22998046875,-0.5493163466453552,0.7324218153953552,0.3356933295726776,100.0,96327.0,1.0
14:56:35.620708,176323.359375,183980.703125,198392.484375,175327.53125,177440.671875,196650.03125,687988.6875,170736.046875,0.037109375,0.985107421875,-0.22802734375,-0.4882812201976776,0.5493163466453552,0.3662109076976776,100.0,96328.0,1.0
14:56:35.630777,176289.828125,183979.984375,198389.171875,175333.171875,177445.328125,196654.859375,687995.125,170740.78125,0.035888671875,0.98486328125,-0.2265625,-0.5493163466453552,0.4882812201976776,0.3051757514476776,100.0,96329.0,1.0
14:56:35.630797,176261.578125,183961.65625,198375.59375,175337.1875,177437.0,196600.140625,687932.125,170748.734375,0.034912109375,0.986572265625,-0.231201171875,-0.4882812201976776,0.3967284858226776,0.3967284858226776,100.0,96330.0,1.0
14:56:35.633213,176264.34375,183969.96875,198383.90625,175343.09375,177442.1875,196595.578125,687887.3125,170747.21875,0.037109375,0.989013671875,-0.229248046875,-0.4272460639476776,0.1220703050494194,0.4272460639476776,100.0,96331.0,1.0
14:56:35.633224,176331.046875,183985.171875,198404.46875,175340.0625,177450.78125,196642.875,687949.0625,170744.265625,0.03466796875,0.98779296875,-0.229736328125,-0.4272460639476776,-0.03051757626235485,0.5493163466453552,100.0,96332.0,1.0
14:56:35.638876,176310.296875,183990.359375,198405.265625,175344.796875,177457.125,196661.296875,687984.375,170747.3125,0.0341796875,0.98876953125,-0.22900390625,-0.3967284858226776,-0.1831054538488388,0.4882812201976776,100.0,96333.0,1.0
14:56:35.645710,176273.015625,183973.109375,198386.40625,175344.171875,177446.65625,196612.484375,687932.75,170746.859375,0.03564453125,0.98876953125,-0.23046875,-0.3967284858226776,-0.1525878757238388,0.6103515028953552,100.0,96334.0,1.0
14:56:35.645724,176255.765625,183970.15625,198380.328125,175340.140625,177442.8125,196592.984375,687894.4375,170744.8125,0.035400390625,0.98974609375,-0.231689453125,-0.4577636420726776,-0.2746581733226776,0.6408690810203552,100.0,96335.0,1.0
14:56:35.660718,176315.125,183974.0,198391.5,175334.609375,177442.375,196629.734375,687929.125,170743.46875,0.0361328125,0.988037109375,-0.233642578125,-0.5493163466453552,-0.3967284858226776,0.6103515028953552,100.0,96336.0,1.0
14:56:35.660731,176308.953125,183980.171875,198393.375,175333.53125,177447.28125,196658.171875,687998.625,170741.765625,0.038330078125,0.98974609375,-0.23291015625,-0.6103515028953552,-0.5187987685203552,0.7019042372703552,100.0,96337.0,1.0
14:56:35.663201,176268.90625,183966.578125,198378.09375,175333.890625,177440.21875,196618.921875,687943.25,170741.59375,0.038818359375,0.989013671875,-0.235107421875,-0.6713866591453552,-0.5798339247703552,0.7324218153953552,100.0,96338.0,1.0
14:56:35.663213,176249.140625,183959.6875,198373.0,175337.28125,177437.1875,196587.171875,687895.6875,170743.375,0.03857421875,0.9853515625,-0.230712890625,-0.7324218153953552,-0.7019042372703552,0.8850097060203552,100.0,96339.0,1.0
14:56:35.673207,176307.53125,183974.890625,198389.890625,175328.796875,177443.171875,196623.75,687909.5625,170737.390625,0.0400390625,0.986083984375,-0.23193359375,-0.8239745497703552,-0.7324218153953552,0.7934569716453552,100.0,96340.0,1.0
14:56:35.673252,176329.796875,183991.609375,198405.359375,175338.625,177458.015625,196664.15625,687998.6875,170744.890625,0.041015625,0.98291015625,-0.2314453125,-1.0375975370407104,-0.7324218153953552,0.7629393935203552,100.0,96341.0,1.0
14:56:35.675712,176289.828125,183982.671875,198396.59375,175345.515625,177455.78125,196633.9375,687951.5625,170749.09375,0.043701171875,0.983154296875,-0.232177734375,-1.0375975370407104,-0.8239745497703552,0.9460448622703552,100.0,96342.0,1.0
14:56:35.675749,176268.1875,183975.78125,198391.046875,175352.21875,177450.6875,196595.5,687905.125,170752.046875,0.04541015625,0.985107421875,-0.232177734375,-1.0986326932907104,-0.7324218153953552,1.0070799589157104,100.0,96343.0,1.0
14:56:35.686381,176306.546875,183984.1875,198398.109375,175343.09375,177449.703125,196620.609375,687884.0,170746.421875,0.04541015625,0.986328125,-0.232666015625,-1.1291502714157104,-0.7324218153953552,1.0986326932907104,100.0,96344.0,1.0
14:56:35.693823,176338.90625,183996.53125,198408.046875,175336.84375,177455.6875,196665.5,687980.1875,170739.984375,0.046630859375,0.98681640625,-0.231201171875,-1.1901854276657104,-0.7019042372703552,1.0986326932907104,100.0,96345.0,1.0
14:56:35.693874,176296.796875,183991.609375,198398.203125,175340.59375,177454.625,196650.125,687957.75,170743.828125,0.04638671875,0.98486328125,-0.234375,-1.3732908964157104,-0.5798339247703552,1.0375975370407104,100.0,96346.0,1.0
14:56:35.693899,176265.421875,183972.65625,198379.515625,175337.734375,177439.6875,196598.71875,687931.1875,170737.828125,0.04443359375,0.983154296875,-0.234130859375,-1.3732908964157104,-0.5187987685203552,1.0986326932907104,100.0,96347.0,1.0
14:56:35.698908,176288.578125,183976.6875,198384.796875,175336.5625,177440.046875,196612.84375,687889.1875,170737.109375,0.045654296875,0.979736328125,-0.232666015625,-1.4038084745407104,-0.5493163466453552,1.1596678495407104,100.0,96348.0,1.0
14:56:35.705758,176341.5,183991.171875,198404.015625,175340.234375,177451.671875,196662.28125,687992.1875,170743.734375,0.044921875,0.9775390625,-0.235107421875,-1.3732908964157104,-0.5187987685203552,1.0681151151657104,100.0,96349.0,1.0
14:56:35.706076,176296.984375,183985.890625,198393.640625,175338.265625,177452.390625,196653.609375,687980.1875,170744.0,0.04541015625,0.977783203125,-0.235107421875,-1.3427733182907104,-0.5187987685203552,0.9765624403953552,100.0,96350.0,1.0
14:56:35.715758,176255.578125,183957.28125,198369.5,175330.125,177433.78125,196591.828125,687933.625,170743.828125,0.0439453125,0.980224609375,-0.23291015625,-1.3732908964157104,-0.4577636420726776,0.8850097060203552,100.0,96351.0,1.0
14:56:35.715805,176258.890625,183958.359375,198368.96875,175321.453125,177430.21875,196592.453125,687882.9375,170728.359375,0.045654296875,0.982177734375,-0.2333984375,-1.3427733182907104,-0.4882812201976776,0.7019042372703552,100.0,96352.0,1.0
14:56:35.717622,176313.78125,183964.875,198379.609375,175315.734375,177428.6875,196634.03125,687987.25,170724.328125,0.043212890625,0.9833984375,-0.232666015625,-1.2817381620407104,-0.4272460639476776,0.7019042372703552,100.0,96353.0,1.0
14:56:35.751969,176287.234375,183972.84375,198381.578125,175324.046875,177435.9375,196648.15625,688005.125,170732.5625,0.045166015625,0.98291015625,-0.2314453125,-1.4648436307907104,-0.4272460639476776,0.5798339247703552,100.0,96354.0,1.0
14:56:35.752004,176252.71875,183955.84375,198362.71875,175319.3125,177425.5625,196597.8125,687944.625,170730.140625,0.045654296875,0.980712890625,-0.23681640625,-1.3732908964157104,-0.3967284858226776,0.4577636420726776,100.0,96355.0,1.0
14:56:35.796992,176245.65625,183959.421875,198363.0625,175319.40625,177426.375,196591.734375,687895.8125,170728.09375,0.046630859375,0.981689453125,-0.234130859375,-1.4343260526657104,-0.3051757514476776,0.3356933295726776,100.0,96356.0,1.0
14:56:35.797020,176314.0625,183974.984375,198383.28125,175317.53125,177434.953125,196640.46875,687974.125,170730.859375,0.04931640625,0.98388671875,-0.234375,-1.3122557401657104,-0.3967284858226776,0.3051757514476776,100.0,96357.0,1.0
14:56:35.799548,176302.796875,183986.25,198391.953125,175329.328125,177448.453125,196665.40625,688023.5,170738.28125,0.048095703125,0.9853515625,-0.234619140625,-1.4038084745407104,-0.3051757514476776,0.3051757514476776,100.0,96358.0,1.0
14:56:35.799563,176276.234375,183975.421875,198384.796875,175338.171875,177446.84375,196624.734375,687957.9375,170745.96875,0.047607421875,0.9853515625,-0.234375,-1.4343260526657104,-0.1831054538488388,0.2136230319738388,100.0,96359.0,1.0
14:56:35.801518,176263.546875,183974.890625,198383.0,175340.953125,177444.078125,196607.390625,687902.625,170744.359375,0.050048828125,0.98388671875,-0.2333984375,-1.4343260526657104,-0.2136230319738388,0.2136230319738388,100.0,96360.0,1.0
14:56:35.803930,176324.6875,183985.265625,198397.140625,175334.953125,177446.125,196645.296875,687940.9375,170742.484375,0.048828125,0.985595703125,-0.23583984375,-1.4953612089157104,-0.0915527269244194,0.2136230319738388,100.0,96361.0,1.0
14:56:35.806356,176321.125,183996.96875,198402.59375,175337.90625,177454.078125,196678.28125,688015.9375,170742.390625,0.04736328125,0.9853515625,-0.2353515625,-1.5869139432907104,-0.0915527269244194,0.2441406100988388,100.0,96362.0,1.0
14:56:35.808873,176276.6875,183980.171875,198381.75,175333.703125,177442.90625,196636.796875,687963.0625,170738.09375,0.048095703125,0.98388671875,-0.23486328125,-1.4953612089157104,0.0610351525247097,0.3967284858226776,100.0,96363.0,1.0
14:56:35.811369,176251.828125,183972.84375,198369.859375,175333.703125,177437.0,196607.203125,687915.1875,170737.03125,0.047119140625,0.985595703125,-0.23486328125,-1.4343260526657104,0.0915527269244194,0.3662109076976776,100.0,96364.0,1.0
14:56:35.813946,176303.5,183978.640625,198380.6875,175328.703125,177436.109375,196636.0,687935.125,170734.515625,0.045654296875,0.985107421875,-0.230712890625,-1.4343260526657104,0.1831054538488388,0.5493163466453552,100.0,96365.0,1.0
14:56:35.816372,176325.328125,183988.03125,198393.640625,175335.5,177446.125,196670.421875,688027.125,170738.375,0.0458984375,0.984619140625,-0.2333984375,-1.4953612089157104,0.2136230319738388,0.5493163466453552,100.0,96366.0,1.0
14:56:35.819057,176287.6875,183978.203125,198386.40625,175335.859375,177445.859375,196641.984375,687974.0,170738.8125,0.044189453125,0.98486328125,-0.2314453125,-1.5869139432907104,0.2136230319738388,0.5798339247703552,100.0,96367.0,1.0
14:56:35.821393,176264.796875,183968.71875,198380.953125,175340.6875,177442.546875,196605.328125,687913.6875,170741.046875,0.041748046875,0.986083984375,-0.232421875,-1.5258787870407104,0.3051757514476776,0.5798339247703552,100.0,96368.0,1.0
14:56:35.824469,176309.765625,183982.578125,198400.4375,175348.734375,177452.65625,196636.625,687899.4375,170757.859375,0.040771484375,0.986328125,-0.233642578125,-1.5563963651657104,0.2136230319738388,0.5493163466453552,100.0,96369.0,1.0
14:56:35.826378,176344.28125,183995.640625,198411.171875,175341.21875,177458.546875,196678.1875,687995.75,170746.859375,0.040283203125,0.985107421875,-0.23291015625,-1.5869139432907104,0.2136230319738388,0.6103515028953552,100.0,96370.0,1.0
14:56:35.831426,176300.828125,183987.40625,198398.390625,175345.953125,177455.328125,196659.421875,687975.0,170747.484375,0.039306640625,0.984375,-0.236083984375,-1.6174315214157104,0.2136230319738388,0.6103515028953552,100.0,96371.0,1.0
14:56:35.833878,176263.546875,183967.03125,198374.0625,175335.765625,177437.90625,196609.265625,687926.375,170738.375,0.03857421875,0.98583984375,-0.234619140625,-1.6479490995407104,0.03051757626235485,0.5798339247703552,100.0,96372.0,1.0
14:56:35.836372,176282.5,183971.234375,198377.015625,175334.25,177436.296875,196619.8125,687884.1875,170739.703125,0.039794921875,0.98583984375,-0.233642578125,-1.6784666776657104,0.03051757626235485,0.5187987685203552,100.0,96373.0,1.0
14:56:35.838881,176333.28125,183981.328125,198393.640625,175335.140625,177444.703125,196660.671875,687993.25,170744.359375,0.040283203125,0.987060546875,-0.231201171875,-1.7089842557907104,0.0610351525247097,0.6103515028953552,100.0,96374.0,1.0
14:56:35.842553,176299.390625,183980.171875,198391.59375,175338.0,177451.671875,196659.0625,687989.6875,170746.421875,0.039794921875,0.985595703125,-0.231689453125,-1.8310545682907104,0.0610351525247097,0.4577636420726776,100.0,96375.0,1.0
14:56:35.842620,176269.359375,183963.71875,198378.171875,175335.40625,177441.65625,196609.34375,687938.625,170743.828125,0.04150390625,0.985595703125,-0.2294921875,-1.9836424589157104,-0.03051757626235485,0.4882812201976776,100.0,96376.0,1.0
14:56:35.845637,176277.40625,183969.171875,198384.34375,175338.171875,177443.984375,196615.078125,687891.625,170745.25,0.043701171875,0.987548828125,-0.2294921875,-1.8920897245407104,-0.0915527269244194,0.7019042372703552,100.0,96377.0,1.0
14:56:35.845661,176335.953125,183977.84375,198398.390625,175333.703125,177446.65625,196658.171875,687994.6875,170743.28125,0.044189453125,0.989013671875,-0.22998046875,-1.9836424589157104,-0.0610351525247097,0.6713866591453552,100.0,96378.0,1.0
14:56:35.845667,176301.53125,183977.125,198392.3125,175334.953125,177447.921875,196663.359375,688004.5,170742.75,0.04443359375,0.987548828125,-0.2314453125,-2.044677495956421,0.0,0.7934569716453552,100.0,96379.0,1.0
14:56:35.845673,176267.65625,183961.390625,198373.171875,175334.15625,177435.390625,196613.90625,687937.625,170740.15625,0.044189453125,0.986328125,-0.23291015625,-2.075195074081421,0.0915527269244194,0.8239745497703552,100.0,96380.0,1.0
14:56:35.848214,176255.578125,183958.4375,198367.359375,175327.0,177429.859375,196601.84375,687886.4375,170733.890625,0.044921875,0.985595703125,-0.232666015625,-2.044677495956421,0.1220703050494194,0.7019042372703552,100.0,96381.0,1.0
14:56:35.850124,176318.25,183967.65625,198381.578125,175320.828125,177432.625,196642.609375,687961.4375,170733.71875,0.044677734375,0.985107421875,-0.234375,-2.075195074081421,0.0915527269244194,0.6713866591453552,100.0,96382.0,1.0
14:56:35.852624,176301.09375,183976.6875,198382.65625,175321.28125,177439.6875,196666.125,688018.125,170733.09375,0.044189453125,0.984375,-0.234130859375,-2.105712652206421,0.2136230319738388,0.4882812201976776,100.0,96383.0,1.0
14:56:35.855711,176266.484375,183959.25,198368.875,175323.609375,177431.28125,196619.71875,687953.5625,170735.5,0.045654296875,0.984375,-0.236328125,-2.166747808456421,0.2441406100988388,0.6103515028953552,100.0,96384.0,1.0
14:56:35.855839,176258.984375,183962.734375,198373.796875,175334.78125,177437.90625,196606.046875,687902.0625,170746.6875,0.046875,0.982421875,-0.232666015625,-2.197265386581421,0.2136230319738388,0.6103515028953552,100.0,96385.0,1.0
14:56:35.857638,176323.625,183976.40625,198390.15625,175323.609375,177442.8125,196644.75,687944.0625,170731.65625,0.046630859375,0.98095703125,-0.234375,-2.105712652206421,0.2441406100988388,0.5798339247703552,100.0,96386.0,1.0
14:56:35.860130,176323.359375,183986.25,198397.40625,175329.234375,177451.3125,196674.53125,688010.6875,170736.125,0.044921875,0.97998046875,-0.23193359375,-2.075195074081421,0.3356933295726776,0.6408690810203552,100.0,96387.0,1.0
14:56:35.863327,176290.0,183977.484375,198387.296875,175335.234375,177447.203125,196639.65625,687953.5625,170739.34375,0.04443359375,0.98095703125,-0.232421875,-2.075195074081421,0.3051757514476776,0.6103515028953552,100.0,96388.0,1.0
14:56:35.863393,176274.453125,183975.875,198386.578125,175347.125,177445.953125,196613.734375,687899.375,170748.5625,0.0439453125,0.983154296875,-0.23193359375,-2.105712652206421,0.3356933295726776,0.6408690810203552,100.0,96389.0,1.0
14:56:35.870767,176330.78125,183990.53125,198404.203125,175349.890625,177452.5625,196648.953125,687914.5625,170754.734375,0.041748046875,0.9833984375,-0.23193359375,-2.166747808456421,0.3967284858226776,0.5493163466453552,100.0,96390.0,1.0
14:56:35.870839,176347.9375,184000.015625,198415.015625,175350.6875,177461.328125,196685.796875,688007.625,170754.546875,0.042724609375,0.982666015625,-0.232421875,-2.044677495956421,0.4577636420726776,0.4882812201976776,100.0,96391.0,1.0
14:56:35.877307,176305.5625,183990.71875,198401.515625,175352.84375,177457.296875,196659.0625,687963.3125,170757.140625,0.041015625,0.9814453125,-0.230224609375,-1.9226073026657104,0.3662109076976776,0.3051757514476776,100.0,96392.0,1.0
14:56:35.877377,176275.609375,183974.171875,198382.734375,175344.796875,177443.0,196614.53125,687917.8125,170752.21875,0.039794921875,0.982421875,-0.226806640625,-1.8615721464157104,0.4272460639476776,0.2746581733226776,100.0,96393.0,1.0
14:56:35.882732,176314.140625,183980.25,198392.84375,175349.09375,177443.4375,196630.625,687899.9375,170756.703125,0.041259765625,0.984619140625,-0.229248046875,-1.8310545682907104,0.3356933295726776,0.2746581733226776,100.0,96394.0,1.0
14:56:35.898363,176348.03125,183986.25,198403.84375,175349.53125,177447.734375,196665.953125,688004.875,170756.078125,0.03955078125,0.9833984375,-0.229736328125,-1.8005369901657104,0.2441406100988388,0.3662109076976776,100.0,96395.0,1.0
14:56:35.898431,176309.234375,183979.28125,198394.8125,175350.515625,177447.734375,196649.5,687977.0,170755.984375,0.04052734375,0.98388671875,-0.23193359375,-1.8615721464157104,0.2746581733226776,0.4272460639476776,100.0,96396.0,1.0
14:56:35.900213,176282.671875,183962.015625,198382.296875,175350.0625,177439.59375,196597.453125,687937.3125,170754.1875,0.043212890625,0.9833984375,-0.23291015625,-1.8310545682907104,0.3051757514476776,0.3662109076976776,100.0,96397.0,1.0
14:56:35.902635,176313.609375,183984.640625,198400.890625,175355.875,177452.203125,196623.65625,687892.5,170759.921875,0.04150390625,0.98291015625,-0.231689453125,-1.7395018339157104,0.1831054538488388,0.3967284858226776,100.0,96398.0,1.0
14:56:35.906022,176369.671875,184001.265625,198420.375,175357.578125,177463.109375,196673.640625,687997.75,170764.296875,0.04052734375,0.98388671875,-0.23046875,-1.7395018339157104,0.1220703050494194,0.3662109076976776,100.0,96399.0,1.0
14:56:35.906088,176332.296875,184004.671875,198417.78125,175366.078125,177469.1875,196676.234375,687994.0625,170769.84375,0.04052734375,0.982421875,-0.2265625,-1.7089842557907104,0.1831054538488388,0.4577636420726776,100.0,96400.0,1.0
14:56:35.908920,176301.09375,183987.671875,198401.421875,175362.046875,177458.203125,196625.71875,687942.375,170764.828125,0.041748046875,0.980712890625,-0.2265625,-1.6479490995407104,0.0610351525247097,0.5493163466453552,100.0,96401.0,1.0
14:56:35.924537,176305.921875,183985.171875,198402.671875,175361.421875,177456.671875,196623.921875,687887.8125,170766.359375,0.042724609375,0.98291015625,-0.225341796875,-1.5258787870407104,0.0,0.5798339247703552,100.0,96402.0,1.0
14:56:35.924550,176363.59375,183995.28125,198417.078125,175353.109375,177459.359375,196667.734375,687983.4375,170762.421875,0.04052734375,0.986572265625,-0.224853515625,-1.5563963651657104,-0.1220703050494194,0.6408690810203552,100.0,96403.0,1.0
14:56:35.927056,176328.8125,183994.296875,198410.0,175356.234375,177461.0625,196675.328125,687998.6875,170762.953125,0.04052734375,0.986572265625,-0.226806640625,-1.4953612089157104,-0.03051757626235485,0.6713866591453552,100.0,96404.0,1.0
14:56:35.927066,176296.53125,183975.421875,198393.46875,175359.71875,177452.203125,196625.4375,687940.4375,170768.3125,0.039794921875,0.985595703125,-0.2255859375,-1.4953612089157104,0.0,0.7324218153953552,100.0,96405.0,1.0
14:56:35.928865,176287.859375,183974.71875,198391.671875,175355.34375,177450.59375,196615.609375,687891.0,170764.5625,0.039794921875,0.986328125,-0.227294921875,-1.5869139432907104,-0.03051757626235485,0.6713866591453552,100.0,96406.0,1.0
14:56:35.932669,176351.421875,183980.34375,198407.328125,175352.65625,177454.53125,196652.984375,687950.625,170764.203125,0.0390625,0.985595703125,-0.229736328125,-1.5563963651657104,-0.0915527269244194,0.7629393935203552,100.0,96407.0,1.0
14:56:35.943598,176329.515625,183983.03125,198405.453125,175350.0625,177455.328125,196666.65625,687997.5625,170759.015625,0.041015625,0.984130859375,-0.22705078125,-1.5563963651657104,-0.1220703050494194,0.6713866591453552,100.0,96408.0,1.0
14:56:35.943743,176296.890625,183972.5625,198393.640625,175355.171875,177450.59375,196621.328125,687945.875,170769.21875,0.0400390625,0.984619140625,-0.226806640625,-1.4648436307907104,-0.1525878757238388,0.7934569716453552,100.0,96409.0,1.0
14:56:35.945611,176288.125,183975.515625,198394.1875,175357.765625,177452.65625,196604.34375,687907.4375,170762.328125,0.04248046875,0.984130859375,-0.2275390625,-1.4648436307907104,-0.1525878757238388,0.8239745497703552,100.0,96410.0,1.0
14:56:35.948986,176352.40625,183987.328125,198412.515625,175357.125,177459.453125,196643.5,687942.125,170766.4375,0.043701171875,0.983154296875,-0.229736328125,-1.4038084745407104,-0.2746581733226776,0.7934569716453552,100.0,96411.0,1.0
14:56:35.964594,176347.140625,183992.140625,198414.296875,175354.265625,177463.375,196670.234375,688016.6875,170766.984375,0.040771484375,0.984375,-0.22509765625,-1.4038084745407104,-0.3356933295726776,0.7934569716453552,100.0,96412.0,1.0
14:56:35.964670,176297.421875,183972.203125,198392.390625,175348.1875,177449.96875,196625.71875,687956.4375,170761.171875,0.040771484375,0.98486328125,-0.228271484375,-1.4038084745407104,-0.2136230319738388,0.7629393935203552,100.0,96413.0,1.0
14:56:35.967093,176273.28125,183963.625,198382.828125,175343.28125,177444.15625,196594.0625,687905.0,170757.765625,0.043212890625,0.985107421875,-0.229736328125,-1.3122557401657104,-0.3356933295726776,0.7934569716453552,100.0,96414.0,1.0
14:56:35.967150,176328.453125,183975.96875,198399.71875,175346.21875,177449.609375,196629.015625,687912.3125,170762.15625,0.04296875,0.986328125,-0.231201171875,-1.2512205839157104,-0.3051757514476776,0.8239745497703552,100.0,96415.0,1.0
14:56:35.968965,176352.046875,183991.609375,198414.203125,175353.28125,177462.671875,196673.71875,688011.875,170767.515625,0.0439453125,0.98486328125,-0.22802734375,-1.2512205839157104,-0.3967284858226776,0.8544921278953552,100.0,96416.0,1.0
14:56:35.972790,176312.453125,183982.84375,198405.890625,175359.640625,177464.453125,196650.484375,687984.9375,170774.84375,0.04296875,0.9833984375,-0.230712890625,-1.2817381620407104,-0.2746581733226776,0.8544921278953552,100.0,96417.0,1.0
14:56:35.983296,176284.46875,183968.640625,198392.03125,175360.53125,177454.890625,196608.015625,687929.125,170772.4375,0.04296875,0.984619140625,-0.22900390625,-1.2207030057907104,-0.3051757514476776,0.7324218153953552,100.0,96418.0,1.0
14:56:35.983335,176319.328125,183976.6875,198399.71875,175351.859375,177453.09375,196628.9375,687912.25,170765.375,0.04296875,0.985595703125,-0.229736328125,-1.1901854276657104,-0.2441406100988388,0.8544921278953552,100.0,96419.0,1.0
14:56:35.985676,176356.171875,183985.078125,198413.40625,175353.375,177459.984375,196666.21875,688014.8125,170768.9375,0.04345703125,0.984375,-0.22900390625,-1.2207030057907104,-0.2136230319738388,0.7324218153953552,100.0,96420.0,1.0
14:56:35.985688,176309.5,183974.796875,198402.59375,175356.0625,177457.125,196644.484375,687980.0,170771.09375,0.04541015625,0.98291015625,-0.2314453125,-1.2207030057907104,-0.1831054538488388,0.6713866591453552,100.0,96421.0,1.0
14:56:35.995292,176272.65625,183955.046875,198382.375,175342.015625,177443.796875,196594.421875,687922.625,170758.484375,0.044921875,0.983154296875,-0.233642578125,-1.3427733182907104,-0.1220703050494194,0.8239745497703552,100.0,96422.0,1.0
14:56:35.999565,176290.453125,183961.484375,198389.265625,175343.90625,177446.65625,196609.53125,687884.375,170761.34375,0.046142578125,0.984130859375,-0.230712890625,-1.2207030057907104,-0.0915527269244194,0.7019042372703552,100.0,96423.0,1.0
14:56:35.999578,176341.765625,183972.203125,198404.90625,175348.546875,177453.546875,196652.53125,687990.5,170766.265625,0.046875,0.982421875,-0.23193359375,-1.1901854276657104,0.0610351525247097,0.7629393935203552,100.0,96424.0,1.0
14:56:36.006357,176301.0,183966.75,198396.59375,175349.265625,177453.453125,196647.34375,687992.1875,170766.0,0.046630859375,0.9833984375,-0.234619140625,-1.1596678495407104,0.03051757626235485,0.7629393935203552,100.0,96425.0,1.0
14:56:36.010857,176264.34375,183945.828125,198374.328125,175341.75,177436.296875,196594.15625,687928.4375,170757.328125,0.04736328125,0.984375,-0.2333984375,-1.1291502714157104,0.0610351525247097,0.7019042372703552,100.0,96426.0,1.0
14:56:36.010926,176272.75,183955.046875,198380.5,175345.0625,177439.25,196601.296875,687885.25,170760.546875,0.046630859375,0.983154296875,-0.233154296875,-1.0986326932907104,0.1831054538488388,0.6713866591453552,100.0,96427.0,1.0
14:56:36.020092,176337.484375,183970.15625,198400.890625,175341.578125,177448.265625,196646.90625,687982.25,170770.640625,0.0439453125,0.9833984375,-0.231689453125,-1.0986326932907104,0.1831054538488388,0.6408690810203552,100.0,96428.0,1.0
14:56:36.024527,176302.796875,183967.65625,198393.015625,175340.59375,177447.921875,196651.8125,687994.875,170755.625,0.045166015625,0.983642578125,-0.229736328125,-1.1901854276657104,0.2441406100988388,0.7324218153953552,100.0,96429.0,1.0
14:56:36.024537,176262.203125,183940.203125,198368.515625,175332.09375,177430.921875,196593.609375,687937.375,170748.921875,0.045654296875,0.984619140625,-0.23095703125,-1.0986326932907104,0.2746581733226776,0.6408690810203552,100.0,96430.0,1.0
14:56:36.033970,176252.453125,183936.8125,198366.015625,175334.78125,177427.078125,196579.84375,687886.6875,170748.828125,0.04541015625,0.986572265625,-0.233154296875,-1.1291502714157104,0.2746581733226776,0.6408690810203552,100.0,96431.0,1.0
14:56:36.045682,176317.1875,183946.015625,198381.75,175330.484375,177428.609375,196619.984375,687949.875,170745.875,0.04541015625,0.9833984375,-0.2333984375,-1.1291502714157104,0.3967284858226776,0.6103515028953552,100.0,96432.0,1.0
14:56:36.045705,176299.21875,183953.796875,198383.625,175327.1875,177432.71875,196642.609375,688002.75,170741.9375,0.044921875,0.982421875,-0.23046875,-1.1291502714157104,0.3662109076976776,0.7019042372703552,100.0,96433.0,1.0
14:56:36.045712,176262.5625,183939.578125,198368.25,175330.046875,177426.453125,196598.796875,687943.1875,170746.6875,0.044921875,0.980712890625,-0.23291015625,-1.0070799589157104,0.3967284858226776,0.6408690810203552,100.0,96434.0,1.0
14:56:36.047665,176246.90625,183941.453125,198364.5,175328.796875,177424.40625,196582.703125,687891.9375,170743.109375,0.046142578125,0.981689453125,-0.229248046875,-1.0681151151657104,0.4577636420726776,0.7019042372703552,100.0,96435.0,1.0
14:56:36.056969,176312.890625,183955.21875,198384.53125,175326.375,177432.984375,196623.921875,687932.5625,170744.625,0.046142578125,0.982421875,-0.228515625,-0.9155272841453552,0.3967284858226776,0.7324218153953552,100.0,96436.0,1.0
14:56:36.056976,176317.984375,183969.796875,198395.4375,175327.8125,177448.09375,196661.390625,688012.9375,170747.84375,0.045654296875,0.98193359375,-0.230712890625,-0.9460448622703552,0.4577636420726776,0.7934569716453552,100.0,96437.0,1.0
14:56:36.063378,176278.03125,183958.796875,198383.90625,175332.28125,177444.515625,196627.140625,687961.875,170748.5625,0.0439453125,0.984375,-0.232666015625,-1.0375975370407104,0.4882812201976776,0.7934569716453552,100.0,96438.0,1.0
14:56:36.063391,176253.609375,183950.65625,198375.140625,175333.4375,177439.421875,196593.171875,687906.1875,170748.203125,0.044921875,0.9833984375,-0.23046875,-1.0070799589157104,0.5493163466453552,0.7629393935203552,100.0,96439.0,1.0
14:56:36.065724,176306.015625,183962.28125,198391.765625,175334.953125,177444.703125,196624.640625,687903.5625,170752.765625,0.046630859375,0.984375,-0.229736328125,-0.9765624403953552,0.6408690810203552,0.6713866591453552,100.0,96440.0,1.0
14:56:36.065734,176326.9375,183972.203125,198402.59375,175337.1875,177451.140625,196661.390625,687999.625,170754.90625,0.0439453125,0.985107421875,-0.231689453125,-0.9765624403953552,0.6408690810203552,0.7324218153953552,100.0,96441.0,1.0
14:56:36.071515,176291.96875,183967.46875,198397.40625,175349.984375,177452.390625,196638.9375,687961.9375,170764.03125,0.043212890625,0.983642578125,-0.23388671875,-1.0375975370407104,0.6103515028953552,0.6103515028953552,100.0,96442.0,1.0
14:56:36.076506,176262.109375,183949.5,198382.375,175350.6875,177441.921875,196591.015625,687916.8125,170763.21875,0.04345703125,0.98486328125,-0.23193359375,-1.0375975370407104,0.5798339247703552,0.5798339247703552,100.0,96443.0,1.0
14:56:36.086594,176301.1875,183961.03125,198394.359375,175347.921875,177445.046875,196613.46875,687888.0,170763.40625,0.04150390625,0.985107421875,-0.23095703125,-1.0375975370407104,0.5493163466453552,0.7324218153953552,100.0,96444.0,1.0
14:56:36.090795,176345.796875,183979.546875,198412.875,175352.21875,177456.59375,196661.65625,687996.375,170770.46875,0.041748046875,0.98583984375,-0.231201171875,-1.0681151151657104,0.5187987685203552,0.7324218153953552,100.0,96445.0,1.0
14:56:36.090873,176300.375,183973.8125,198403.390625,175355.078125,177455.609375,196648.328125,687982.375,170769.84375,0.04150390625,0.9853515625,-0.230712890625,-1.0375975370407104,0.5493163466453552,0.7629393935203552,100.0,96446.0,1.0
14:56:36.092776,176268.8125,183959.875,198384.96875,175344.53125,177443.71875,196601.578125,687923.9375,170752.765625,0.0419921875,0.984619140625,-0.232177734375,-1.1291502714157104,0.4577636420726776,0.7629393935203552,100.0,96447.0,1.0
14:56:36.138403,176294.296875,183974.359375,198399.375,175350.96875,177452.75,196622.578125,687879.875,170761.34375,0.04296875,0.983154296875,-0.232421875,-1.0375975370407104,0.3662109076976776,0.6408690810203552,100.0,96448.0,1.0
14:56:36.138491,176348.65625,183988.296875,198417.34375,175349.265625,177461.140625,196667.734375,687977.25,170762.328125,0.04296875,0.983642578125,-0.234375,-1.0070799589157104,0.3662109076976776,0.7629393935203552,100.0,96449.0,1.0
14:56:36.140867,176312.359375,183989.203125,198413.5,175351.5,177465.265625,196668.53125,687983.3125,170765.28125,0.042724609375,0.98583984375,-0.23388671875,-1.0375975370407104,0.4272460639476776,0.7019042372703552,100.0,96450.0,1.0
14:56:36.140937,176286.25,183975.15625,198402.859375,175358.296875,177461.0625,196623.921875,687940.0625,170774.84375,0.042724609375,0.985595703125,-0.231689453125,-1.1901854276657104,0.4272460639476776,0.7934569716453552,100.0,96451.0,1.0
14:56:36.140964,176285.53125,183974.453125,198400.984375,175351.59375,177457.21875,196620.96875,687885.0625,170767.875,0.04248046875,0.985595703125,-0.230224609375,-1.2207030057907104,0.3662109076976776,0.7324218153953552,100.0,96452.0,1.0
14:56:36.145776,176347.5,183987.140625,198415.28125,175350.515625,177460.96875,196664.25,687963.9375,170768.59375,0.04541015625,0.98583984375,-0.234619140625,-1.1596678495407104,0.2746581733226776,0.7324218153953552,100.0,96453.0,1.0
14:56:36.145835,176316.375,183988.390625,198411.34375,175356.953125,177464.015625,196672.390625,687995.5625,170770.90625,0.04443359375,0.98583984375,-0.23095703125,-1.1291502714157104,0.1831054538488388,0.7019042372703552,100.0,96454.0,1.0
14:56:36.145853,176283.65625,183969.265625,198393.734375,175360.796875,177452.921875,196621.421875,687948.75,170772.796875,0.042724609375,0.9853515625,-0.231689453125,-1.2207030057907104,0.2136230319738388,0.6713866591453552,100.0,96455.0,1.0
14:56:36.147718,176277.125,183969.4375,198390.703125,175360.078125,177450.234375,196610.328125,687895.375,170772.96875,0.041259765625,0.984619140625,-0.2333984375,-1.1596678495407104,0.1220703050494194,0.7934569716453552,100.0,96456.0,1.0
14:56:36.150200,176339.53125,183978.296875,198403.296875,175350.609375,177451.765625,196650.03125,687948.625,170769.03125,0.043212890625,0.982421875,-0.230712890625,-1.2512205839157104,0.1831054538488388,0.7629393935203552,100.0,96457.0,1.0
14:56:36.152792,176323.625,183983.921875,198405.71875,175356.0625,177459.359375,196671.578125,688005.875,170770.46875,0.043212890625,0.98291015625,-0.229736328125,-1.1596678495407104,0.1220703050494194,0.8239745497703552,100.0,96458.0,1.0
14:56:36.155198,176282.5,183964.96875,198386.40625,175346.765625,177448.890625,196625.09375,687950.8125,170764.5625,0.04296875,0.983154296875,-0.230712890625,-1.0681151151657104,0.0610351525247097,0.7934569716453552,100.0,96459.0,1.0
14:56:36.158278,176260.046875,183958.984375,198380.140625,175346.40625,177444.515625,196600.671875,687899.625,170764.5625,0.04443359375,0.983154296875,-0.232666015625,-1.0986326932907104,-0.03051757626235485,0.6408690810203552,100.0,96460.0,1.0
14:56:36.158333,176320.9375,183970.421875,198396.953125,175341.484375,177448.1875,196637.875,687925.75,170768.3125,0.043212890625,0.983642578125,-0.23388671875,-1.2207030057907104,0.03051757626235485,0.6713866591453552,100.0,96461.0,1.0
14:56:36.160106,176324.34375,183981.15625,198404.203125,175341.125,177454.625,196668.1875,687998.1875,170768.59375,0.044189453125,0.983642578125,-0.2314453125,-1.1596678495407104,0.03051757626235485,0.6713866591453552,100.0,96462.0,1.0
14:56:36.163162,176285.4375,183965.953125,198390.609375,175342.828125,177448.984375,196631.078125,687944.1875,170758.75,0.043212890625,0.9833984375,-0.23046875,-1.1596678495407104,-0.0610351525247097,0.6713866591453552,100.0,96463.0,1.0
14:56:36.165891,176267.296875,183961.125,198387.5625,175351.765625,177448.453125,196601.125,687899.0,170768.140625,0.0439453125,0.98486328125,-0.22900390625,-1.1901854276657104,0.0,0.7019042372703552,100.0,96464.0,1.0
14:56:36.165977,176321.75,183975.515625,198405.8125,175356.5,177454.890625,196632.859375,687910.1875,170775.109375,0.04443359375,0.984619140625,-0.231201171875,-1.1596678495407104,-0.03051757626235485,0.6103515028953552,100.0,96465.0,1.0
14:56:36.174017,176341.6875,183983.828125,198415.90625,175354.71875,177461.234375,196668.359375,688009.1875,170773.140625,0.045654296875,0.983154296875,-0.233154296875,-1.2817381620407104,0.0,0.6713866591453552,100.0,96466.0,1.0
14:56:36.178296,176300.375,183979.1875,198405.53125,175355.515625,177459.359375,196647.625,687972.9375,170773.0625,0.045166015625,0.984619140625,-0.232666015625,-1.2512205839157104,-0.1220703050494194,0.6713866591453552,100.0,96467.0,1.0
14:56:36.178381,176273.734375,183970.15625,198395.34375,175359.546875,177453.546875,196610.953125,687932.25,170773.5,0.04638671875,0.985595703125,-0.23388671875,-1.1901854276657104,-0.0610351525247097,0.5493163466453552,100.0,96468.0,1.0
14:56:36.188444,176307.890625,183979.90625,198406.703125,175356.328125,177458.375,196636.171875,687909.3125,170771.0,0.0458984375,0.985107421875,-0.234375,-1.3122557401657104,-0.03051757626235485,0.5187987685203552,100.0,96469.0,1.0
14:56:36.188532,176347.40625,183989.640625,198422.703125,175357.84375,177469.90625,196679.0,688019.875,170776.546875,0.045166015625,0.984130859375,-0.232177734375,-1.3427733182907104,-0.0610351525247097,0.5798339247703552,100.0,96470.0,1.0
14:56:36.190796,176301.09375,183979.453125,198408.3125,175358.921875,177462.3125,196659.0625,687991.8125,170774.125,0.046142578125,0.984130859375,-0.234619140625,-1.3122557401657104,-0.1220703050494194,0.6103515028953552,100.0,96471.0,1.0
14:56:36.190877,176271.765625,183962.546875,198390.609375,175356.5,177448.09375,196604.078125,687932.75,170770.28125,0.04736328125,0.983642578125,-0.234619140625,-1.2817381620407104,-0.0915527269244194,0.5798339247703552,100.0,96472.0,1.0
14:56:36.197665,176295.640625,183972.75,198401.609375,175357.046875,177455.96875,196623.75,687894.875,170774.40625,0.044921875,0.984375,-0.2353515625,-1.2207030057907104,-0.0610351525247097,0.6103515028953552,100.0,96473.0,1.0
14:56:36.204496,176344.1875,183980.4375,198412.515625,175353.375,177458.46875,196666.65625,687997.25,170773.140625,0.044921875,0.983642578125,-0.23779296875,-1.2207030057907104,0.03051757626235485,0.6103515028953552,100.0,96474.0,1.0
14:56:36.204530,176305.296875,183977.390625,198403.296875,175356.421875,177456.234375,196661.75,688006.1875,170771.0,0.0439453125,0.9833984375,-0.234130859375,-1.2817381620407104,-0.0610351525247097,0.5187987685203552,100.0,96475.0,1.0
14:56:36.206368,176273.375,183959.515625,198383.09375,175354.71875,177442.375,196607.734375,687953.3125,170767.6875,0.044921875,0.983154296875,-0.23486328125,-1.3427733182907104,0.0,0.5187987685203552,100.0,96476.0,1.0
14:56:36.216455,176266.140625,183954.6875,198376.5625,175345.59375,177433.15625,196600.046875,687895.375,170760.1875,0.043701171875,0.9833984375,-0.232177734375,-1.3122557401657104,0.0610351525247097,0.5187987685203552,100.0,96477.0,1.0
14:56:36.218822,176328.71875,183968.09375,198395.25,175344.171875,177441.203125,196645.65625,687993.3125,170765.375,0.0439453125,0.984375,-0.230712890625,-1.2817381620407104,0.0610351525247097,0.6408690810203552,100.0,96478.0,1.0
14:56:36.223250,176304.40625,183974.09375,198398.390625,175352.9375,177450.328125,196657.8125,688012.5,170771.453125,0.043212890625,0.984130859375,-0.233154296875,-1.2512205839157104,0.0915527269244194,0.5187987685203552,100.0,96479.0,1.0
14:56:36.223275,176278.109375,183957.640625,198385.0625,175361.78125,177442.28125,196605.78125,687944.25,170776.71875,0.043701171875,0.982177734375,-0.235107421875,-1.2512205839157104,0.0610351525247097,0.6713866591453552,100.0,96480.0,1.0
14:56:36.232602,176273.546875,183958.984375,198386.140625,175363.21875,177442.375,196595.046875,687893.5625,170778.59375,0.0439453125,0.98388671875,-0.233642578125,-1.1596678495407104,0.0610351525247097,0.5493163466453552,100.0,96481.0,1.0
14:56:36.237006,176332.921875,183965.953125,198397.9375,175354.8125,177442.734375,196631.875,687959.75,170779.234375,0.0439453125,0.9833984375,-0.234130859375,-1.2817381620407104,0.0610351525247097,0.5187987685203552,100.0,96482.0,1.0
14:56:36.237033,176313.703125,183968.984375,198396.328125,175351.046875,177446.578125,196651.015625,688008.4375,170764.296875,0.04443359375,0.9833984375,-0.233154296875,-1.2817381620407104,0.03051757626235485,0.4577636420726776,100.0,96483.0,1.0
14:56:36.243856,176282.5,183958.265625,198386.578125,175355.515625,177445.234375,196611.59375,687953.625,170771.8125,0.04443359375,0.984619140625,-0.231201171875,-1.1901854276657104,0.0610351525247097,0.4577636420726776,100.0,96484.0,1.0
14:56:36.253187,176266.140625,183956.921875,198383.453125,175355.515625,177443.984375,196592.984375,687902.9375,170771.453125,0.044677734375,0.983642578125,-0.236572265625,-1.1291502714157104,0.0915527269244194,0.3967284858226776,100.0,96485.0,1.0
14:56:36.253201,176327.203125,183967.65625,198399.1875,175353.828125,177448.625,196629.828125,687927.5625,170773.234375,0.0458984375,0.984130859375,-0.235107421875,-1.1596678495407104,0.0610351525247097,0.5187987685203552,100.0,96486.0,1.0
14:56:36.255656,176332.734375,183976.140625,198406.515625,175357.3125,177457.578125,196659.6875,688004.0,170775.375,0.0439453125,0.984375,-0.231689453125,-1.0681151151657104,0.03051757626235485,0.4882812201976776,100.0,96487.0,1.0
14:56:36.255668,176294.75,183962.640625,198395.078125,175364.015625,177454.171875,196624.546875,687958.5,170779.9375,0.044189453125,0.983154296875,-0.233154296875,-1.1291502714157104,0.03051757626235485,0.5493163466453552,100.0,96488.0,1.0
14:56:36.265157,176274.625,183956.03125,198391.046875,175367.6875,177453.640625,196595.5,687921.25,170781.640625,0.0439453125,0.98291015625,-0.2314453125,-1.1291502714157104,0.0610351525247097,0.5187987685203552,100.0,96489.0,1.0
14:56:36.269618,176322.546875,183967.65625,198405.171875,175366.078125,177458.828125,196627.765625,687914.125,170784.234375,0.0419921875,0.983642578125,-0.23291015625,-1.0070799589157104,0.0610351525247097,0.4882812201976776,100.0,96490.0,1.0
14:56:36.269640,176338.640625,183976.234375,198409.375,175361.15625,177461.6875,196663.359375,688002.1875,170778.421875,0.044189453125,0.982177734375,-0.235107421875,-1.0681151151657104,0.03051757626235485,0.6103515028953552,100.0,96491.0,1.0
14:56:36.279545,176290.984375,183963.265625,198390.875,175356.6875,177452.5625,196633.765625,687963.5625,170772.796875,0.04541015625,0.98193359375,-0.2314453125,-1.0070799589157104,0.0610351525247097,0.5798339247703552,100.0,96492.0,1.0
14:56:36.279571,176261.3125,183950.65625,198377.28125,175360.078125,177441.828125,196589.859375,687909.75,170774.046875,0.04296875,0.982177734375,-0.23486328125,-1.0375975370407104,0.1220703050494194,0.6103515028953552,100.0,96493.0,1.0
14:56:36.281449,176295.640625,183961.390625,198387.828125,175362.765625,177443.625,196611.859375,687878.5625,170776.640625,0.044189453125,0.9833984375,-0.234619140625,-1.0681151151657104,0.2136230319738388,0.6408690810203552,100.0,96494.0,1.0
14:56:36.287675,176339.171875,183975.078125,198402.046875,175358.65625,177450.421875,196655.84375,687984.9375,170773.421875,0.044921875,0.98193359375,-0.236083984375,-1.0070799589157104,0.0915527269244194,0.5798339247703552,100.0,96495.0,1.0
14:56:36.294638,176297.6875,183971.40625,198391.5,175353.375,177448.625,196645.5625,687973.25,170768.140625,0.04296875,0.982666015625,-0.233642578125,-0.9765624403953552,0.03051757626235485,0.6103515028953552,100.0,96496.0,1.0
14:56:36.294670,176265.15625,183953.703125,198375.59375,175354.0,177438.53125,196594.15625,687923.8125,170767.96875,0.04248046875,0.984130859375,-0.23291015625,-0.9765624403953552,0.1220703050494194,0.7019042372703552,100.0,96497.0,1.0
14:56:36.301931,176283.921875,183957.375,198382.828125,175357.046875,177440.3125,196602.203125,687879.875,170772.078125,0.04345703125,0.986328125,-0.2314453125,-1.0375975370407104,0.0915527269244194,0.5493163466453552,100.0,96498.0,1.0
14:56:36.301944,176337.84375,183965.859375,198399.28125,175356.15625,177445.953125,196645.5625,687992.4375,170773.953125,0.04345703125,0.984619140625,-0.2333984375,-0.9765624403953552,0.0915527269244194,0.5798339247703552,100.0,96499.0,1.0
14:56:36.309541,176296.890625,183963.453125,198393.109375,175351.765625,177447.203125,196645.46875,687989.875,170768.59375,0.044677734375,0.985107421875,-0.23291015625,-0.8850097060203552,0.1525878757238388,0.6103515028953552,100.0,96500.0,1.0
14:56:36.309554,176264.34375,183948.515625,198376.125,175350.609375,177437.09375,196596.390625,687932.75,170766.359375,0.043701171875,0.982177734375,-0.231689453125,-0.9460448622703552,0.1220703050494194,0.6408690810203552,100.0,96501.0,1.0
14:56:36.319566,176268.015625,183952.09375,198376.921875,175350.0625,177435.3125,196595.046875,687873.625,170765.015625,0.04345703125,0.982666015625,-0.235595703125,-0.9155272841453552,0.1525878757238388,0.6713866591453552,100.0,96502.0,1.0
14:56:36.319590,176336.859375,183971.046875,198399.1875,175351.953125,177444.875,196643.765625,687969.0,170768.9375,0.042236328125,0.98388671875,-0.23388671875,-0.8239745497703552,0.03051757626235485,0.5493163466453552,100.0,96503.0,1.0
14:56:36.321338,176314.59375,183979.09375,198404.015625,175359.90625,177455.78125,196658.875,687999.125,170772.25,0.04150390625,0.982666015625,-0.234619140625,-0.8850097060203552,0.1220703050494194,0.5187987685203552,100.0,96504.0,1.0
14:56:36.323858,176279.359375,183959.96875,198387.203125,175362.859375,177447.203125,196609.890625,687934.25,170776.8125,0.042724609375,0.982666015625,-0.23388671875,-0.8850097060203552,0.1831054538488388,0.6103515028953552,100.0,96505.0,1.0
14:56:36.335117,176265.59375,183954.859375,198382.015625,175366.4375,177443.4375,196596.46875,687882.5625,170785.3125,0.041748046875,0.980712890625,-0.234375,-0.9155272841453552,0.1525878757238388,0.6408690810203552,100.0,96506.0,1.0
14:56:36.340058,176319.59375,183956.75,198389.09375,175349.171875,177439.953125,196630.0,687950.1875,170769.296875,0.042236328125,0.980712890625,-0.232666015625,-0.9155272841453552,0.2441406100988388,0.6408690810203552,100.0,96507.0,1.0
14:56:36.340080,176311.28125,183967.734375,198395.25,175353.203125,177448.359375,196655.125,688006.6875,170765.90625,0.04296875,0.9814453125,-0.231689453125,-0.9460448622703552,0.2136230319738388,0.5493163466453552,100.0,96508.0,1.0
14:56:36.340086,176281.875,183959.25,198385.234375,175358.734375,177443.796875,196616.859375,687944.6875,170771.625,0.043212890625,0.983154296875,-0.23291015625,-0.9155272841453552,0.1220703050494194,0.6408690810203552,100.0,96509.0,1.0
14:56:36.342573,176272.03125,183961.65625,198386.3125,175365.453125,177446.125,196601.390625,687899.125,170776.09375,0.04296875,0.9833984375,-0.232421875,-1.0070799589157104,0.0915527269244194,0.6713866591453552,100.0,96510.0,1.0
14:56:36.346380,176334.34375,183975.078125,198404.375,175361.421875,177451.3125,196640.734375,687934.625,170776.359375,0.042724609375,0.982421875,-0.232421875,-0.8544921278953552,0.0915527269244194,0.7629393935203552,100.0,96511.0,1.0
14:56:36.360322,176342.578125,183986.15625,198415.546875,175368.046875,177462.484375,196674.625,688014.6875,170780.390625,0.044921875,0.981689453125,-0.234619140625,-0.8544921278953552,0.1220703050494194,0.7019042372703552,100.0,96512.0,1.0
14:56:36.363294,176304.3125,183977.9375,198403.125,175370.1875,177459.265625,196642.96875,687968.75,170783.609375,0.04541015625,0.983642578125,-0.23583984375,-0.8850097060203552,0.1831054538488388,0.6713866591453552,100.0,96513.0,1.0
14:56:36.363334,176285.265625,183976.859375,198401.0625,175377.78125,177460.609375,196617.84375,687920.0,170790.484375,0.044677734375,0.98388671875,-0.234130859375,-0.8850097060203552,0.1525878757238388,0.6713866591453552,100.0,96514.0,1.0
14:56:36.390156,176328.09375,183978.828125,198407.421875,175372.875,177459.890625,196643.0625,687929.3125,170787.8125,0.0439453125,0.984130859375,-0.23583984375,-0.9460448622703552,0.1220703050494194,0.7324218153953552,100.0,96515.0,1.0
14:56:36.392666,176340.4375,183978.203125,198405.984375,175365.890625,177458.734375,196671.046875,688013.625,170782.359375,0.045166015625,0.982666015625,-0.236083984375,-0.9460448622703552,0.1525878757238388,0.6713866591453552,100.0,96516.0,1.0
14:56:36.395110,176282.671875,183956.46875,198379.4375,175349.796875,177443.625,196635.90625,687959.75,170770.109375,0.043701171875,0.983642578125,-0.238037109375,-0.9155272841453552,0.1831054538488388,0.7019042372703552,100.0,96517.0,1.0
14:56:36.397630,176258.09375,183948.34375,198370.578125,175354.625,177438.171875,196596.828125,687918.125,170773.6875,0.044189453125,0.984130859375,-0.232177734375,-0.8850097060203552,0.1220703050494194,0.7934569716453552,100.0,96518.0,1.0
14:56:36.400663,176296.984375,183961.84375,198383.984375,175357.40625,177442.1875,196622.40625,687886.0625,170772.796875,0.044921875,0.984375,-0.23291015625,-0.9155272841453552,0.2441406100988388,0.7934569716453552,100.0,96519.0,1.0
14:56:36.400671,176336.046875,183970.25,198397.484375,175360.265625,177446.65625,196662.546875,687984.5,170772.609375,0.045166015625,0.983642578125,-0.234130859375,-0.9155272841453552,0.1831054538488388,0.7019042372703552,100.0,96520.0,1.0
14:56:36.402625,176292.953125,183963.71875,198388.28125,175360.265625,177443.71875,196647.53125,687962.25,170769.390625,0.043212890625,0.984130859375,-0.236328125,-1.0070799589157104,0.1525878757238388,0.7019042372703552,100.0,96521.0,1.0
14:56:36.405104,176266.40625,183950.125,198375.046875,175362.671875,177433.78125,196599.609375,687924.875,170768.9375,0.04443359375,0.984375,-0.23681640625,-0.9765624403953552,0.1831054538488388,0.7019042372703552,100.0,96522.0,1.0
14:56:36.407705,176290.265625,183959.609375,198384.078125,175366.96875,177436.03125,196612.296875,687880.6875,170773.6875,0.043701171875,0.985107421875,-0.23681640625,-1.0070799589157104,0.2441406100988388,0.7629393935203552,100.0,96523.0,1.0
14:56:36.410068,176344.625,183969.171875,198396.78125,175359.015625,177437.640625,196651.46875,687996.8125,170770.640625,0.044921875,0.986328125,-0.2333984375,-0.9765624403953552,0.2441406100988388,0.8239745497703552,100.0,96524.0,1.0
14:56:36.412727,176306.640625,183968.09375,198389.890625,175360.53125,177438.796875,196646.71875,687995.0625,170770.203125,0.04443359375,0.986328125,-0.234375,-0.9765624403953552,0.2136230319738388,0.6408690810203552,100.0,96525.0,1.0
14:56:36.415706,176271.140625,183947.984375,198369.59375,175352.9375,177425.03125,196591.734375,687934.9375,170768.234375,0.04541015625,0.985595703125,-0.237548828125,-1.0375975370407104,0.3051757514476776,0.6713866591453552,100.0,96526.0,1.0
14:56:36.415713,176276.859375,183957.015625,198376.296875,175356.6875,177430.296875,196596.828125,687884.25,170779.40625,0.044189453125,0.9853515625,-0.23828125,-1.1291502714157104,0.2746581733226776,0.6103515028953552,100.0,96527.0,1.0
14:56:36.421924,176336.9375,183967.109375,198392.125,175351.328125,177436.375,196643.234375,687984.3125,170766.0,0.0458984375,0.98388671875,-0.236572265625,-1.0986326932907104,0.2441406100988388,0.6408690810203552,100.0,96528.0,1.0
14:56:36.421930,176308.875,183971.859375,198393.015625,175355.96875,177443.984375,196659.421875,688018.1875,170769.21875,0.046875,0.980224609375,-0.234619140625,-1.1291502714157104,0.2746581733226776,0.6103515028953552,100.0,96529.0,1.0
14:56:36.423822,176268.453125,183950.65625,198372.8125,175355.96875,177433.703125,196609.625,687957.75,170771.8125,0.045654296875,0.9794921875,-0.231689453125,-1.1291502714157104,0.3051757514476776,0.5187987685203552,100.0,96530.0,1.0
14:56:36.432631,176255.140625,183945.75,198366.90625,175358.296875,177430.484375,196594.953125,687901.875,170772.34375,0.046142578125,0.98046875,-0.233642578125,-1.1901854276657104,0.2746581733226776,0.4272460639476776,100.0,96531.0,1.0
14:56:36.439486,176314.140625,183949.328125,198378.453125,175351.234375,177429.59375,196628.484375,687955.8125,170770.109375,0.044921875,0.98046875,-0.236328125,-1.1291502714157104,0.4272460639476776,0.4882812201976776,100.0,96532.0,1.0
14:56:36.439506,176300.5625,183954.15625,198378.71875,175349.984375,177431.546875,196649.578125,688014.1875,170766.53125,0.046142578125,0.982177734375,-0.237060546875,-1.1901854276657104,0.4577636420726776,0.4882812201976776,100.0,96533.0,1.0
14:56:36.441986,176266.40625,183942.890625,198365.84375,175352.65625,177423.78125,196608.453125,687954.1875,170770.734375,0.0458984375,0.982177734375,-0.236083984375,-1.0681151151657104,0.3967284858226776,0.5798339247703552,100.0,96534.0,1.0
14:56:36.442002,176249.6875,183941.359375,198363.78125,175352.390625,177421.359375,196587.796875,687897.125,170769.03125,0.045166015625,0.98095703125,-0.23876953125,-1.1596678495407104,0.3967284858226776,0.5798339247703552,100.0,96535.0,1.0
14:56:36.451436,176308.15625,183949.40625,198377.546875,175345.421875,177421.984375,196619.546875,687927.875,170764.109375,0.044189453125,0.982177734375,-0.23828125,-1.0375975370407104,0.3967284858226776,0.6103515028953552,100.0,96536.0,1.0
