Timestamp,Fz,FC3,FCz,FC4,Cz,C3,C4
15:06:31.551028,176286.34375,179543.875,194315.703125,172222.078125,165881.328125,191309.390625,688971.625,174058.5,0.067626953125,0.98046875,-0.21728515625,-1.9836424589157104,0.1220703050494194,0.1525878757238388,100.0,245403.0,1.0
15:06:31.551040,176288.9375,179546.75,194318.5625,172219.65625,165883.390625,191307.609375,688746.5,174060.90625,0.068115234375,0.98095703125,-0.218994140625,-1.8920897245407104,0.1831054538488388,0.1831054538488388,100.0,245404.0,1.0
15:06:31.553508,176374.765625,179566.0625,194337.96875,172209.734375,165889.46875,191367.953125,688920.5,174058.9375,0.06640625,0.980712890625,-0.21728515625,-1.8005369901657104,0.2441406100988388,0.1220703050494194,100.0,245405.0,1.0
15:06:31.553517,176361.171875,179579.28125,194342.265625,172216.53125,165898.140625,191395.046875,689120.4375,174064.046875,0.065185546875,0.98095703125,-0.21826171875,-1.5258787870407104,0.3051757514476776,0.2136230319738388,100.0,245406.0,1.0
15:06:31.564165,176296.625,179555.234375,194317.3125,172212.953125,165882.234375,191323.515625,689009.25,174050.625,0.066650390625,0.97998046875,-0.221435546875,-1.4648436307907104,0.3356933295726776,0.3051757514476776,100.0,245407.0,1.0
15:06:31.568036,176273.546875,179549.609375,194309.796875,172208.578125,165877.484375,191307.0625,688751.875,174045.984375,0.068359375,0.978271484375,-0.2197265625,-1.3122557401657104,0.3051757514476776,0.2441406100988388,100.0,245408.0,1.0
15:06:31.568053,176352.328125,179556.21875,194325.71875,172203.5625,165879.453125,191353.46875,688849.4375,174046.96875,0.066162109375,0.9794921875,-0.218505859375,-1.0986326932907104,0.3356933295726776,0.1831054538488388,100.0,245409.0,1.0
15:06:31.572927,176355.09375,179560.25,194331.0,172207.6875,165885.984375,191375.015625,689089.5,174051.25,0.062744140625,0.98291015625,-0.215087890625,-0.9155272841453552,0.1525878757238388,0.2746581733226776,100.0,245410.0,1.0
15:06:31.584756,176291.609375,179538.96875,194309.796875,172208.671875,165877.3125,191319.140625,689015.6875,174052.328125,0.060546875,0.98291015625,-0.216064453125,-0.7934569716453552,0.1220703050494194,0.2136230319738388,100.0,245411.0,1.0
15:06:31.584766,176261.84375,179539.40625,194301.75,172207.765625,165874.8125,191293.84375,688761.875,174049.28125,0.060546875,0.982421875,-0.2177734375,-0.7934569716453552,0.03051757626235485,0.3356933295726776,100.0,245412.0,1.0
15:06:31.586674,176336.5,179554.25,194319.734375,172202.671875,165879.71875,191343.90625,688780.3125,174047.5,0.060791015625,0.98193359375,-0.21875,-0.6103515028953552,0.03051757626235485,0.3356933295726776,100.0,245413.0,1.0
15:06:31.589148,176368.421875,179566.140625,194337.34375,172208.671875,165893.140625,191383.609375,689047.5625,174058.046875,0.061767578125,0.983642578125,-0.220458984375,-0.5798339247703552,0.0,0.3356933295726776,100.0,245414.0,1.0
15:06:31.595366,176307.078125,179548.703125,194321.0625,172210.0,165886.703125,191334.609375,689039.125,174061.0,0.059326171875,0.984375,-0.220947265625,-0.5493163466453552,-0.1220703050494194,0.3662109076976776,100.0,245415.0,1.0
15:06:31.599849,176255.671875,179527.96875,194303.1875,172204.90625,165875.25,191283.203125,688819.0,174055.015625,0.06103515625,0.986083984375,-0.2197265625,-0.4882812201976776,-0.1525878757238388,0.3662109076976776,100.0,245416.0,1.0
15:06:31.599920,176321.203125,179546.75,194324.828125,172209.921875,165884.546875,191324.765625,688737.5,174061.984375,0.06005859375,0.98681640625,-0.218994140625,-0.4272460639476776,-0.2746581733226776,0.3051757514476776,100.0,245417.0,1.0
15:06:31.634143,176372.609375,179569.546875,194341.8125,172216.53125,165895.640625,191382.703125,689021.6875,174073.25,0.062744140625,0.98486328125,-0.219970703125,-0.3662109076976776,-0.3356933295726776,0.3662109076976776,100.0,245418.0,1.0
15:06:31.637855,176314.234375,179539.0625,194322.59375,172217.0625,165888.671875,191335.140625,689071.9375,174066.546875,0.06201171875,0.9853515625,-0.221435546875,-0.3051757514476776,-0.3051757514476776,0.1831054538488388,100.0,245419.0,1.0
15:06:31.637866,176256.203125,179526.265625,194300.765625,172204.015625,165875.25,191281.140625,688867.0,174052.0625,0.06298828125,0.98583984375,-0.2236328125,-0.3051757514476776,-0.3356933295726776,0.3356933295726776,100.0,245420.0,1.0
15:06:31.637870,176300.640625,179547.375,194317.84375,172206.078125,165882.3125,191315.390625,688721.0,174057.421875,0.062255859375,0.9853515625,-0.2236328125,-0.2746581733226776,-0.3662109076976776,0.4272460639476776,100.0,245421.0,1.0
15:06:31.640408,176365.28125,179561.9375,194333.5,172200.171875,165887.140625,191377.96875,688979.5,174054.203125,0.063232421875,0.98681640625,-0.220703125,-0.2746581733226776,-0.4272460639476776,0.4577636420726776,100.0,245422.0,1.0
15:06:31.642966,176315.84375,179545.84375,194317.671875,172196.421875,165881.78125,191354.8125,689077.875,174049.90625,0.063232421875,0.987548828125,-0.22216796875,-0.3051757514476776,-0.4272460639476776,0.5493163466453552,100.0,245423.0,1.0
15:06:31.645418,176257.375,179524.484375,194296.484375,172198.109375,165870.609375,191283.46875,688904.6875,174048.921875,0.0625,0.988525390625,-0.219970703125,-0.3051757514476776,-0.5798339247703552,0.5493163466453552,100.0,245424.0,1.0
15:06:31.647904,176279.640625,179537.625,194306.40625,172200.0,165874.984375,191302.421875,688700.75,174051.078125,0.062744140625,0.988525390625,-0.22119140625,-0.5798339247703552,-0.5493163466453552,0.5493163466453552,100.0,245425.0,1.0
15:06:31.650435,176369.75,179565.78125,194336.359375,172210.1875,165891.25,191367.859375,688935.0,174061.890625,0.061767578125,0.98779296875,-0.218994140625,-0.6103515028953552,-0.6408690810203552,0.5798339247703552,100.0,245426.0,1.0
15:06:31.652981,176343.46875,179565.609375,194337.078125,172221.1875,165898.046875,191372.875,689088.125,174068.0625,0.063232421875,0.987548828125,-0.2197265625,-0.7324218153953552,-0.5798339247703552,0.5187987685203552,100.0,245427.0,1.0
15:06:31.655434,176288.84375,179549.609375,194324.28125,172223.953125,165894.125,191311.890625,688943.75,174069.9375,0.06298828125,0.98828125,-0.22119140625,-0.8544921278953552,-0.5798339247703552,0.4577636420726776,100.0,245428.0,1.0
15:06:31.658144,176289.203125,179557.203125,194327.953125,172224.046875,165895.453125,191311.1875,688702.9375,174070.125,0.065673828125,0.98486328125,-0.22314453125,-0.9460448622703552,-0.6408690810203552,0.4882812201976776,100.0,245429.0,1.0
15:06:31.660421,176376.109375,179574.546875,194348.703125,172222.96875,165900.734375,191368.40625,688857.625,174072.171875,0.068115234375,0.984130859375,-0.224853515625,-1.0070799589157104,-0.4882812201976776,0.7019042372703552,100.0,245430.0,1.0
15:06:31.662991,176362.78125,179576.6875,194347.890625,172223.59375,165902.078125,191386.46875,689054.0625,174069.578125,0.069580078125,0.985107421875,-0.229736328125,-0.9765624403953552,-0.3662109076976776,0.7019042372703552,100.0,245431.0,1.0
15:06:31.665429,176299.03125,179551.65625,194324.109375,172219.484375,165887.953125,191321.375,688954.1875,174064.390625,0.070068359375,0.988037109375,-0.230712890625,-0.9765624403953552,-0.4272460639476776,0.7629393935203552,100.0,245432.0,1.0
15:06:31.672308,176290.1875,179562.65625,194330.453125,172231.734375,165896.265625,191314.046875,688718.0625,174077.265625,0.070556640625,0.989013671875,-0.224609375,-1.0070799589157104,-0.3662109076976776,0.7629393935203552,100.0,245433.0,1.0
15:06:31.672365,176376.546875,179583.125,194352.8125,172227.890625,165903.0625,191375.203125,688805.8125,174072.984375,0.071044921875,0.98779296875,-0.224609375,-1.1596678495407104,-0.3356933295726776,0.7934569716453552,100.0,245434.0,1.0
15:06:31.674192,176378.96875,179581.171875,194355.84375,172226.640625,165907.265625,191392.09375,689043.6875,174072.09375,0.068603515625,0.985107421875,-0.21923828125,-1.2207030057907104,-0.3356933295726776,0.7934569716453552,100.0,245435.0,1.0
15:06:31.677989,176313.875,179560.875,194333.140625,172223.421875,165896.359375,191337.734375,688998.75,174068.234375,0.06640625,0.984619140625,-0.2197265625,-1.2512205839157104,-0.2441406100988388,0.7019042372703552,100.0,245436.0,1.0
15:06:31.703484,176279.8125,179555.421875,194322.5,172224.21875,165889.5625,191303.9375,688757.6875,174066.09375,0.067138671875,0.98486328125,-0.223876953125,-1.4343260526657104,-0.1525878757238388,0.6103515028953552,100.0,245437.0,1.0
15:06:31.703521,176350.53125,179565.515625,194335.546875,172217.15625,165888.484375,191346.5,688770.125,174063.234375,0.0673828125,0.984130859375,-0.224609375,-1.5563963651657104,-0.1525878757238388,0.5493163466453552,100.0,245438.0,1.0
15:06:31.706016,176382.8125,179577.859375,194353.171875,172230.578125,165902.96875,191392.453125,689034.0625,174075.21875,0.06689453125,0.9853515625,-0.22314453125,-1.5869139432907104,-0.1220703050494194,0.5187987685203552,100.0,245439.0,1.0
15:06:31.706038,176319.6875,179555.0625,194329.46875,172223.6875,165889.46875,191339.34375,689025.375,174068.328125,0.06591796875,0.9853515625,-0.224365234375,-1.6479490995407104,-0.0610351525247097,0.3967284858226776,100.0,245440.0,1.0
15:06:31.707923,176267.921875,179534.5,194309.265625,172217.34375,165875.25,191285.171875,688800.4375,174059.125,0.066650390625,0.986328125,-0.221435546875,-1.7395018339157104,0.0915527269244194,0.2746581733226776,100.0,245441.0,1.0
15:06:31.710385,176332.109375,179552.90625,194329.03125,172218.953125,165881.15625,191325.046875,688725.5,174063.0625,0.0654296875,0.98583984375,-0.2236328125,-1.7700194120407104,0.0,0.1831054538488388,100.0,245442.0,1.0
15:06:31.713109,176386.65625,179571.59375,194349.671875,172224.765625,165891.25,191378.328125,689005.875,174069.5,0.067138671875,0.988037109375,-0.223388671875,-1.8920897245407104,0.1220703050494194,0.0915527269244194,100.0,245443.0,1.0
15:06:31.715429,176336.234375,179564.09375,194339.21875,172228.78125,165888.84375,191349.625,689055.125,174072.171875,0.068115234375,0.98779296875,-0.2255859375,-1.9531248807907104,0.1220703050494194,0.0610351525247097,100.0,245444.0,1.0
15:06:31.718066,176281.875,179548.796875,194321.0625,172228.0625,165878.390625,191292.671875,688851.375,174069.578125,0.067138671875,0.98779296875,-0.22412109375,-1.9531248807907104,0.1525878757238388,0.03051757626235485,100.0,245445.0,1.0
15:06:31.720543,176319.859375,179555.0625,194330.015625,172224.046875,165879.359375,191315.390625,688706.5625,174067.796875,0.068115234375,0.988037109375,-0.225830078125,-2.044677495956421,0.1831054538488388,-0.03051757626235485,100.0,245446.0,1.0
15:06:31.727311,176390.3125,179576.0625,194351.375,172228.515625,165891.4375,191379.484375,688984.875,174075.9375,0.06689453125,0.98681640625,-0.2255859375,-2.105712652206421,0.1831054538488388,0.0610351525247097,100.0,245447.0,1.0
15:06:31.727318,176350.0,179574.90625,194346.640625,172236.5625,165897.15625,191371.984375,689078.3125,174083.0,0.0673828125,0.987548828125,-0.22412109375,-2.105712652206421,0.2746581733226776,0.0,100.0,245448.0,1.0
15:06:31.762388,176285.359375,179547.015625,194321.515625,172228.609375,165883.125,191303.84375,688896.625,174074.40625,0.068115234375,0.987060546875,-0.224365234375,-2.197265386581421,0.3662109076976776,0.03051757626235485,100.0,245449.0,1.0
15:06:31.762454,176313.34375,179558.546875,194337.15625,172237.546875,165891.796875,191320.21875,688699.75,174083.984375,0.066162109375,0.987060546875,-0.2255859375,-2.319335699081421,0.3662109076976776,0.1220703050494194,100.0,245450.0,1.0
15:06:31.764805,176387.375,179570.703125,194350.125,172227.890625,165890.09375,191373.671875,688936.0625,174074.59375,0.066162109375,0.9853515625,-0.224365234375,-2.380370855331421,0.4577636420726776,0.0915527269244194,100.0,245451.0,1.0
15:06:31.764850,176350.984375,179565.96875,194340.109375,172226.71875,165888.9375,191372.78125,689087.0625,174072.53125,0.06640625,0.984375,-0.2236328125,-2.380370855331421,0.4272460639476776,0.1831054538488388,100.0,245452.0,1.0
15:06:31.772226,176293.671875,179547.015625,194322.859375,172226.375,165884.734375,191313.78125,688938.375,174074.140625,0.06787109375,0.985107421875,-0.222412109375,-2.410888433456421,0.5493163466453552,0.2136230319738388,100.0,245453.0,1.0
15:06:31.772269,176293.84375,179554.609375,194328.046875,172230.125,165889.109375,191316.015625,688707.4375,174078.25,0.067626953125,0.9833984375,-0.221923828125,-2.502441167831421,0.6103515028953552,0.2136230319738388,100.0,245454.0,1.0
15:06:31.772281,176370.921875,179566.0625,194343.328125,172218.953125,165889.203125,191367.953125,688875.875,174074.765625,0.064697265625,0.985107421875,-0.220947265625,-2.563476324081421,0.7324218153953552,0.3051757514476776,100.0,245455.0,1.0
15:06:31.772292,176358.40625,179572.046875,194347.796875,172224.140625,165899.21875,191388.15625,689080.8125,174078.25,0.063720703125,0.98681640625,-0.220458984375,-2.532958745956421,0.7324218153953552,0.3662109076976776,100.0,245456.0,1.0
15:06:31.777977,176300.015625,179551.921875,194330.453125,172228.96875,165892.6875,191326.296875,688986.1875,174080.40625,0.061279296875,0.989501953125,-0.219482421875,-2.655029058456421,0.6408690810203552,0.3051757514476776,100.0,245457.0,1.0
15:06:31.778053,176280.265625,179548.53125,194323.84375,172228.609375,165884.375,191301.53125,688739.625,174076.640625,0.06103515625,0.989013671875,-0.225830078125,-2.685546636581421,0.7324218153953552,0.4577636420726776,100.0,245458.0,1.0
15:06:31.778082,176364.65625,179565.15625,194344.671875,172226.28125,165889.109375,191354.28125,688826.625,174077.1875,0.06103515625,0.98828125,-0.22412109375,-2.929687261581421,0.7629393935203552,0.3967284858226776,100.0,245459.0,1.0
15:06:31.780482,176369.390625,179575.078125,194349.765625,172225.03125,165895.90625,191386.28125,689064.1875,174076.109375,0.060546875,0.98876953125,-0.222900390625,-2.960204839706421,0.7324218153953552,0.4577636420726776,100.0,245460.0,1.0
15:06:31.782994,176315.3125,179561.671875,194337.609375,172237.0,165894.296875,191335.40625,689013.625,174085.671875,0.06103515625,0.989501953125,-0.21875,-2.960204839706421,0.7019042372703552,0.4577636420726776,100.0,245461.0,1.0
15:06:31.788117,176281.59375,179554.796875,194328.578125,172238.53125,165890.28125,191301.4375,688768.9375,174086.296875,0.061279296875,0.990478515625,-0.220703125,-3.143310308456421,0.6713866591453552,0.3356933295726776,100.0,245462.0,1.0
15:06:31.790433,176350.53125,179565.875,194341.0,172230.75,165890.71875,191342.5625,688777.4375,174082.546875,0.06201171875,0.989990234375,-0.22265625,-3.295898199081421,0.5798339247703552,0.3051757514476776,100.0,245463.0,1.0
15:06:31.792895,176377.265625,179575.71875,194349.59375,172234.59375,165900.640625,191386.015625,689047.625,174087.375,0.06298828125,0.991455078125,-0.225341796875,-3.387450933456421,0.6408690810203552,0.3967284858226776,100.0,245464.0,1.0
15:06:31.795475,176313.78125,179556.9375,194326.4375,172230.21875,165889.296875,191339.25,689035.125,174079.5,0.0615234375,0.9912109375,-0.22216796875,-3.509521245956421,0.6408690810203552,0.3967284858226776,100.0,245465.0,1.0
15:06:31.798031,176267.5625,179546.296875,194311.859375,172230.578125,165881.515625,191294.640625,688803.25,174076.828125,0.06298828125,0.990478515625,-0.223876953125,-3.753661870956421,0.7324218153953552,0.3662109076976776,100.0,245466.0,1.0
15:06:31.807350,176328.984375,179558.8125,194328.3125,172231.015625,165885.796875,191331.203125,688737.1875,174081.46875,0.0634765625,0.99072265625,-0.2216796875,-3.875732183456421,0.7934569716453552,0.3662109076976776,100.0,245467.0,1.0
15:06:31.807440,176377.265625,179574.109375,194340.828125,172226.28125,165890.71875,191381.640625,689019.625,174075.484375,0.06396484375,0.99072265625,-0.2177734375,-3.906249761581421,0.7934569716453552,0.4272460639476776,100.0,245468.0,1.0
15:06:31.817241,176324.34375,179562.21875,194327.140625,172225.203125,165886.78125,191353.109375,689062.1875,174072.265625,0.064208984375,0.991943359375,-0.218505859375,-4.150390148162842,0.7629393935203552,0.4577636420726776,100.0,245469.0,1.0
15:06:31.817259,176276.5,179551.390625,194316.515625,172227.0,165884.015625,191303.578125,688857.8125,174075.125,0.06591796875,0.991455078125,-0.21923828125,-4.180907726287842,0.7934569716453552,0.4272460639476776,100.0,245470.0,1.0
15:06:31.819756,176321.5625,179564.796875,194332.515625,172229.5,165890.90625,191333.359375,688710.5625,174079.5,0.0654296875,0.988525390625,-0.21630859375,-4.241942882537842,0.7629393935203552,0.4882812201976776,100.0,245471.0,1.0
15:06:31.819776,176394.703125,179584.109375,194355.84375,172233.515625,165903.328125,191393.265625,688969.125,174085.59375,0.065185546875,0.985107421875,-0.216552734375,-4.272460460662842,0.8544921278953552,0.4272460639476776,100.0,245472.0,1.0
15:06:31.826720,176361.4375,179587.609375,194356.734375,172245.328125,165911.734375,191389.59375,689091.0625,174094.078125,0.066162109375,0.98583984375,-0.218017578125,-4.364013195037842,0.8544921278953552,0.4577636420726776,100.0,245473.0,1.0
15:06:31.833504,176303.328125,179569.09375,194336.359375,172244.875,165899.484375,191325.390625,688921.75,174090.140625,0.067138671875,0.983154296875,-0.2197265625,-4.394530773162842,0.9765624403953552,0.4577636420726776,100.0,245474.0,1.0
15:06:31.833536,176317.90625,179572.765625,194340.015625,172241.296875,165897.875,191334.34375,688714.4375,174088.625,0.064697265625,0.983154296875,-0.220947265625,-4.425048351287842,0.9155272841453552,0.5493163466453552,100.0,245475.0,1.0
15:06:31.839838,176395.328125,179581.875,194356.203125,172235.484375,165900.28125,191386.734375,688945.5,174085.5,0.064697265625,0.982421875,-0.218994140625,-4.394530773162842,0.9460448622703552,0.5187987685203552,100.0,245476.0,1.0
15:06:31.839860,176362.515625,179578.296875,194348.515625,172235.21875,165899.84375,191386.015625,689099.1875,174082.375,0.064697265625,0.9833984375,-0.214111328125,-4.333495616912842,1.0070799589157104,0.6103515028953552,100.0,245477.0,1.0
15:06:31.846872,176302.4375,179562.484375,194328.484375,172237.71875,165889.375,191324.765625,688954.9375,174083.53125,0.064697265625,0.982421875,-0.217529296875,-4.302978038787842,1.0070799589157104,0.6103515028953552,100.0,245478.0,1.0
15:06:31.853582,176293.046875,179561.5,194322.953125,172229.5,165881.78125,191316.453125,688716.8125,174076.109375,0.064697265625,0.983154296875,-0.21728515625,-4.333495616912842,0.9460448622703552,0.6103515028953552,100.0,245479.0,1.0
15:06:31.853618,176380.390625,179574.640625,194344.9375,172228.25,165886.96875,191370.28125,688883.3125,174077.8125,0.062744140625,0.9814453125,-0.218017578125,-4.211425304412842,0.9460448622703552,0.4882812201976776,100.0,245480.0,1.0
15:06:31.855558,176375.203125,179586.171875,194354.5,172236.375,165899.578125,191394.59375,689097.0625,174084.15625,0.06201171875,0.979736328125,-0.21728515625,-4.211425304412842,0.9155272841453552,0.4272460639476776,100.0,245481.0,1.0
15:06:31.867443,176310.03125,179564.265625,194330.28125,172229.765625,165886.875,191331.921875,688985.25,174077.890625,0.061279296875,0.97998046875,-0.21533203125,-4.089354991912842,0.8239745497703552,0.4882812201976776,100.0,245482.0,1.0
15:06:31.867514,176289.46875,179559.703125,194324.375,172229.234375,165882.234375,191308.953125,688733.75,174075.9375,0.060791015625,0.979736328125,-0.21630859375,-3.936767339706421,1.0070799589157104,0.4882812201976776,100.0,245483.0,1.0
15:06:31.873719,176369.21875,179567.578125,194340.65625,172224.765625,165883.5625,191352.484375,688820.6875,174074.40625,0.0615234375,0.98046875,-0.2177734375,-3.845214605331421,0.8850097060203552,0.4577636420726776,100.0,245484.0,1.0
15:06:31.873813,176377.625,179576.96875,194348.0625,172228.25,165892.328125,191385.125,689060.5,174075.75,0.06103515625,0.982421875,-0.218505859375,-3.784179449081421,0.7934569716453552,0.2441406100988388,100.0,245485.0,1.0
15:06:31.879817,176318.078125,179561.3125,194329.296875,172231.375,165885.796875,191333.625,689013.0,174076.109375,0.06103515625,0.98193359375,-0.213623046875,-3.692626714706421,0.7629393935203552,0.3662109076976776,100.0,245486.0,1.0
15:06:31.879849,176288.21875,179559.0,194324.5625,172238.890625,165887.859375,191305.28125,688779.0625,174083.171875,0.061279296875,0.98046875,-0.21533203125,-3.509521245956421,0.7019042372703552,0.3967284858226776,100.0,245487.0,1.0
15:06:31.884470,176355.09375,179567.21875,194335.828125,172224.046875,165887.140625,191346.953125,688789.0625,174073.875,0.061279296875,0.980224609375,-0.217041015625,-3.417968511581421,0.6408690810203552,0.4272460639476776,100.0,245488.0,1.0
15:06:31.887957,176377.265625,179574.734375,194342.703125,172220.46875,165890.09375,191384.40625,689054.25,174070.828125,0.061279296875,0.98046875,-0.2158203125,-3.326415777206421,0.6103515028953552,0.3662109076976776,100.0,245489.0,1.0
15:06:31.898483,176318.703125,179562.484375,194325.984375,172221.265625,165884.90625,191344.625,689052.125,174070.296875,0.060791015625,0.981689453125,-0.216796875,-3.295898199081421,0.5493163466453552,0.4272460639476776,100.0,245490.0,1.0
15:06:31.898493,176269.984375,179550.140625,194310.078125,172213.21875,165875.96875,191297.6875,688816.5,174061.890625,0.060791015625,0.98193359375,-0.218017578125,-3.143310308456421,0.4577636420726776,0.5187987685203552,100.0,245491.0,1.0
15:06:31.900402,176336.140625,179564.796875,194332.421875,172219.75,165887.140625,191336.84375,688750.5,174072.09375,0.060302734375,0.9814453125,-0.21875,-3.143310308456421,0.3967284858226776,0.5187987685203552,100.0,245492.0,1.0
15:06:31.904165,176392.203125,179583.125,194354.421875,172225.46875,165901.453125,191392.8125,689035.75,174079.0625,0.060302734375,0.9794921875,-0.21630859375,-2.929687261581421,0.3356933295726776,0.5187987685203552,100.0,245493.0,1.0
15:06:31.914747,176339.8125,179571.515625,194342.96875,172228.515625,165898.5,191364.640625,689080.6875,174078.34375,0.0595703125,0.97607421875,-0.214599609375,-2.807616949081421,0.3662109076976776,0.6408690810203552,100.0,245494.0,1.0
15:06:31.914757,176293.671875,179561.3125,194331.265625,172234.328125,165893.578125,191312.078125,688868.625,174081.109375,0.060302734375,0.9765625,-0.2177734375,-2.624511480331421,0.2136230319738388,0.5798339247703552,100.0,245495.0,1.0
15:06:31.917429,176335.875,179579.375,194345.125,172232.53125,165899.21875,191343.015625,688724.625,174081.734375,0.05908203125,0.9775390625,-0.21875,-2.410888433456421,0.03051757626235485,0.7019042372703552,100.0,245496.0,1.0
15:06:31.917459,176398.453125,179587.328125,194362.640625,172231.734375,165908.953125,191396.203125,688990.4375,174085.234375,0.060791015625,0.977294921875,-0.216064453125,-2.258300542831421,0.0,0.6713866591453552,100.0,245497.0,1.0
15:06:31.924249,176355.8125,179585.09375,194357.453125,172235.75,165915.125,191387.984375,689095.1875,174089.515625,0.06005859375,0.978271484375,-0.213623046875,-1.8920897245407104,-0.03051757626235485,0.7324218153953552,100.0,245498.0,1.0
15:06:31.933469,176298.40625,179566.6875,194337.078125,172236.203125,165902.703125,191325.671875,688909.9375,174086.84375,0.060791015625,0.979248046875,-0.211181640625,-1.8310545682907104,-0.1831054538488388,0.8239745497703552,100.0,245499.0,1.0
15:06:31.933481,176319.0625,179576.875,194346.109375,172238.796875,165903.6875,191336.84375,688705.375,174089.515625,0.063720703125,0.980224609375,-0.21435546875,-1.6784666776657104,-0.2136230319738388,0.8239745497703552,100.0,245500.0,1.0
15:06:31.935412,176398.09375,179589.125,194364.609375,172236.5625,165910.296875,191391.828125,688929.5,174092.46875,0.063232421875,0.982421875,-0.21337890625,-1.5563963651657104,-0.2746581733226776,0.8239745497703552,100.0,245501.0,1.0
15:06:31.941802,176370.375,179589.65625,194362.734375,172240.5,165916.46875,191396.828125,689092.0,174094.4375,0.063232421875,0.98193359375,-0.213623046875,-1.4953612089157104,-0.3356933295726776,0.8850097060203552,100.0,245502.0,1.0
15:06:31.957887,176306.8125,179566.140625,194338.59375,172237.546875,165902.609375,191330.40625,688956.1875,174089.96875,0.06298828125,0.98388671875,-0.21240234375,-1.4343260526657104,-0.3662109076976776,0.8850097060203552,100.0,245503.0,1.0
15:06:31.957900,176300.375,179565.515625,194335.734375,172234.328125,165898.953125,191322.53125,688716.8125,174087.203125,0.06298828125,0.9833984375,-0.210205078125,-1.3732908964157104,-0.3051757514476776,0.8239745497703552,100.0,245504.0,1.0
15:06:31.957901,176383.796875,179578.21875,194353.96875,172230.578125,165903.328125,191376.0,688886.9375,174088.71875,0.064697265625,0.986083984375,-0.2138671875,-1.2817381620407104,-0.3662109076976776,0.8544921278953552,100.0,245505.0,1.0
15:06:31.960385,176363.9375,179580.265625,194351.015625,172227.171875,165905.828125,191391.828125,689090.125,174084.421875,0.065185546875,0.984130859375,-0.215576171875,-1.2512205839157104,-0.4272460639476776,0.8544921278953552,100.0,245506.0,1.0
15:06:31.962901,176302.875,179560.609375,194329.5625,172227.703125,165894.75,191330.40625,688990.5625,174082.09375,0.067626953125,0.986572265625,-0.216064453125,-1.2207030057907104,-0.4577636420726776,0.8239745497703552,100.0,245507.0,1.0
15:06:31.965412,176285.4375,179560.0625,194327.0625,172230.921875,165893.40625,191311.625,688745.625,174083.796875,0.066162109375,0.986328125,-0.213134765625,-1.1596678495407104,-0.4882812201976776,0.8544921278953552,100.0,245508.0,1.0
15:06:31.967948,176360.015625,179564.453125,194337.703125,172218.046875,165887.40625,191350.875,688835.4375,174074.40625,0.0654296875,0.98681640625,-0.212646484375,-1.1596678495407104,-0.4577636420726776,0.8850097060203552,100.0,245509.0,1.0
15:06:31.978478,176360.09375,179563.109375,194338.6875,172215.109375,165888.75,191375.46875,689070.8125,174070.390625,0.067138671875,0.9873046875,-0.21240234375,-1.1901854276657104,-0.3662109076976776,0.9460448622703552,100.0,245510.0,1.0
15:06:31.978487,176303.328125,179546.46875,194323.65625,172220.828125,165885.984375,191323.96875,689014.75,174075.484375,0.06787109375,0.98876953125,-0.21435546875,-1.1901854276657104,-0.3051757514476776,0.9460448622703552,100.0,245511.0,1.0
15:06:31.981329,176276.6875,179547.015625,194322.5,172227.625,165888.671875,191297.765625,688776.75,174079.59375,0.069580078125,0.989013671875,-0.21240234375,-1.2817381620407104,-0.2441406100988388,0.8544921278953552,100.0,245512.0,1.0
15:06:31.981338,176351.875,179563.90625,194340.46875,172225.65625,165891.171875,191342.921875,688781.9375,174080.9375,0.069580078125,0.988525390625,-0.213134765625,-1.3427733182907104,-0.2136230319738388,0.8850097060203552,100.0,245513.0,1.0
15:06:31.989231,176375.65625,179573.125,194345.125,172219.65625,165891.703125,191380.390625,689043.8125,174075.578125,0.069580078125,0.989013671875,-0.212646484375,-1.3732908964157104,-0.1220703050494194,0.9460448622703552,100.0,245514.0,1.0
15:06:31.992983,176314.40625,179559.4375,194325.71875,172217.96875,165882.3125,191338.90625,689044.25,174070.65625,0.07080078125,0.98779296875,-0.214599609375,-1.3427733182907104,-0.1220703050494194,0.9155272841453552,100.0,245515.0,1.0
15:06:31.996830,176271.3125,179544.59375,194314.09375,172223.15625,165877.125,191291.6875,688814.125,174074.5,0.070068359375,0.98681640625,-0.2109375,-1.3732908964157104,-0.03051757626235485,0.7934569716453552,100.0,245516.0,1.0
15:06:32.007353,176339.171875,179567.3125,194340.015625,172232.359375,165889.296875,191336.21875,688737.625,174087.90625,0.068603515625,0.98583984375,-0.211181640625,-1.4038084745407104,0.0915527269244194,0.7629393935203552,100.0,245517.0,1.0
15:06:32.007376,176379.953125,179575.0,194347.09375,172224.21875,165890.09375,191381.71875,689001.3125,174081.296875,0.069091796875,0.98583984375,-0.212890625,-1.4038084745407104,0.1220703050494194,0.7324218153953552,100.0,245518.0,1.0
15:06:32.009757,176326.84375,179563.015625,194333.671875,172225.03125,165887.40625,191352.578125,689059.5,174079.953125,0.069580078125,0.985595703125,-0.21435546875,-1.3122557401657104,0.1525878757238388,0.7934569716453552,100.0,245519.0,1.0
15:06:32.009770,176288.9375,179562.03125,194331.53125,172237.90625,165891.34375,191311.546875,688865.5,174091.390625,0.068359375,0.986572265625,-0.21484375,-1.4038084745407104,0.1525878757238388,0.7324218153953552,100.0,245520.0,1.0
15:06:32.019145,176334.078125,179575.625,194347.796875,172242.640625,165898.046875,191340.515625,688724.25,174098.109375,0.068603515625,0.98388671875,-0.214111328125,-1.3732908964157104,0.1831054538488388,0.7629393935203552,100.0,245521.0,1.0
15:06:32.021665,176382.359375,179573.203125,194348.515625,172223.59375,165888.84375,191379.578125,688979.9375,174081.46875,0.06884765625,0.984130859375,-0.213134765625,-1.5258787870407104,0.3662109076976776,0.6408690810203552,100.0,245522.0,1.0
15:06:32.025352,176331.046875,179557.203125,194331.96875,172217.34375,165882.5,191360.453125,689083.3125,174074.59375,0.068359375,0.98583984375,-0.21435546875,-1.4648436307907104,0.3967284858226776,0.7629393935203552,100.0,245523.0,1.0
15:06:32.036061,176273.28125,179537.796875,194312.578125,172217.0625,165871.3125,191299.203125,688918.1875,174072.171875,0.068359375,0.9873046875,-0.2138671875,-1.5563963651657104,0.5798339247703552,0.7324218153953552,100.0,245524.0,1.0
15:06:32.036073,176301.453125,179558.90625,194330.015625,172224.765625,165881.515625,191321.734375,688720.25,174080.484375,0.068359375,0.985107421875,-0.212646484375,-1.5258787870407104,0.5187987685203552,0.7019042372703552,100.0,245525.0,1.0
15:06:32.038442,176375.390625,179568.203125,194343.515625,172213.9375,165881.609375,191373.140625,688941.25,174073.609375,0.06982421875,0.984375,-0.2138671875,-1.5869139432907104,0.5798339247703552,0.5798339247703552,100.0,245526.0,1.0
15:06:32.038449,176348.65625,179573.5625,194343.78125,172218.328125,165889.46875,191382.265625,689096.0,174075.296875,0.06787109375,0.984130859375,-0.214599609375,-1.4648436307907104,0.5187987685203552,0.5493163466453552,100.0,245527.0,1.0
15:06:32.067981,176293.21875,179553.984375,194328.125,172224.046875,165883.5625,191317.796875,688960.75,174079.78125,0.0673828125,0.986572265625,-0.212890625,-1.3732908964157104,0.4882812201976776,0.5798339247703552,100.0,245528.0,1.0
15:06:32.099841,176290.1875,179557.203125,194327.78125,172222.703125,165881.25,191312.875,688722.8125,174079.15625,0.06787109375,0.988037109375,-0.213134765625,-1.4953612089157104,0.5187987685203552,0.4577636420726776,100.0,245529.0,1.0
15:06:32.099917,176368.953125,179563.28125,194341.984375,172214.125,165880.4375,191360.53125,688875.875,174076.015625,0.06787109375,0.986328125,-0.212646484375,-1.4343260526657104,0.4882812201976776,0.4577636420726776,100.0,245530.0,1.0
15:06:32.120523,176360.015625,179566.859375,194346.375,172220.015625,165888.21875,191379.3125,689091.625,174080.84375,0.06640625,0.98583984375,-0.21240234375,-1.4953612089157104,0.5493163466453552,0.4577636420726776,100.0,245531.0,1.0
15:06:32.122958,176300.828125,179548.078125,194329.390625,172224.140625,165882.234375,191319.671875,688998.625,174084.328125,0.067138671875,0.98583984375,-0.214111328125,-1.5258787870407104,0.5493163466453552,0.5493163466453552,100.0,245532.0,1.0
15:06:32.126147,176272.65625,179539.328125,194319.640625,172219.390625,165874.8125,191294.828125,688742.3125,174079.15625,0.06591796875,0.984619140625,-0.212646484375,-1.4953612089157104,0.5493163466453552,0.6103515028953552,100.0,245533.0,1.0
15:06:32.127997,176351.15625,179544.328125,194334.125,172213.21875,165874.453125,191338.09375,688839.75,174078.171875,0.065185546875,0.986328125,-0.215087890625,-1.4648436307907104,0.3967284858226776,0.6103515028953552,100.0,245534.0,1.0
15:06:32.130428,176359.109375,179557.5625,194340.46875,172213.9375,165882.140625,191372.15625,689084.125,174079.328125,0.0634765625,0.98583984375,-0.21240234375,-1.3732908964157104,0.4272460639476776,0.4882812201976776,100.0,245535.0,1.0
15:06:32.132952,176290.09375,179534.234375,194310.421875,172202.59375,165861.65625,191309.578125,689020.8125,174063.953125,0.064453125,0.987548828125,-0.21630859375,-1.4343260526657104,0.3356933295726776,0.5187987685203552,100.0,245536.0,1.0
15:06:32.135437,176262.46875,179536.28125,194307.203125,172208.84375,165862.921875,191285.078125,688781.8125,174067.53125,0.06494140625,0.98486328125,-0.208984375,-1.3122557401657104,0.2746581733226776,0.5187987685203552,100.0,245537.0,1.0
15:06:32.138005,176335.953125,179549.25,194325.1875,172207.0625,165866.3125,191330.21875,688781.375,174071.109375,0.06396484375,0.9853515625,-0.212646484375,-1.2512205839157104,0.2136230319738388,0.6103515028953552,100.0,245538.0,1.0
15:06:32.144189,176356.171875,179552.375,194329.03125,172200.625,165866.40625,191365.625,689040.8125,174065.375,0.0654296875,0.985595703125,-0.2138671875,-1.2512205839157104,0.0915527269244194,0.5798339247703552,100.0,245539.0,1.0
15:06:32.146750,176294.03125,179534.5,194311.6875,172201.6875,165859.78125,191323.515625,689042.6875,174066.625,0.062255859375,0.985107421875,-0.213623046875,-1.2512205839157104,0.1220703050494194,0.6408690810203552,100.0,245540.0,1.0
15:06:32.149211,176251.203125,179528.140625,194300.765625,172204.375,165857.1875,191285.171875,688818.9375,174068.78125,0.06201171875,0.986083984375,-0.211669921875,-1.1901854276657104,0.0915527269244194,0.5798339247703552,100.0,245541.0,1.0
15:06:32.151805,176308.609375,179540.3125,194316.78125,172201.6875,165863.90625,191324.0625,688748.1875,174070.203125,0.0634765625,0.9853515625,-0.2099609375,-1.1901854276657104,-0.03051757626235485,0.7019042372703552,100.0,245542.0,1.0
15:06:32.154287,176351.78125,179541.5625,194327.5,172196.859375,165868.375,191365.453125,689018.5625,174067.4375,0.06298828125,0.98486328125,-0.213134765625,-1.1291502714157104,-0.0915527269244194,0.7629393935203552,100.0,245543.0,1.0
15:06:32.156814,176300.828125,179531.359375,194317.21875,172199.640625,165869.625,191335.328125,689064.4375,174067.34375,0.064208984375,0.9853515625,-0.21484375,-1.2207030057907104,-0.1525878757238388,0.6103515028953552,100.0,245544.0,1.0
15:06:32.159241,176256.75,179524.484375,194308.90625,172207.5,165868.90625,191287.21875,688866.3125,174071.1875,0.06591796875,0.987548828125,-0.216064453125,-1.0986326932907104,-0.1220703050494194,0.6408690810203552,100.0,245545.0,1.0
15:06:32.161767,176298.140625,179534.046875,194321.25,172207.234375,165871.140625,191311.546875,688709.5,174072.359375,0.067138671875,0.98681640625,-0.2177734375,-1.0070799589157104,-0.1831054538488388,0.6408690810203552,100.0,245546.0,1.0
15:06:32.164363,176370.296875,179551.84375,194342.4375,172210.984375,165881.609375,191368.671875,688981.0,174078.875,0.068603515625,0.985107421875,-0.2158203125,-0.9765624403953552,-0.1525878757238388,0.7019042372703552,100.0,245547.0,1.0
15:06:32.166811,176320.9375,179540.578125,194326.875,172205.625,165876.140625,191350.171875,689079.375,174070.75,0.065673828125,0.988525390625,-0.217529296875,-1.0681151151657104,-0.3051757514476776,0.7019042372703552,100.0,245548.0,1.0
15:06:32.170410,176270.25,179531.640625,194316.59375,172210.984375,165874.625,191296.609375,688911.625,174075.75,0.064208984375,0.986572265625,-0.218994140625,-1.0681151151657104,-0.2746581733226776,0.7019042372703552,100.0,245549.0,1.0
15:06:32.172282,176293.140625,179544.0625,194330.640625,172213.046875,165881.875,191313.78125,688711.1875,174078.171875,0.06298828125,0.9853515625,-0.2158203125,-1.0375975370407104,-0.3662109076976776,0.6408690810203552,100.0,245550.0,1.0
15:06:32.172396,176375.125,179563.015625,194350.75,172210.90625,165889.5625,191374.125,688936.9375,174077.890625,0.063232421875,0.9833984375,-0.21533203125,-1.0681151151657104,-0.2746581733226776,0.6103515028953552,100.0,245551.0,1.0
15:06:32.176002,176348.5625,179566.234375,194346.546875,172213.578125,165892.78125,191380.03125,689090.375,174077.265625,0.064697265625,0.984375,-0.2138671875,-0.9765624403953552,-0.3051757514476776,0.6103515028953552,100.0,245552.0,1.0
15:06:32.176076,176290.984375,179548.359375,194327.234375,172214.203125,165881.953125,191316.09375,688955.8125,174075.578125,0.066162109375,0.9833984375,-0.21435546875,-0.9460448622703552,-0.3662109076976776,0.5798339247703552,100.0,245553.0,1.0
15:06:32.176103,176279.546875,179537.453125,194320.890625,172207.953125,165872.21875,191299.921875,688716.9375,174069.3125,0.068359375,0.9853515625,-0.215087890625,-0.8850097060203552,-0.3967284858226776,0.6103515028953552,100.0,245554.0,1.0
15:06:32.177926,176361.984375,179548.984375,194338.5,172205.359375,165873.828125,191350.703125,688878.1875,174069.84375,0.06884765625,0.984619140625,-0.217529296875,-0.9765624403953552,-0.2746581733226776,0.5493163466453552,100.0,245555.0,1.0
15:06:32.181639,176351.34375,179553.265625,194341.359375,172210.8125,165879.28125,191368.40625,689084.0,174072.09375,0.06689453125,0.98681640625,-0.214111328125,-1.0070799589157104,-0.3967284858226776,0.4882812201976776,100.0,245556.0,1.0
15:06:32.181711,176289.640625,179533.328125,194319.453125,172211.171875,165865.15625,191304.203125,688980.9375,174067.890625,0.066650390625,0.9873046875,-0.21484375,-0.9765624403953552,-0.3967284858226776,0.5493163466453552,100.0,245557.0,1.0
15:06:32.181740,176271.40625,179534.765625,194314.28125,172209.46875,165857.90625,191284.8125,688738.125,174063.234375,0.065673828125,0.985595703125,-0.216064453125,-1.0681151151657104,-0.3051757514476776,0.4882812201976776,100.0,245558.0,1.0
15:06:32.184309,176349.015625,179545.9375,194324.828125,172199.640625,165855.140625,191332.28125,688833.75,174060.1875,0.06640625,0.987060546875,-0.21728515625,-1.0986326932907104,-0.3051757514476776,0.4577636420726776,100.0,245559.0,1.0
15:06:32.187408,176344.359375,179546.75,194320.796875,172191.59375,165854.0625,191357.234375,689072.0625,174053.125,0.06689453125,0.986328125,-0.220703125,-1.1291502714157104,-0.3051757514476776,0.3967284858226776,100.0,245560.0,1.0
15:06:32.187463,176280.796875,179528.6875,194299.34375,172190.6875,165844.671875,191307.15625,689015.625,174051.609375,0.06689453125,0.98583984375,-0.218017578125,-1.1291502714157104,-0.3051757514476776,0.3967284858226776,100.0,245561.0,1.0
15:06:32.189338,176246.734375,179519.75,194290.671875,172192.9375,165841.09375,191274.4375,688770.0,174053.671875,0.06494140625,0.986328125,-0.21826171875,-1.1901854276657104,-0.1525878757238388,0.3967284858226776,100.0,245562.0,1.0
15:06:32.191832,176321.65625,179535.203125,194309.453125,172188.015625,165847.09375,191321.109375,688768.875,174053.125,0.067138671875,0.986572265625,-0.216064453125,-1.2512205839157104,-0.3356933295726776,0.4272460639476776,100.0,245563.0,1.0
15:06:32.194295,176346.59375,179545.578125,194319.1875,172183.8125,165854.328125,191365.0,689036.375,174048.65625,0.066162109375,0.987060546875,-0.2177734375,-1.2817381620407104,-0.3356933295726776,0.3967284858226776,100.0,245564.0,1.0
15:06:32.196796,176295.28125,179540.390625,194310.96875,172192.484375,165861.125,191335.328125,689047.0,174057.15625,0.067138671875,0.991943359375,-0.21630859375,-1.3427733182907104,-0.2441406100988388,0.3967284858226776,100.0,245565.0,1.0
15:06:32.199319,176262.5625,179542.453125,194310.078125,172203.390625,165869.890625,191303.9375,688821.1875,174067.796875,0.066650390625,0.992919921875,-0.21826171875,-1.4038084745407104,-0.2746581733226776,0.4272460639476776,100.0,245566.0,1.0
15:06:32.236772,176326.75,179562.65625,194331.078125,172205.984375,165879.28125,191346.40625,688756.1875,174075.484375,0.06494140625,0.99169921875,-0.21484375,-1.5869139432907104,-0.2441406100988388,0.3662109076976776,100.0,245567.0,1.0
15:06:32.236914,176373.6875,179574.90625,194342.796875,172202.5,165883.125,191395.671875,689037.5,174073.25,0.06591796875,0.99072265625,-0.2177734375,-1.6174315214157104,-0.2746581733226776,0.3967284858226776,100.0,245568.0,1.0
15:06:32.236945,176326.75,179571.78125,194335.546875,172211.078125,165886.4375,191375.46875,689101.4375,174079.6875,0.065185546875,0.98876953125,-0.21826171875,-1.8005369901657104,-0.1831054538488388,0.3662109076976776,100.0,245569.0,1.0
15:06:32.239851,176277.9375,179556.9375,194321.515625,172213.84375,165879.640625,191321.375,688888.125,174079.59375,0.0673828125,0.988037109375,-0.218017578125,-1.8920897245407104,-0.3051757514476776,0.3662109076976776,100.0,245570.0,1.0
15:06:32.239906,176312.359375,179560.609375,194327.59375,172207.765625,165876.6875,191337.375,688729.1875,174073.15625,0.0654296875,0.98681640625,-0.221435546875,-1.8920897245407104,-0.2441406100988388,0.4882812201976776,100.0,245571.0,1.0
15:06:32.244274,176374.578125,179567.484375,194343.0625,172204.640625,165881.328125,191384.234375,688977.375,174072.0,0.064453125,0.988525390625,-0.21923828125,-1.8920897245407104,-0.1220703050494194,0.4272460639476776,100.0,245572.0,1.0
15:06:32.246870,176332.46875,179559.0,194335.109375,172209.5625,165882.40625,191367.515625,689080.875,174073.515625,0.06298828125,0.9873046875,-0.217529296875,-1.9531248807907104,-0.1831054538488388,0.4882812201976776,100.0,245573.0,1.0
15:06:32.249179,176277.484375,179540.9375,194314.625,172208.671875,165868.1875,191300.359375,688902.1875,174069.21875,0.064208984375,0.98681640625,-0.217529296875,-1.8920897245407104,-0.1831054538488388,0.5493163466453552,100.0,245574.0,1.0
15:06:32.251695,176294.75,179549.25,194320.171875,172207.5,165865.328125,191308.046875,688687.75,174068.15625,0.0634765625,0.986572265625,-0.216796875,-1.9531248807907104,-0.2136230319738388,0.6408690810203552,100.0,245575.0,1.0
15:06:32.254188,176378.515625,179566.859375,194342.96875,172208.3125,165873.203125,191362.765625,688908.875,174072.0,0.06494140625,0.98486328125,-0.2197265625,-1.8920897245407104,-0.1525878757238388,0.7324218153953552,100.0,245576.0,1.0
15:06:32.256715,176345.96875,179557.296875,194334.921875,172209.296875,165870.421875,191355.34375,689059.3125,174071.015625,0.065673828125,0.985107421875,-0.221435546875,-1.9226073026657104,-0.1831054538488388,0.6408690810203552,100.0,245577.0,1.0
15:06:32.259309,176280.53125,179530.828125,194307.65625,172202.59375,165851.203125,191282.84375,688930.5,174061.984375,0.06494140625,0.98779296875,-0.220947265625,-2.014159917831421,-0.2136230319738388,0.7629393935203552,100.0,245578.0,1.0
15:06:32.262984,176283.390625,179542.453125,194314.90625,172209.828125,165856.484375,191288.109375,688702.3125,174068.0625,0.06494140625,0.9873046875,-0.219482421875,-2.044677495956421,-0.2136230319738388,0.8239745497703552,100.0,245579.0,1.0
15:06:32.264816,176365.015625,179556.84375,194331.96875,172205.0,165860.328125,191345.0625,688875.1875,174069.40625,0.064453125,0.98828125,-0.21728515625,-2.105712652206421,-0.2441406100988388,0.7324218153953552,100.0,245580.0,1.0
15:06:32.267387,176349.734375,179564.0,194329.921875,172203.21875,165861.3125,191367.953125,689086.0,174065.46875,0.063720703125,0.9873046875,-0.215576171875,-2.136230230331421,-0.1831054538488388,0.7934569716453552,100.0,245581.0,1.0
15:06:32.267436,176284.640625,179542.71875,194304.4375,172201.0625,165847.8125,191307.515625,688997.1875,174062.078125,0.064697265625,0.988525390625,-0.21484375,-2.075195074081421,-0.1831054538488388,0.6408690810203552,100.0,245582.0,1.0
15:06:32.269260,176248.609375,179522.875,194284.765625,172186.5,165833.40625,191276.21875,688746.9375,174048.03125,0.065673828125,0.9873046875,-0.21630859375,-2.105712652206421,-0.1831054538488388,0.7629393935203552,100.0,245583.0,1.0
15:06:32.272275,176323.171875,179529.40625,194297.828125,172175.671875,165834.484375,191324.765625,688836.8125,174044.546875,0.0673828125,0.987548828125,-0.21728515625,-2.105712652206421,-0.1220703050494194,0.8239745497703552,100.0,245584.0,1.0
15:06:32.272310,176332.109375,179542.546875,194307.390625,172178.890625,165847.09375,191365.1875,689087.625,174049.28125,0.068603515625,0.9892578125,-0.217529296875,-2.136230230331421,-0.0610351525247097,0.8544921278953552,100.0,245585.0,1.0
15:06:32.274174,176275.25,179529.671875,194292.8125,172184.078125,165844.9375,191320.03125,689037.8125,174054.203125,0.068359375,0.988037109375,-0.21533203125,-2.227782964706421,-0.0610351525247097,0.8850097060203552,100.0,245586.0,1.0
15:06:32.287988,176237.34375,179521.265625,194282.265625,172182.46875,165841.375,191287.578125,688787.0,174051.171875,0.06884765625,0.986083984375,-0.21533203125,-2.166747808456421,-0.0610351525247097,0.8850097060203552,100.0,245587.0,1.0
15:06:32.292740,176313.34375,179536.28125,194304.703125,172184.703125,165850.671875,191335.40625,688787.0,174057.421875,0.067626953125,0.98388671875,-0.21484375,-2.105712652206421,0.0610351525247097,1.0070799589157104,100.0,245588.0,1.0
15:06:32.292811,176345.34375,179548.078125,194320.265625,172192.125,165863.71875,191380.390625,689053.625,174062.96875,0.06787109375,0.982421875,-0.21630859375,-2.136230230331421,0.03051757626235485,1.0070799589157104,100.0,245589.0,1.0
15:06:32.292840,176289.296875,179533.0625,194305.421875,172194.8125,165858.265625,191337.5625,689055.9375,174060.015625,0.069091796875,0.98095703125,-0.217529296875,-2.044677495956421,0.0915527269244194,0.9155272841453552,100.0,245590.0,1.0
15:06:32.307467,176253.171875,179529.484375,194301.84375,172203.921875,165857.90625,191295.09375,688821.25,174064.75,0.068115234375,0.979248046875,-0.218017578125,-2.014159917831421,0.1525878757238388,0.9460448622703552,100.0,245591.0,1.0
15:06:32.307542,176316.375,179545.21875,194322.140625,172205.625,165864.078125,191330.9375,688744.375,174068.59375,0.0693359375,0.980712890625,-0.216796875,-1.8920897245407104,0.2136230319738388,0.9155272841453552,100.0,245592.0,1.0
15:06:32.309925,176369.9375,179561.140625,194341.71875,172208.9375,165875.796875,191382.078125,689021.5,174074.046875,0.065673828125,0.9794921875,-0.217529296875,-1.7700194120407104,0.2441406100988388,0.8239745497703552,100.0,245593.0,1.0
15:06:32.309967,176317.8125,179548.359375,194326.875,172210.90625,165872.75,191349.53125,689076.0,174074.140625,0.066650390625,0.978271484375,-0.21826171875,-1.7395018339157104,0.3356933295726776,0.8239745497703552,100.0,245594.0,1.0
15:06:32.311813,176270.6875,179537.53125,194314.1875,172216.890625,165868.09375,191296.4375,688878.8125,174077.453125,0.0673828125,0.9814453125,-0.217041015625,-1.7089842557907104,0.3051757514476776,0.7324218153953552,100.0,245595.0,1.0
15:06:32.316800,176308.328125,179546.75,194323.65625,172213.21875,165867.46875,191318.0625,688722.875,174073.96875,0.06689453125,0.982421875,-0.216552734375,-1.6479490995407104,0.3051757514476776,0.6408690810203552,100.0,245596.0,1.0
15:06:32.319350,176378.875,179566.59375,194344.9375,172215.90625,165875.609375,191375.109375,688988.625,174077.546875,0.068115234375,0.98486328125,-0.2158203125,-1.5563963651657104,0.2746581733226776,0.6408690810203552,100.0,245597.0,1.0
15:06:32.329172,176329.34375,179551.84375,194329.65625,172213.765625,165866.140625,191349.984375,689078.5,174072.09375,0.06689453125,0.986328125,-0.216064453125,-1.4953612089157104,0.3051757514476776,0.5493163466453552,100.0,245598.0,1.0
15:06:32.333543,176278.734375,179534.234375,194314.8125,172219.21875,165858.09375,191286.0625,688908.125,174075.296875,0.068603515625,0.987548828125,-0.2177734375,-1.3732908964157104,0.2746581733226776,0.5187987685203552,100.0,245599.0,1.0
15:06:32.333615,176301.53125,179544.78125,194325.453125,172221.359375,165863.71875,191299.296875,688701.6875,174079.6875,0.068115234375,0.986328125,-0.21826171875,-1.3122557401657104,0.3356933295726776,0.4272460639476776,100.0,245600.0,1.0
15:06:32.339782,176380.21875,179558.546875,194342.890625,172217.25,165866.671875,191352.9375,688924.5,174079.5,0.068359375,0.984130859375,-0.217041015625,-1.4038084745407104,0.4882812201976776,0.4577636420726776,100.0,245601.0,1.0
15:06:32.339853,176353.484375,179563.734375,194341.984375,172219.65625,165871.765625,191363.21875,689086.8125,174082.375,0.065185546875,0.980712890625,-0.216552734375,-1.2817381620407104,0.4272460639476776,0.4272460639476776,100.0,245602.0,1.0
15:06:32.345414,176285.796875,179536.640625,194311.859375,172208.125,165854.59375,191293.65625,688951.0,174072.71875,0.064697265625,0.98193359375,-0.217529296875,-1.1901854276657104,0.3356933295726776,0.2441406100988388,100.0,245603.0,1.0
15:06:32.353540,176276.59375,179537.359375,194306.671875,172201.875,165849.6875,191287.671875,688720.375,174066.71875,0.0615234375,0.982421875,-0.21630859375,-1.1901854276657104,0.3356933295726776,0.1220703050494194,100.0,245604.0,1.0
15:06:32.353615,176353.75,179547.453125,194319.015625,172193.015625,165849.765625,191341.578125,688894.5,174064.046875,0.06005859375,0.986328125,-0.212646484375,-1.2512205839157104,0.1525878757238388,0.03051757626235485,100.0,245605.0,1.0
15:06:32.359792,176334.984375,179544.234375,194315.078125,172192.84375,165851.734375,191359.1875,689104.375,174063.40625,0.057373046875,0.98779296875,-0.212646484375,-1.2512205839157104,0.0915527269244194,0.0,100.0,245606.0,1.0
15:06:32.359863,176268.8125,179523.59375,194289.515625,172187.390625,165835.734375,191297.953125,689004.625,174054.203125,0.05322265625,0.9912109375,-0.211669921875,-1.2207030057907104,-0.03051757626235485,-0.1525878757238388,100.0,245607.0,1.0
15:06:32.361709,176249.6875,179526.1875,194287.90625,172189.625,165836.453125,191284.09375,688756.4375,174054.65625,0.053466796875,0.99267578125,-0.212158203125,-1.3122557401657104,-0.2136230319738388,-0.1831054538488388,100.0,245608.0,1.0
15:06:32.372974,176331.484375,179539.765625,194307.75,172186.84375,165842.796875,191336.578125,688839.125,174055.640625,0.05419921875,0.994384765625,-0.212158203125,-1.4648436307907104,-0.2441406100988388,-0.1525878757238388,100.0,245609.0,1.0
15:06:32.377329,176344.28125,179553.890625,194319.109375,172190.421875,165855.140625,191373.5,689085.875,174058.046875,0.057373046875,0.993896484375,-0.2158203125,-1.6479490995407104,-0.4577636420726776,-0.2746581733226776,100.0,245610.0,1.0
15:06:32.377400,176281.515625,179535.203125,194299.078125,172189.171875,165846.46875,191318.515625,689028.875,174056.890625,0.05810546875,0.99462890625,-0.216064453125,-1.7700194120407104,-0.4272460639476776,-0.3662109076976776,100.0,245611.0,1.0
15:06:32.379225,176250.671875,179531.8125,194296.921875,172196.328125,165850.046875,191287.9375,688789.0,174064.125,0.06005859375,0.994384765625,-0.216552734375,-1.8920897245407104,-0.5798339247703552,-0.3356933295726776,100.0,245612.0,1.0
15:06:32.391753,176327.640625,179548.625,194319.109375,172198.734375,165860.140625,191336.9375,688790.5,174071.28125,0.0634765625,0.993896484375,-0.21875,-1.8310545682907104,-0.6103515028953552,-0.3051757514476776,100.0,245613.0,1.0
15:06:32.394917,176357.0625,179559.890625,194329.921875,172201.25,165869.359375,191381.1875,689052.125,174073.96875,0.0634765625,0.99267578125,-0.2158203125,-1.9836424589157104,-0.7629393935203552,-0.1831054538488388,100.0,245614.0,1.0
15:06:32.394991,176301.53125,179546.03125,194315.171875,172207.953125,165866.578125,191340.234375,689054.5,174075.9375,0.06298828125,0.990966796875,-0.2158203125,-2.014159917831421,-0.6713866591453552,0.03051757626235485,100.0,245615.0,1.0
15:06:32.395019,176255.84375,179529.578125,194299.34375,172207.765625,165855.671875,191287.046875,688816.5,174072.796875,0.06494140625,0.99169921875,-0.216064453125,-2.166747808456421,-0.6713866591453552,0.2136230319738388,100.0,245616.0,1.0
15:06:32.399139,176320.21875,179547.453125,194320.625,172207.328125,165863.453125,191325.9375,688745.1875,174074.953125,0.06494140625,0.990966796875,-0.21435546875,-2.227782964706421,-0.6713866591453552,0.3662109076976776,100.0,245617.0,1.0
15:06:32.402919,176366.71875,179559.0,194332.421875,172197.671875,165867.921875,191372.875,689022.3125,174065.921875,0.064208984375,0.990234375,-0.2138671875,-2.197265386581421,-0.6103515028953552,0.5187987685203552,100.0,245618.0,1.0
15:06:32.449274,176318.96875,179555.78125,194323.9375,172200.625,165867.65625,191349.09375,689073.125,174065.828125,0.06298828125,0.98681640625,-0.214111328125,-2.288818120956421,-0.6408690810203552,0.7324218153953552,100.0,245619.0,1.0
15:06:32.459724,176274.453125,179548.53125,194314.09375,172208.3125,165863.1875,191299.109375,688877.5,174068.78125,0.062744140625,0.9873046875,-0.21337890625,-2.380370855331421,-0.6103515028953552,0.7629393935203552,100.0,245620.0,1.0
15:06:32.459737,176316.203125,179559.890625,194326.96875,172210.90625,165867.46875,191322.71875,688732.0,174070.390625,0.060302734375,0.9873046875,-0.2109375,-2.410888433456421,-0.6103515028953552,0.9155272841453552,100.0,245621.0,1.0
15:06:32.461674,176379.6875,179571.15625,194341.359375,172206.34375,165870.78125,191374.125,688996.25,174067.796875,0.0615234375,0.9873046875,-0.211669921875,-2.349853277206421,-0.5187987685203552,1.0375975370407104,100.0,245622.0,1.0
15:06:32.464773,176338.203125,179566.859375,194335.546875,172210.8125,165875.25,191365.28125,689104.5625,174070.296875,0.060302734375,0.988525390625,-0.212890625,-2.471923589706421,-0.6408690810203552,1.1596678495407104,100.0,245623.0,1.0
15:06:32.464781,176285.265625,179552.375,194320.71875,172216.09375,165871.765625,191307.78125,688918.6875,174076.109375,0.060546875,0.98828125,-0.21142578125,-2.593993902206421,-0.6103515028953552,1.2817381620407104,100.0,245624.0,1.0
15:06:32.466684,176297.875,179548.796875,194323.296875,172213.046875,165870.0625,191307.96875,688716.75,174076.203125,0.061767578125,0.98828125,-0.2080078125,-2.563476324081421,-0.6408690810203552,1.2207030057907104,100.0,245625.0,1.0
15:06:32.469156,176374.21875,179561.046875,194339.9375,172206.96875,165874.8125,191362.234375,688943.8125,174077.265625,0.060791015625,0.986572265625,-0.210205078125,-2.685546636581421,-0.5187987685203552,1.2207030057907104,100.0,245626.0,1.0
15:06:32.471670,176351.25,179571.0625,194342.890625,172215.28125,165886.25,191376.71875,689104.875,174085.40625,0.06201171875,0.98583984375,-0.2119140625,-2.716064214706421,-0.6408690810203552,1.2512205839157104,100.0,245627.0,1.0
15:06:32.474196,176287.6875,179543.171875,194318.125,172212.875,165873.640625,191308.59375,688970.3125,174081.296875,0.062255859375,0.98583984375,-0.207763671875,-2.746581792831421,-0.6713866591453552,1.2207030057907104,100.0,245628.0,1.0
15:06:32.476673,176283.5625,179543.875,194317.9375,172212.6875,165872.21875,191301.4375,688737.0,174081.03125,0.065185546875,0.986572265625,-0.211181640625,-2.716064214706421,-0.6408690810203552,1.0986326932907104,100.0,245629.0,1.0
15:06:32.479127,176367.875,179561.9375,194337.78125,172208.578125,165877.9375,191360.71875,688889.1875,174082.453125,0.068115234375,0.986328125,-0.212646484375,-2.777099370956421,-0.6103515028953552,0.9765624403953552,100.0,245630.0,1.0
15:06:32.481686,176357.953125,179569.71875,194340.46875,172214.65625,165885.453125,191385.296875,689103.0,174086.5625,0.069580078125,0.987548828125,-0.210693359375,-2.838134527206421,-0.6408690810203552,0.9460448622703552,100.0,245631.0,1.0
15:06:32.484213,176297.78125,179550.953125,194321.25,172218.59375,165877.125,191326.375,689005.875,174087.734375,0.0712890625,0.984130859375,-0.209228515625,-2.777099370956421,-0.6408690810203552,0.9155272841453552,100.0,245632.0,1.0
15:06:32.486683,176281.78125,179550.234375,194320.078125,172225.46875,165877.046875,191306.625,688757.4375,174091.125,0.07373046875,0.98583984375,-0.210205078125,-2.746581792831421,-0.5493163466453552,0.8239745497703552,100.0,245633.0,1.0
15:06:32.489269,176356.171875,179553.8125,194330.015625,172213.765625,165872.21875,191345.78125,688838.3125,174083.34375,0.07470703125,0.983642578125,-0.20947265625,-2.777099370956421,-0.2746581733226776,0.7324218153953552,100.0,245634.0,1.0
15:06:32.492413,176363.3125,179563.375,194336.71875,172215.640625,165878.828125,191377.34375,689079.8125,174085.140625,0.07373046875,0.982421875,-0.2119140625,-2.777099370956421,-0.03051757626235485,0.6408690810203552,100.0,245635.0,1.0
15:06:32.492452,176299.125,179541.640625,194314.09375,172213.671875,165865.515625,191318.421875,689019.375,174081.109375,0.07373046875,0.98193359375,-0.21142578125,-2.624511480331421,0.0,0.6713866591453552,100.0,245636.0,1.0
15:06:32.494197,176273.546875,179543.171875,194313.375,172222.34375,165869.796875,191292.40625,688778.0625,174087.546875,0.076416015625,0.981689453125,-0.211181640625,-2.563476324081421,0.2136230319738388,0.6103515028953552,100.0,245637.0,1.0
15:06:32.497248,176348.203125,179556.75,194331.625,172217.875,165874.1875,191337.921875,688786.375,174085.140625,0.075927734375,0.98095703125,-0.213134765625,-2.471923589706421,0.3967284858226776,0.6103515028953552,100.0,245638.0,1.0
15:06:32.497270,176380.3125,179572.84375,194346.015625,172219.21875,165884.828125,191386.28125,689056.5625,174084.875,0.076416015625,0.97900390625,-0.21044921875,-2.349853277206421,0.5187987685203552,0.5187987685203552,100.0,245639.0,1.0
15:06:32.499200,176325.671875,179561.3125,194331.890625,172220.203125,165879.640625,191348.015625,689053.8125,174082.90625,0.074462890625,0.9794921875,-0.20947265625,-2.258300542831421,0.5798339247703552,0.5798339247703552,100.0,245640.0,1.0
15:06:32.502543,176281.78125,179551.578125,194318.46875,172219.84375,165872.125,191302.328125,688820.0625,174079.6875,0.072021484375,0.980224609375,-0.212646484375,-2.075195074081421,0.8239745497703552,0.6103515028953552,100.0,245641.0,1.0
15:06:32.502609,176340.4375,179567.9375,194335.640625,172218.328125,165879.015625,191341.765625,688744.25,174081.109375,0.068115234375,0.9775390625,-0.2109375,-1.9226073026657104,0.8850097060203552,0.6103515028953552,100.0,245642.0,1.0
15:06:32.504236,176388.890625,179584.03125,194350.84375,172216.890625,165888.671875,191396.03125,689023.5,174080.84375,0.064453125,0.979736328125,-0.211669921875,-1.8005369901657104,0.8239745497703552,0.6103515028953552,100.0,245643.0,1.0
15:06:32.511204,176334.171875,179568.296875,194336.265625,172214.921875,165884.734375,191364.828125,689071.5625,174077.09375,0.063720703125,0.979248046875,-0.215087890625,-1.5563963651657104,0.8850097060203552,0.5187987685203552,100.0,245644.0,1.0
15:06:32.511292,176282.671875,179549.875,194319.90625,172213.671875,165876.953125,191306.625,688860.9375,174074.5,0.064697265625,0.977783203125,-0.217041015625,-1.3122557401657104,1.0070799589157104,0.4577636420726776,100.0,245645.0,1.0
15:06:32.516728,176315.75,179553.1875,194326.34375,172205.890625,165874.8125,191323.25,688707.1875,174070.828125,0.0654296875,0.978759765625,-0.21240234375,-1.0986326932907104,1.0070799589157104,0.3051757514476776,100.0,245646.0,1.0
15:06:32.523591,176368.328125,179551.65625,194330.640625,172190.15625,165868.8125,191364.375,688957.75,174060.109375,0.0634765625,0.982421875,-0.21240234375,-0.8544921278953552,0.8544921278953552,0.3051757514476776,100.0,245647.0,1.0
15:06:32.523608,176320.9375,179545.140625,194317.40625,172189.625,165866.84375,191350.515625,689071.9375,174057.78125,0.06201171875,0.98193359375,-0.2119140625,-0.7934569716453552,0.9460448622703552,0.2441406100988388,100.0,245648.0,1.0
15:06:32.527980,176266.84375,179533.59375,194299.703125,172194.453125,165859.609375,191294.90625,688897.6875,174061.171875,0.061767578125,0.983642578125,-0.213623046875,-0.6103515028953552,0.8544921278953552,0.2746581733226776,100.0,245649.0,1.0
15:06:32.534309,176283.65625,179539.59375,194308.1875,172198.828125,165864.4375,191305.734375,688690.625,174067.609375,0.061767578125,0.98291015625,-0.21337890625,-0.6103515028953552,0.8239745497703552,0.4272460639476776,100.0,245650.0,1.0
15:06:32.541111,176368.328125,179559.0,194334.84375,172203.75,165877.484375,191367.515625,688904.25,174077.0,0.061279296875,0.98486328125,-0.214111328125,-0.4882812201976776,0.6713866591453552,0.3356933295726776,100.0,245651.0,1.0
15:06:32.541184,176341.0625,179558.359375,194332.25,172207.0625,165880.53125,191369.921875,689068.625,174077.09375,0.057861328125,0.984375,-0.214599609375,-0.4272460639476776,0.4882812201976776,0.3967284858226776,100.0,245652.0,1.0
15:06:32.543020,176280.265625,179537.09375,194309.171875,172205.53125,165867.125,191304.203125,688938.125,174073.25,0.059326171875,0.98388671875,-0.214599609375,-0.3356933295726776,0.4272460639476776,0.4577636420726776,100.0,245653.0,1.0
15:06:32.549413,176279.90625,179542.1875,194313.015625,172208.84375,165868.28125,191301.703125,688699.6875,174074.859375,0.059326171875,0.984130859375,-0.213134765625,-0.2746581733226776,0.4577636420726776,0.5493163466453552,100.0,245654.0,1.0
15:06:32.556064,176362.6875,179554.703125,194331.265625,172206.4375,165871.59375,191355.34375,688857.625,174074.859375,0.060546875,0.98486328125,-0.21484375,-0.2136230319738388,0.3356933295726776,0.4577636420726776,100.0,245655.0,1.0
15:06:32.556082,176343.46875,179550.046875,194323.296875,172202.140625,165867.296875,191368.140625,689049.625,174067.171875,0.0625,0.987548828125,-0.21484375,-0.2136230319738388,0.2746581733226776,0.4577636420726776,100.0,245656.0,1.0
15:06:32.566127,176290.09375,179536.375,194307.921875,172209.203125,165861.578125,191312.171875,688966.6875,174070.65625,0.06396484375,0.98974609375,-0.21484375,-0.1525878757238388,0.2136230319738388,0.5493163466453552,100.0,245657.0,1.0
15:06:32.566146,176275.25,179538.078125,194307.203125,172214.75,165862.375,191292.859375,688726.375,174073.515625,0.06103515625,0.9921875,-0.211669921875,-0.3051757514476776,0.0915527269244194,0.6408690810203552,100.0,245658.0,1.0
15:06:32.568490,176360.546875,179555.0625,194328.75,172212.953125,165868.1875,191344.265625,688813.625,174076.203125,0.061767578125,0.992919921875,-0.2119140625,-0.3662109076976776,0.0,0.6408690810203552,100.0,245659.0,1.0
15:06:32.568502,176364.296875,179562.5625,194332.328125,172210.90625,165871.59375,191373.5,689046.375,174073.25,0.06201171875,0.989990234375,-0.212646484375,-0.4577636420726776,0.0,0.7629393935203552,100.0,245660.0,1.0
15:06:32.584238,176304.671875,179547.1875,194313.203125,172211.96875,165862.5625,191319.140625,688994.0625,174072.625,0.060791015625,0.98828125,-0.216064453125,-0.5493163466453552,-0.0915527269244194,0.7324218153953552,100.0,245661.0,1.0
15:06:32.586668,176278.203125,179555.421875,194311.234375,172220.921875,165862.828125,191292.765625,688759.1875,174078.171875,0.0615234375,0.988037109375,-0.217041015625,-0.6103515028953552,-0.1525878757238388,0.9155272841453552,100.0,245662.0,1.0
15:06:32.589213,176351.34375,179564.0,194327.6875,172221.359375,165865.328125,191337.203125,688761.625,174081.296875,0.062744140625,0.988037109375,-0.217041015625,-0.7324218153953552,-0.1525878757238388,0.9460448622703552,100.0,245663.0,1.0
15:06:32.591683,176369.484375,179561.671875,194328.84375,172209.734375,165864.796875,191371.796875,689032.8125,174074.046875,0.064208984375,0.990234375,-0.217041015625,-0.7934569716453552,-0.1831054538488388,0.9765624403953552,100.0,245664.0,1.0
15:06:32.594245,176304.671875,179541.375,194306.671875,172206.609375,165855.140625,191328.53125,689036.625,174069.578125,0.06884765625,0.992431640625,-0.217041015625,-0.8850097060203552,-0.1831054538488388,0.9765624403953552,100.0,245665.0,1.0
15:06:32.598247,176256.203125,179530.109375,194291.125,172201.6875,165847.625,191285.4375,688816.8125,174063.953125,0.0703125,0.992919921875,-0.2138671875,-0.9460448622703552,-0.0915527269244194,0.9155272841453552,100.0,245666.0,1.0
15:06:32.608625,176314.234375,179542.90625,194306.234375,172199.09375,165854.0625,191323.703125,688725.25,174065.109375,0.07080078125,0.99267578125,-0.211669921875,-1.0986326932907104,-0.1525878757238388,1.0070799589157104,100.0,245667.0,1.0
15:06:32.608646,176365.640625,179558.71875,194323.9375,172200.703125,165866.140625,191376.984375,688998.5625,174068.953125,0.069091796875,0.987060546875,-0.214111328125,-1.2512205839157104,-0.0915527269244194,1.0681151151657104,100.0,245668.0,1.0
15:06:32.611063,176322.28125,179565.25,194320.984375,172210.625,165875.96875,191362.765625,689066.0625,174078.171875,0.067626953125,0.983154296875,-0.21630859375,-1.3427733182907104,0.0,0.8850097060203552,100.0,245669.0,1.0
15:06:32.611137,176260.765625,179531.546875,194295.59375,172203.921875,165860.953125,191296.34375,688861.375,174071.109375,0.06591796875,0.982421875,-0.21923828125,-1.2207030057907104,0.03051757626235485,0.9765624403953552,100.0,245670.0,1.0
15:06:32.630511,176295.09375,179535.203125,194303.8125,172200.890625,165861.390625,191317.0,688703.4375,174070.03125,0.065673828125,0.984375,-0.215576171875,-1.3427733182907104,-0.0915527269244194,0.8850097060203552,100.0,245671.0,1.0
15:06:32.630525,176360.015625,179546.5625,194319.1875,172193.734375,165866.765625,191368.671875,688971.8125,174066.71875,0.06591796875,0.98583984375,-0.2158203125,-1.3122557401657104,-0.0915527269244194,0.7324218153953552,100.0,245672.0,1.0
15:06:32.630528,176322.734375,179548.359375,194317.40625,172199.640625,165873.46875,191360.53125,689080.4375,174070.390625,0.065185546875,0.98583984375,-0.212646484375,-1.4953612089157104,-0.0610351525247097,0.5493163466453552,100.0,245673.0,1.0
15:06:32.633593,176273.90625,179537.71875,194306.671875,172206.78125,165870.875,191301.96875,688919.3125,174074.859375,0.065185546875,0.986083984375,-0.2158203125,-1.6174315214157104,-0.1220703050494194,0.5187987685203552,100.0,245674.0,1.0
15:06:32.633600,176292.328125,179545.578125,194316.234375,172211.171875,165874.625,191312.703125,688709.375,174080.21875,0.066650390625,0.98583984375,-0.216552734375,-1.6174315214157104,-0.1831054538488388,0.2746581733226776,100.0,245675.0,1.0
15:06:32.637947,176365.109375,179553.625,194331.34375,172207.140625,165877.21875,191362.765625,688922.125,174079.6875,0.06591796875,0.98291015625,-0.21728515625,-1.7395018339157104,-0.1220703050494194,0.1525878757238388,100.0,245676.0,1.0
15:06:32.641993,176340.515625,179557.65625,194332.15625,172216.09375,165885.359375,191370.453125,689084.75,174086.484375,0.06787109375,0.984375,-0.217529296875,-1.7700194120407104,-0.0915527269244194,0.2136230319738388,100.0,245677.0,1.0
15:06:32.648884,176290.546875,179546.46875,194319.375,172226.28125,165882.671875,191314.9375,688947.0625,174095.421875,0.06689453125,0.985107421875,-0.216064453125,-1.6174315214157104,-0.0915527269244194,0.0915527269244194,100.0,245678.0,1.0
15:06:32.654719,176287.765625,179547.90625,194319.28125,172224.671875,165878.65625,191308.5,688700.9375,174092.65625,0.067138671875,0.983642578125,-0.21728515625,-1.5869139432907104,-0.1525878757238388,0.0,100.0,245679.0,1.0
15:06:32.654733,176376.546875,179565.875,194343.234375,172223.0625,165884.640625,191367.953125,688867.9375,174093.71875,0.067626953125,0.98486328125,-0.21630859375,-1.5869139432907104,-0.0915527269244194,0.0,100.0,245680.0,1.0
15:06:32.662231,176368.859375,179574.015625,194347.4375,172227.703125,165890.359375,191389.765625,689072.375,174094.265625,0.067138671875,0.987060546875,-0.216796875,-1.6479490995407104,-0.0915527269244194,-0.0610351525247097,100.0,245681.0,1.0
15:06:32.662239,176311.734375,179556.125,194330.359375,172232.8125,165881.515625,191328.265625,688977.875,174097.828125,0.06689453125,0.986572265625,-0.2158203125,-1.6784666776657104,-0.03051757626235485,-0.0915527269244194,100.0,245682.0,1.0
15:06:32.669718,176297.875,179562.21875,194333.140625,172238.796875,165883.125,191313.78125,688734.4375,174101.140625,0.066162109375,0.98681640625,-0.217529296875,-1.6784666776657104,-0.0610351525247097,-0.03051757626235485,100.0,245683.0,1.0
15:06:32.669737,176376.375,179571.78125,194350.03125,172231.734375,165882.3125,191359.640625,688814.625,174098.015625,0.067626953125,0.9853515625,-0.2158203125,-1.8005369901657104,-0.1220703050494194,0.03051757626235485,100.0,245684.0,1.0
15:06:32.671677,176382.0,179576.25,194352.546875,172230.65625,165884.90625,191390.046875,689056.375,174094.53125,0.06640625,0.98486328125,-0.215576171875,-1.6784666776657104,0.03051757626235485,0.2746581733226776,100.0,245685.0,1.0
15:06:32.680470,176313.78125,179550.140625,194324.640625,172221.984375,165870.421875,191333.71875,689010.0625,174084.25,0.065185546875,0.98583984375,-0.22119140625,-1.7089842557907104,0.0610351525247097,0.2746581733226776,100.0,245686.0,1.0
15:06:32.691023,176282.859375,179548.703125,194319.28125,172227.890625,165871.765625,191308.046875,688774.25,174089.609375,0.064208984375,0.987548828125,-0.220947265625,-1.7395018339157104,0.0,0.3967284858226776,100.0,245687.0,1.0
15:06:32.691037,176351.34375,179560.78125,194331.53125,172216.359375,165871.953125,191353.109375,688767.1875,174083.0,0.06298828125,0.98828125,-0.216796875,-1.6784666776657104,0.03051757626235485,0.3967284858226776,100.0,245688.0,1.0
15:06:32.693516,176378.78125,179572.40625,194340.734375,172213.84375,165878.296875,191398.71875,689031.8125,174082.28125,0.0625,0.988037109375,-0.2158203125,-1.7089842557907104,0.0915527269244194,0.5187987685203552,100.0,245689.0,1.0
15:06:32.693529,176319.421875,179557.828125,194326.4375,172215.546875,165875.34375,191359.015625,689033.9375,174083.4375,0.0615234375,0.988037109375,-0.21728515625,-1.7395018339157104,0.0,0.4882812201976776,100.0,245690.0,1.0
15:06:32.695435,176278.734375,179553.0,194319.1875,172221.8125,165875.515625,191317.890625,688811.625,174087.734375,0.06103515625,0.9892578125,-0.215576171875,-1.7089842557907104,0.03051757626235485,0.5493163466453552,100.0,245691.0,1.0
15:06:32.708594,176339.0,179567.578125,194336.625,172224.9375,165881.609375,191352.40625,688727.1875,174093.640625,0.060546875,0.988525390625,-0.21630859375,-1.6784666776657104,-0.0915527269244194,0.6713866591453552,100.0,245692.0,1.0
15:06:32.708607,176385.9375,179574.1875,194349.59375,172225.828125,165886.96875,191395.5,688997.9375,174093.8125,0.059326171875,0.99072265625,-0.21533203125,-1.6784666776657104,-0.3356933295726776,0.6408690810203552,100.0,245693.0,1.0
15:06:32.716016,176332.390625,179560.609375,194336.359375,172219.390625,165882.40625,191364.5625,689049.4375,174086.921875,0.0595703125,0.992431640625,-0.215087890625,-1.7700194120407104,-0.3051757514476776,0.6408690810203552,100.0,245694.0,1.0
15:06:32.716029,176288.75,179550.59375,194327.328125,172224.578125,165881.953125,191312.875,688862.8125,174091.671875,0.0625,0.98828125,-0.215087890625,-1.8920897245407104,-0.3967284858226776,0.6408690810203552,100.0,245695.0,1.0
15:06:32.718508,176331.671875,179567.125,194341.8125,172225.65625,165887.59375,191337.375,688706.0,174093.09375,0.06298828125,0.98974609375,-0.21484375,-1.9836424589157104,-0.3967284858226776,0.7019042372703552,100.0,245696.0,1.0
15:06:32.718524,176399.265625,179580.890625,194358.625,172221.890625,165893.21875,191390.9375,688975.5625,174091.046875,0.062744140625,0.987548828125,-0.21484375,-1.9226073026657104,-0.4882812201976776,0.5798339247703552,100.0,245697.0,1.0
15:06:32.727969,176357.59375,179577.046875,194352.265625,172228.25,165896.359375,191379.3125,689075.25,174094.171875,0.0654296875,0.985595703125,-0.212158203125,-1.9531248807907104,-0.4577636420726776,0.6713866591453552,100.0,245698.0,1.0
15:06:32.732231,176305.828125,179563.734375,194338.40625,172237.453125,165893.40625,191321.46875,688913.625,174101.59375,0.06494140625,0.986083984375,-0.2119140625,-2.044677495956421,-0.4577636420726776,0.6103515028953552,100.0,245699.0,1.0
15:06:32.732239,176320.578125,179568.375,194342.34375,172235.484375,165893.046875,191328.34375,688699.125,174101.328125,0.06640625,0.98876953125,-0.21337890625,-2.044677495956421,-0.4272460639476776,0.6408690810203552,100.0,245700.0,1.0
15:06:32.747319,176399.4375,179583.671875,194360.140625,172229.5,165895.375,191386.28125,688924.4375,174099.0,0.067626953125,0.98974609375,-0.212890625,-2.105712652206421,-0.4577636420726776,0.6408690810203552,100.0,245701.0,1.0
15:06:32.747364,176369.671875,179580.1875,194355.21875,172230.84375,165897.6875,191387.71875,689092.5,174097.65625,0.067626953125,0.987548828125,-0.21435546875,-2.166747808456421,-0.3356933295726776,0.6408690810203552,100.0,245702.0,1.0
15:06:32.749783,176311.546875,179560.6875,194336.09375,172231.46875,165886.875,191324.328125,688955.8125,174096.765625,0.06884765625,0.9873046875,-0.214599609375,-2.105712652206421,-0.4272460639476776,0.5798339247703552,100.0,245703.0,1.0
15:06:32.749816,176311.734375,179569.0,194341.09375,172234.421875,165888.3125,191326.03125,688719.125,174100.078125,0.070068359375,0.9873046875,-0.212890625,-2.166747808456421,-0.3051757514476776,0.5493163466453552,100.0,245704.0,1.0
15:06:32.756821,176388.078125,179577.40625,194352.359375,172222.34375,165885.171875,191375.375,688863.8125,174092.296875,0.071044921875,0.987548828125,-0.213623046875,-2.166747808456421,-0.2746581733226776,0.5798339247703552,100.0,245705.0,1.0
15:06:32.761025,176371.28125,179575.890625,194349.765625,172222.796875,165887.140625,191390.9375,689082.5,174090.5,0.07080078125,0.986083984375,-0.21630859375,-2.197265386581421,-0.1831054538488388,0.7019042372703552,100.0,245706.0,1.0
15:06:32.761034,176310.03125,179554.171875,194328.484375,172225.390625,165877.21875,191329.421875,688990.5625,174092.03125,0.07080078125,0.9853515625,-0.216552734375,-2.227782964706421,-0.0915527269244194,0.5798339247703552,100.0,245707.0,1.0
15:06:32.771027,176283.65625,179545.9375,194316.78125,172222.34375,165868.375,191304.484375,688735.0,174086.484375,0.069580078125,0.983642578125,-0.215087890625,-2.227782964706421,-0.0915527269244194,0.6103515028953552,100.0,245708.0,1.0
15:06:32.771041,176361.4375,179555.59375,194330.546875,172214.921875,165867.828125,191351.140625,688818.0625,174084.15625,0.0673828125,0.983642578125,-0.21484375,-2.288818120956421,-0.03051757626235485,0.5493163466453552,100.0,245709.0,1.0
15:06:32.773598,176366.0,179565.15625,194336.453125,172213.578125,165873.5625,191386.015625,689065.5,174081.734375,0.06640625,0.984619140625,-0.21435546875,-2.258300542831421,0.0915527269244194,0.3662109076976776,100.0,245710.0,1.0
15:06:32.773627,176306.359375,179544.859375,194317.21875,172211.34375,165865.421875,191333.265625,689016.3125,174078.609375,0.06689453125,0.983154296875,-0.213623046875,-2.166747808456421,0.1220703050494194,0.3051757514476776,100.0,245711.0,1.0
15:06:32.809309,176282.046875,179551.390625,194319.015625,172221.546875,165870.78125,191311.984375,688780.0625,174087.28125,0.066650390625,0.9833984375,-0.2119140625,-2.136230230331421,0.2136230319738388,0.3356933295726776,100.0,245712.0,1.0
15:06:32.825464,176362.609375,179576.78125,194347.171875,172227.171875,165884.734375,191366.796875,688791.9375,174095.59375,0.06640625,0.985107421875,-0.213134765625,-2.136230230331421,0.2136230319738388,0.2441406100988388,100.0,245713.0,1.0
15:06:32.825477,176390.671875,179587.0625,194358.984375,172228.328125,165891.96875,191406.765625,689059.6875,174094.609375,0.06689453125,0.983642578125,-0.21142578125,-1.9531248807907104,0.2441406100988388,0.1525878757238388,100.0,245714.0,1.0
15:06:32.825478,176330.15625,179570.703125,194338.6875,172222.171875,165881.6875,191361.15625,689054.8125,174087.734375,0.067138671875,0.983154296875,-0.212646484375,-1.8615721464157104,0.2136230319738388,0.2136230319738388,100.0,245715.0,1.0
15:06:32.832825,176292.15625,179565.15625,194334.125,172231.109375,165885.359375,191322.984375,688826.25,174096.5,0.0654296875,0.983154296875,-0.2099609375,-1.8615721464157104,0.2136230319738388,0.2136230319738388,100.0,245716.0,1.0
15:06:32.832834,176351.0625,179577.328125,194354.15625,172235.046875,165893.5,191360.265625,688740.25,174103.46875,0.065185546875,0.98388671875,-0.211181640625,-1.8005369901657104,0.1831054538488388,0.1525878757238388,100.0,245717.0,1.0
15:06:32.832836,176396.484375,179586.265625,194365.5,172233.96875,165899.390625,191405.953125,689015.0625,174101.140625,0.063232421875,0.986083984375,-0.208740234375,-1.6784666776657104,0.2136230319738388,0.1831054538488388,100.0,245718.0,1.0
15:06:32.835989,176346.328125,179575.984375,194352.546875,172233.515625,165896.984375,191376.453125,689067.0625,174100.703125,0.06201171875,0.986083984375,-0.212890625,-1.6479490995407104,0.1831054538488388,0.0915527269244194,100.0,245719.0,1.0
15:06:32.836006,176304.21875,179571.0625,194343.15625,172238.34375,165891.890625,191326.375,688870.4375,174103.5625,0.0595703125,0.9853515625,-0.210693359375,-1.5563963651657104,0.2746581733226776,0.03051757626235485,100.0,245720.0,1.0
15:06:32.837904,176342.578125,179575.171875,194353.171875,172237.71875,165890.453125,191343.8125,688714.75,174103.375,0.060791015625,0.984619140625,-0.2119140625,-1.5869139432907104,0.2441406100988388,0.2746581733226776,100.0,245721.0,1.0
15:06:32.840464,176406.0625,179577.59375,194366.84375,172234.421875,165892.859375,191390.9375,688979.9375,174102.390625,0.060791015625,0.9873046875,-0.212158203125,-1.5258787870407104,0.1220703050494194,0.2136230319738388,100.0,245722.0,1.0
15:06:32.842931,176366.8125,179579.5625,194362.90625,172242.28125,165898.140625,191383.421875,689088.375,174107.3125,0.062255859375,0.986572265625,-0.21337890625,-1.5258787870407104,0.0,0.2746581733226776,100.0,245723.0,1.0
15:06:32.845451,176316.734375,179566.40625,194347.359375,172248.71875,165889.921875,191322.8125,688913.9375,174109.71875,0.062255859375,0.98876953125,-0.212890625,-1.4953612089157104,-0.0915527269244194,0.3356933295726776,100.0,245724.0,1.0
15:06:32.847857,176335.25,179571.78125,194351.5625,172248.1875,165885.984375,191329.421875,688709.0625,174107.578125,0.0634765625,0.9873046875,-0.212890625,-1.4648436307907104,0.0,0.3967284858226776,100.0,245725.0,1.0
15:06:32.879140,176400.515625,179575.984375,194356.390625,172231.109375,165877.75,191375.640625,688933.375,174094.96875,0.062255859375,0.986083984375,-0.212158203125,-1.3732908964157104,-0.0610351525247097,0.4272460639476776,100.0,245726.0,1.0
15:06:32.881701,176370.203125,179582.5,194354.328125,172232.1875,165884.015625,191386.90625,689093.0625,174095.59375,0.0615234375,0.9853515625,-0.2109375,-1.4953612089157104,-0.0915527269244194,0.5187987685203552,100.0,245727.0,1.0
15:06:32.884187,176309.765625,179559.34375,194333.3125,172230.84375,165874.71875,191322.53125,688956.4375,174094.703125,0.061279296875,0.985107421875,-0.2119140625,-1.4648436307907104,-0.1831054538488388,0.6103515028953552,100.0,245728.0,1.0
15:06:32.886698,176304.21875,179560.15625,194333.3125,172231.90625,165873.734375,191316.640625,688719.4375,174095.515625,0.0615234375,0.9873046875,-0.210693359375,-1.4343260526657104,-0.1525878757238388,0.6103515028953552,100.0,245729.0,1.0
15:06:32.889721,176386.921875,179574.109375,194350.9375,172226.453125,165876.859375,191373.5,688882.375,174094.703125,0.060302734375,0.98779296875,-0.213134765625,-1.2817381620407104,-0.2441406100988388,0.6408690810203552,100.0,245730.0,1.0
15:06:32.889747,176371.8125,179576.0625,194349.046875,172224.9375,165879.90625,191394.234375,689088.5625,174091.390625,0.063232421875,0.987548828125,-0.211181640625,-1.3732908964157104,-0.2136230319738388,0.6713866591453552,100.0,245731.0,1.0
15:06:32.891799,176309.578125,179552.203125,194329.296875,172225.828125,165873.28125,191334.34375,689000.5,174091.84375,0.063720703125,0.9892578125,-0.21337890625,-1.3427733182907104,-0.1831054538488388,0.6408690810203552,100.0,245732.0,1.0
15:06:32.894147,176291.703125,179554.796875,194328.21875,172230.03125,165875.25,191319.234375,688754.5625,174093.8125,0.06201171875,0.98828125,-0.210693359375,-1.4038084745407104,-0.2136230319738388,0.6713866591453552,100.0,245733.0,1.0
15:06:32.896738,176372.53125,179567.578125,194346.375,172223.859375,165877.84375,191368.9375,688831.25,174093.09375,0.06201171875,0.98681640625,-0.212890625,-1.3732908964157104,-0.2136230319738388,0.8239745497703552,100.0,245734.0,1.0
15:06:32.899139,176377.09375,179574.28125,194348.875,172216.53125,165882.765625,191401.390625,689070.8125,174085.671875,0.0634765625,0.98388671875,-0.21044921875,-1.4038084745407104,-0.1831054538488388,0.8544921278953552,100.0,245735.0,1.0
15:06:32.901810,176320.9375,179558.8125,194333.046875,172220.015625,165878.5625,191350.4375,689020.5625,174087.640625,0.064453125,0.986572265625,-0.2109375,-1.2817381620407104,-0.2136230319738388,0.7629393935203552,100.0,245736.0,1.0
15:06:32.904164,176290.546875,179559.265625,194327.6875,172222.171875,165877.671875,191319.59375,688772.875,174088.625,0.06494140625,0.988525390625,-0.212646484375,-1.2512205839157104,-0.1220703050494194,0.8544921278953552,100.0,245737.0,1.0
15:06:32.907046,176361.0,179567.9375,194344.3125,172219.125,165881.515625,191358.921875,688777.375,174090.5,0.06591796875,0.9873046875,-0.213134765625,-1.3122557401657104,-0.1220703050494194,0.8239745497703552,100.0,245738.0,1.0
15:06:32.909718,176393.984375,179583.125,194360.40625,172224.3125,165896.265625,191403.546875,689053.25,174097.203125,0.06591796875,0.98779296875,-0.211669921875,-1.3732908964157104,-0.03051757626235485,0.7934569716453552,100.0,245739.0,1.0
15:06:32.909732,176341.234375,179571.859375,194348.96875,172231.546875,165895.640625,191363.9375,689049.0,174101.6875,0.06640625,0.9873046875,-0.212890625,-1.3427733182907104,-0.03051757626235485,0.8544921278953552,100.0,245740.0,1.0
15:06:32.911746,176304.671875,179566.953125,194342.265625,172239.875,165893.671875,191320.296875,688816.25,174107.046875,0.06591796875,0.987060546875,-0.21240234375,-1.4038084745407104,0.03051757626235485,0.8239745497703552,100.0,245741.0,1.0
15:06:32.915331,176366.265625,179579.203125,194357.28125,172241.921875,165897.25,191354.71875,688737.0,174109.453125,0.066650390625,0.986083984375,-0.212890625,-1.3732908964157104,0.0915527269244194,0.8239745497703552,100.0,245742.0,1.0
15:06:32.915336,176409.71875,179582.234375,194365.5,172237.8125,165896.4375,191396.203125,689012.75,174107.140625,0.065673828125,0.98828125,-0.2158203125,-1.3427733182907104,0.03051757626235485,0.7934569716453552,100.0,245743.0,1.0
15:06:32.915338,176354.375,179566.953125,194348.0625,172235.390625,165888.671875,191362.0625,689069.5625,174102.484375,0.06787109375,0.987060546875,-0.214111328125,-1.4038084745407104,0.1525878757238388,0.8544921278953552,100.0,245744.0,1.0
15:06:32.917907,176292.78125,179542.453125,194321.34375,172227.625,165869.265625,191294.640625,688857.1875,174093.640625,0.06689453125,0.98779296875,-0.216552734375,-1.3732908964157104,0.1525878757238388,0.7629393935203552,100.0,245745.0,1.0
15:06:32.920987,176326.03125,179551.390625,194329.296875,172221.890625,165866.578125,191316.09375,688706.75,174089.4375,0.06591796875,0.98681640625,-0.216064453125,-1.4038084745407104,0.1525878757238388,0.7629393935203552,100.0,245746.0,1.0
15:06:32.920998,176383.796875,179558.015625,194336.171875,172208.9375,165861.390625,191363.3125,688980.3125,174078.078125,0.065673828125,0.98583984375,-0.217529296875,-1.4343260526657104,0.2441406100988388,0.7019042372703552,100.0,245747.0,1.0
15:06:32.922904,176337.03125,179549.6875,194321.6875,172206.703125,165854.515625,191348.46875,689087.875,174071.015625,0.066162109375,0.9853515625,-0.217041015625,-1.4038084745407104,0.3051757514476776,0.7019042372703552,100.0,245748.0,1.0
15:06:32.930395,176282.671875,179537.0,194301.75,172207.953125,165844.5,191292.59375,688913.5,174069.5,0.0654296875,0.985107421875,-0.217529296875,-1.3427733182907104,0.3051757514476776,0.7019042372703552,100.0,245749.0,1.0
15:06:32.937377,176298.765625,179555.5,194307.203125,172206.515625,165847.984375,191317.625,688704.6875,174069.671875,0.06494140625,0.985595703125,-0.216552734375,-1.2512205839157104,0.3051757514476776,0.7324218153953552,100.0,245750.0,1.0
15:06:32.937393,176370.375,179558.640625,194321.25,172200.53125,165852.640625,191366.171875,688939.4375,174069.578125,0.065673828125,0.986083984375,-0.21630859375,-1.2817381620407104,0.3662109076976776,0.7019042372703552,100.0,245751.0,1.0
15:06:32.939177,176342.046875,179546.828125,194320.53125,172209.375,165862.203125,191360.984375,689106.5625,174077.71875,0.06787109375,0.985595703125,-0.21337890625,-1.2817381620407104,0.3967284858226776,0.6103515028953552,100.0,245752.0,1.0
15:06:32.951005,176283.125,179531.90625,194303.640625,172210.28125,165857.015625,191306.0,688971.4375,174078.875,0.0654296875,0.988037109375,-0.216064453125,-1.3732908964157104,0.3356933295726776,0.6713866591453552,100.0,245753.0,1.0
15:06:32.951014,176281.78125,179541.5625,194309.0,172211.703125,165861.65625,191307.515625,688730.3125,174080.671875,0.06640625,0.989990234375,-0.214111328125,-1.4038084745407104,0.3051757514476776,0.6103515028953552,100.0,245754.0,1.0
15:06:32.955973,176370.46875,179561.5,194333.40625,172209.65625,165871.671875,191365.984375,688899.125,174084.6875,0.068115234375,0.98876953125,-0.214111328125,-1.4343260526657104,0.3662109076976776,0.6103515028953552,100.0,245755.0,1.0
15:06:32.955981,176361.984375,179573.03125,194339.9375,172216.359375,165880.96875,191391.375,689107.8125,174089.703125,0.0654296875,0.98828125,-0.213134765625,-1.5258787870407104,0.3662109076976776,0.6103515028953552,100.0,245756.0,1.0
15:06:32.957895,176298.3125,179549.515625,194318.203125,172215.640625,165869.890625,191327.1875,689003.125,174087.375,0.06689453125,0.988037109375,-0.214599609375,-1.4953612089157104,0.3967284858226776,0.6408690810203552,100.0,245757.0,1.0
15:06:32.967934,176278.203125,179549.421875,194316.6875,172215.453125,165868.453125,191307.515625,688745.6875,174085.234375,0.065673828125,0.987060546875,-0.214599609375,-1.4343260526657104,0.4272460639476776,0.6103515028953552,100.0,245758.0,1.0
15:06:32.972201,176364.03125,179565.515625,194339.125,172213.3125,165874.71875,191358.03125,688820.5625,174085.40625,0.06396484375,0.9873046875,-0.21484375,-1.4953612089157104,0.5493163466453552,0.6408690810203552,100.0,245759.0,1.0
15:06:32.972212,176376.640625,179579.109375,194352.984375,172220.28125,165889.375,191394.78125,689069.0625,174090.953125,0.064697265625,0.986083984375,-0.215576171875,-1.3732908964157104,0.5493163466453552,0.7019042372703552,100.0,245760.0,1.0
15:06:32.982296,176323.359375,179569.546875,194341.0,172228.609375,165888.484375,191348.46875,689025.4375,174097.5625,0.06494140625,0.988037109375,-0.21435546875,-1.3732908964157104,0.4272460639476776,0.7019042372703552,100.0,245761.0,1.0
15:06:32.982306,176299.390625,179574.015625,194343.78125,172240.21875,165895.28125,191324.765625,688786.5625,174106.78125,0.065673828125,0.98583984375,-0.21435546875,-1.4038084745407104,0.3967284858226776,0.7019042372703552,100.0,245762.0,1.0
15:06:32.984165,176365.90625,179578.9375,194355.484375,172229.9375,165893.40625,191358.03125,688780.125,174099.890625,0.064697265625,0.98486328125,-0.214599609375,-1.4038084745407104,0.3967284858226776,0.5798339247703552,100.0,245763.0,1.0
15:06:32.987876,176396.84375,179588.859375,194367.921875,172230.75,165901.625,191398.53125,689051.5625,174100.515625,0.06787109375,0.984130859375,-0.212890625,-1.4343260526657104,0.3662109076976776,0.5798339247703552,100.0,245764.0,1.0
15:06:32.998762,176346.0625,179577.765625,194356.828125,172237.453125,165901.0,191357.671875,689055.3125,174104.09375,0.064453125,0.983154296875,-0.21484375,-1.4038084745407104,0.4272460639476776,0.6713866591453552,100.0,245765.0,1.0
15:06:32.998776,176303.78125,179571.0625,194345.203125,172241.5625,165895.546875,191311.8125,688828.375,174105.609375,0.0654296875,0.984375,-0.214111328125,-1.3732908964157104,0.3662109076976776,0.7324218153953552,100.0,245766.0,1.0
15:06:33.000979,176357.59375,179580.890625,194353.796875,172235.671875,165891.609375,191341.578125,688744.25,174100.703125,0.064697265625,0.985595703125,-0.21728515625,-1.3122557401657104,0.4272460639476776,0.6713866591453552,100.0,245767.0,1.0
15:06:33.000985,176402.296875,179585.453125,194361.21875,172230.125,165890.453125,191384.046875,689028.875,174093.90625,0.06494140625,0.986083984375,-0.2158203125,-1.3427733182907104,0.4577636420726776,0.6713866591453552,100.0,245768.0,1.0
15:06:33.010492,176349.640625,179574.453125,194344.046875,172230.921875,165881.78125,191354.453125,689091.4375,174091.671875,0.06591796875,0.986328125,-0.21484375,-1.3122557401657104,0.3967284858226776,0.6103515028953552,100.0,245769.0,1.0
15:06:33.012902,176292.953125,179553.8125,194320.984375,172227.171875,165865.59375,191293.921875,688875.625,174084.875,0.064453125,0.988525390625,-0.21337890625,-1.2512205839157104,0.4272460639476776,0.6713866591453552,100.0,245770.0,1.0
15:06:33.016677,176322.109375,179559.703125,194323.296875,172216.984375,165858.796875,191315.203125,688715.375,174077.265625,0.06591796875,0.987548828125,-0.21435546875,-1.3427733182907104,0.4272460639476776,0.7324218153953552,100.0,245771.0,1.0
15:06:33.027291,176376.90625,179558.640625,194327.59375,172203.5625,165854.953125,191363.484375,688975.5625,174070.390625,0.067138671875,0.98681640625,-0.215087890625,-1.4038084745407104,0.4577636420726776,0.7629393935203552,100.0,245772.0,1.0
15:06:33.027304,176325.59375,179549.15625,194311.6875,172201.953125,165848.703125,191345.515625,689092.5,174066.0,0.064208984375,0.987548828125,-0.215087890625,-1.4648436307907104,0.3662109076976776,0.7934569716453552,100.0,245773.0,1.0
15:06:33.029868,176270.6875,179533.59375,194294.96875,172208.484375,165843.421875,191287.125,688916.3125,174071.90625,0.06396484375,0.9873046875,-0.219970703125,-1.4343260526657104,0.2136230319738388,0.8239745497703552,100.0,245774.0,1.0
15:06:33.029875,176286.703125,179545.21875,194302.46875,172207.765625,165846.828125,191300.28125,688703.4375,174073.25,0.06396484375,0.9853515625,-0.21533203125,-1.4038084745407104,0.1831054538488388,0.7324218153953552,100.0,245775.0,1.0
15:06:33.039147,176362.609375,179548.359375,194318.125,172201.25,165851.65625,191350.515625,688935.3125,174070.390625,0.06494140625,0.984130859375,-0.213134765625,-1.5869139432907104,0.1525878757238388,0.6713866591453552,100.0,245776.0,1.0
15:06:33.041758,176340.875,179557.203125,194323.390625,172211.34375,165864.796875,191364.296875,689101.125,174079.6875,0.066650390625,0.982666015625,-0.21240234375,-1.4953612089157104,0.1220703050494194,0.5493163466453552,100.0,245777.0,1.0
15:06:33.045665,176289.5625,179545.671875,194311.6875,172219.390625,165864.4375,191310.46875,688960.375,174086.125,0.0673828125,0.9853515625,-0.215087890625,-1.4343260526657104,0.03051757626235485,0.6103515028953552,100.0,245778.0,1.0
15:06:33.052337,176293.671875,179556.484375,194319.640625,172225.203125,165870.6875,191312.171875,688720.375,174090.0625,0.067626953125,0.9853515625,-0.215576171875,-1.4038084745407104,0.1220703050494194,0.6103515028953552,100.0,245779.0,1.0
15:06:33.052351,176382.8125,179572.84375,194343.328125,172226.09375,165878.296875,191364.734375,688888.75,174094.078125,0.068115234375,0.98681640625,-0.215576171875,-1.4648436307907104,0.0610351525247097,0.6713866591453552,100.0,245780.0,1.0
15:06:33.054173,176375.296875,179581.96875,194347.359375,172230.484375,165885.984375,191390.046875,689097.0,174095.421875,0.0693359375,0.987060546875,-0.213134765625,-1.4038084745407104,0.03051757626235485,0.7019042372703552,100.0,245781.0,1.0
15:06:33.060497,176325.234375,179574.90625,194337.15625,172239.25,165884.734375,191339.53125,688997.9375,174101.59375,0.069580078125,0.987060546875,-0.217529296875,-1.4038084745407104,0.0,0.6408690810203552,100.0,245782.0,1.0
15:06:33.066791,176313.515625,179582.59375,194343.953125,172255.515625,165893.046875,191327.640625,688748.125,174112.3125,0.068115234375,0.987060546875,-0.21337890625,-1.4038084745407104,0.0610351525247097,0.6408690810203552,100.0,245783.0,1.0
15:06:33.069854,176381.109375,179579.5625,194350.125,172233.703125,165884.828125,191363.484375,688826.4375,174099.890625,0.066162109375,0.98681640625,-0.212890625,-1.4038084745407104,-0.03051757626235485,0.5798339247703552,100.0,245784.0,1.0
15:06:33.069870,176393.09375,179589.65625,194360.5,172236.828125,165895.90625,191400.953125,689077.5625,174103.28125,0.06640625,0.988037109375,-0.216064453125,-1.4343260526657104,0.03051757626235485,0.6103515028953552,100.0,245785.0,1.0
15:06:33.075437,176339.453125,179578.296875,194346.1875,172244.25,165891.4375,191351.59375,689032.0625,174107.40625,0.0673828125,0.98876953125,-0.21484375,-1.4953612089157104,0.0915527269244194,0.5187987685203552,100.0,245786.0,1.0
15:06:33.091072,176303.328125,179570.25,194334.296875,172242.109375,165881.78125,191312.34375,688782.1875,174101.59375,0.068115234375,0.98779296875,-0.21533203125,-1.4953612089157104,0.0610351525247097,0.4882812201976776,100.0,245787.0,1.0
15:06:33.091082,176374.3125,179580.265625,194350.9375,172238.703125,165881.25,191350.25,688786.1875,174102.484375,0.067138671875,0.9853515625,-0.21630859375,-1.5258787870407104,0.0915527269244194,0.5493163466453552,100.0,245788.0,1.0
15:06:33.093596,176405.421875,179597.53125,194363.53125,172240.671875,165891.171875,191396.296875,689062.8125,174105.4375,0.066650390625,0.985107421875,-0.21337890625,-1.4648436307907104,0.0610351525247097,0.4882812201976776,100.0,245789.0,1.0
15:06:33.093610,176347.5,179578.65625,194345.5625,172238.796875,165886.515625,191353.734375,689066.875,174103.28125,0.067626953125,0.9873046875,-0.213134765625,-1.4953612089157104,0.03051757626235485,0.4882812201976776,100.0,245790.0,1.0
15:06:33.095543,176296.53125,179564.359375,194325.71875,172233.25,165874.0,191301.265625,688829.3125,174095.59375,0.069091796875,0.988525390625,-0.21533203125,-1.4648436307907104,0.0915527269244194,0.4272460639476776,100.0,245791.0,1.0
15:06:33.099122,176346.421875,179575.0,194336.265625,172225.109375,165874.1875,191335.953125,688746.6875,174092.46875,0.066650390625,0.987548828125,-0.21484375,-1.5258787870407104,0.1831054538488388,0.3967284858226776,100.0,245792.0,1.0
15:06:33.114153,176389.78125,179580.09375,194347.359375,172222.078125,165877.9375,191382.625,689021.875,174091.390625,0.069091796875,0.987060546875,-0.217041015625,-1.5258787870407104,0.0915527269244194,0.4577636420726776,100.0,245793.0,1.0
15:06:33.117222,176335.953125,179566.765625,194331.53125,172224.484375,165871.3125,191352.9375,689085.875,174091.578125,0.068359375,0.985595703125,-0.2177734375,-1.6479490995407104,0.1220703050494194,0.4577636420726776,100.0,245794.0,1.0
15:06:33.117236,176281.59375,179559.703125,194311.40625,172217.703125,165859.15625,191303.578125,688880.1875,174084.15625,0.06689453125,0.987548828125,-0.2158203125,-1.6174315214157104,0.0610351525247097,0.4272460639476776,100.0,245795.0,1.0
15:06:33.119129,176320.9375,179568.5625,194320.890625,172216.71875,165861.125,191330.40625,688724.875,174085.046875,0.066162109375,0.9853515625,-0.2138671875,-1.4648436307907104,0.0610351525247097,0.4577636420726776,100.0,245796.0,1.0
15:06:33.121702,176377.71875,179560.328125,194327.140625,172208.21875,165857.109375,191367.234375,688988.0,174079.421875,0.065185546875,0.984375,-0.21728515625,-1.5563963651657104,0.1831054538488388,0.2441406100988388,100.0,245797.0,1.0
15:06:33.125962,176336.765625,179562.21875,194323.125,172213.21875,165862.5625,191363.3125,689099.6875,174083.171875,0.06494140625,0.98486328125,-0.215087890625,-1.5563963651657104,0.2441406100988388,0.2136230319738388,100.0,245798.0,1.0
15:06:33.125971,176282.3125,179545.484375,194308.46875,172216.265625,165857.375,191301.4375,688919.625,174084.6875,0.067138671875,0.9853515625,-0.213134765625,-1.7089842557907104,0.2136230319738388,0.3356933295726776,100.0,245799.0,1.0
15:06:33.132965,176304.84375,179557.03125,194322.328125,172220.28125,165864.609375,191313.6875,688708.0,174088.984375,0.0673828125,0.986083984375,-0.212890625,-1.6784666776657104,0.1220703050494194,0.2441406100988388,100.0,245800.0,1.0
15:06:33.137235,176387.734375,179575.984375,194345.03125,172218.953125,165872.65625,191373.5,688936.0625,174090.6875,0.068359375,0.986083984375,-0.2158203125,-1.6479490995407104,0.0610351525247097,0.3051757514476776,100.0,245801.0,1.0
15:06:33.137244,176359.5625,179577.59375,194341.28125,172223.421875,165875.4375,191377.96875,689095.0,174091.125,0.067138671875,0.985595703125,-0.215087890625,-1.7089842557907104,0.1220703050494194,0.2746581733226776,100.0,245802.0,1.0
15:06:33.186960,176287.953125,179542.265625,194309.0,172216.71875,165855.234375,191302.234375,688944.75,174082.09375,0.06640625,0.988525390625,-0.21484375,-1.7700194120407104,0.0915527269244194,0.4272460639476776,100.0,245803.0,1.0
15:06:33.192479,176287.140625,179550.3125,194316.515625,172221.0,165863.0,191304.828125,688707.875,174087.546875,0.064697265625,0.98974609375,-0.21435546875,-1.8310545682907104,0.03051757626235485,0.3967284858226776,100.0,245804.0,1.0
15:06:33.192567,176373.515625,179565.4375,194340.65625,172216.4375,165872.921875,191361.609375,688874.0,174088.53125,0.067626953125,0.989501953125,-0.2138671875,-1.8005369901657104,0.03051757626235485,0.3356933295726776,100.0,245805.0,1.0
15:06:33.194243,176374.578125,179579.5625,194355.484375,172228.421875,165891.890625,191394.234375,689101.1875,174099.359375,0.06640625,0.99072265625,-0.213134765625,-1.8920897245407104,0.0,0.3356933295726776,100.0,245806.0,1.0
15:06:33.197882,176328.359375,179576.875,194350.578125,172240.671875,165897.15625,191349.0,689012.0625,174109.015625,0.06689453125,0.9892578125,-0.21142578125,-1.9836424589157104,0.0915527269244194,0.3356933295726776,100.0,245807.0,1.0
15:06:33.197907,176321.296875,179590.546875,194359.25,172252.46875,165906.640625,191340.953125,688773.3125,174118.578125,0.06591796875,0.986572265625,-0.2138671875,-1.9226073026657104,0.1831054538488388,0.4577636420726776,100.0,245808.0,1.0
15:06:33.197917,176412.140625,179615.046875,194387.234375,172257.296875,165917.0,191399.875,688856.5,174127.15625,0.06591796875,0.9853515625,-0.213134765625,-1.8615721464157104,0.1525878757238388,0.4577636420726776,100.0,245809.0,1.0
15:06:33.202370,176412.3125,179617.46875,194386.328125,172253.09375,165914.421875,191425.625,689103.3125,174120.8125,0.066162109375,0.985107421875,-0.213623046875,-1.8310545682907104,0.1220703050494194,0.4577636420726776,100.0,245810.0,1.0
15:06:33.202451,176339.984375,179584.65625,194353.96875,172242.1875,165892.78125,191359.8125,689054.3125,174109.09375,0.065185546875,0.986083984375,-0.212158203125,-1.8310545682907104,0.1831054538488388,0.3662109076976776,100.0,245811.0,1.0
15:06:33.202481,176299.21875,179571.59375,194339.390625,172242.109375,165882.671875,191318.6875,688793.6875,174107.671875,0.064453125,0.987060546875,-0.213134765625,-1.8310545682907104,0.2136230319738388,0.4577636420726776,100.0,245812.0,1.0
15:06:33.202508,176356.34375,179570.703125,194343.15625,172226.71875,165871.046875,191348.015625,688778.5,174095.421875,0.062744140625,0.986328125,-0.21484375,-1.7395018339157104,0.1220703050494194,0.5187987685203552,100.0,245813.0,1.0
15:06:33.204977,176378.875,179574.28125,194346.015625,172220.375,165869.0,191382.53125,689042.875,174087.828125,0.0625,0.985107421875,-0.214111328125,-1.7089842557907104,0.1220703050494194,0.5187987685203552,100.0,245814.0,1.0
15:06:33.205057,176323.890625,179564.09375,194330.359375,172224.21875,165863.984375,191344.171875,689041.375,174088.171875,0.064208984375,0.984130859375,-0.214111328125,-1.8310545682907104,0.1831054538488388,0.4882812201976776,100.0,245815.0,1.0
15:06:33.206870,176286.96875,179559.890625,194323.9375,172232.09375,165864.171875,191306.0,688811.875,174092.109375,0.065185546875,0.984130859375,-0.215087890625,-1.8615721464157104,0.1525878757238388,0.4577636420726776,100.0,245816.0,1.0
15:06:33.209486,176350.71875,179578.484375,194343.328125,172231.734375,165871.140625,191338.265625,688726.1875,174094.34375,0.067138671875,0.985107421875,-0.214111328125,-1.8005369901657104,0.1220703050494194,0.5187987685203552,100.0,245817.0,1.0
15:06:33.211780,176405.515625,179587.609375,194364.609375,172237.90625,165885.09375,191391.65625,689008.125,174104.09375,0.06591796875,0.986083984375,-0.212158203125,-1.6174315214157104,0.03051757626235485,0.6408690810203552,100.0,245818.0,1.0
15:06:33.214241,176361.890625,179582.59375,194361.21875,172249.96875,165892.515625,191370.109375,689057.9375,174113.921875,0.0654296875,0.988525390625,-0.21484375,-1.6784666776657104,0.0610351525247097,0.5187987685203552,100.0,245819.0,1.0
15:06:33.216763,176316.640625,179572.21875,194350.3125,172253.375,165890.8125,191316.28125,688855.5,174115.625,0.06640625,0.9892578125,-0.21142578125,-1.6479490995407104,-0.03051757626235485,0.5187987685203552,100.0,245820.0,1.0
15:06:33.221818,176365.375,179593.421875,194370.0625,172259.53125,165903.5,191351.0625,688700.3125,174123.9375,0.065673828125,0.988525390625,-0.214111328125,-1.5563963651657104,-0.03051757626235485,0.6408690810203552,100.0,245821.0,1.0
15:06:33.224811,176432.25,179606.203125,194386.96875,172256.3125,165911.015625,191408.546875,688968.25,174125.375,0.065673828125,0.98681640625,-0.21142578125,-1.6479490995407104,0.03051757626235485,0.5187987685203552,100.0,245822.0,1.0
15:06:33.224880,176388.890625,179600.5625,194378.5625,172262.578125,165913.703125,191398.265625,689084.5625,174133.15625,0.06494140625,0.98583984375,-0.2119140625,-1.6784666776657104,0.0,0.5187987685203552,100.0,245823.0,1.0
15:06:33.227968,176327.828125,179578.21875,194354.78125,172258.375,165899.296875,191331.5625,688906.1875,174128.0625,0.064208984375,0.984130859375,-0.21630859375,-1.5563963651657104,-0.0610351525247097,0.4882812201976776,100.0,245824.0,1.0
15:06:33.238732,176350.265625,179593.6875,194368.453125,172263.03125,165907.4375,191349.71875,688706.375,174132.703125,0.067138671875,0.98291015625,-0.213623046875,-1.5563963651657104,-0.03051757626235485,0.5187987685203552,100.0,245825.0,1.0
15:06:33.238813,176419.828125,179598.0625,194377.578125,172246.84375,165902.875,191397.8125,688932.75,174118.40625,0.06787109375,0.98095703125,-0.214599609375,-1.4953612089157104,-0.0610351525247097,0.4272460639476776,100.0,245826.0,1.0
15:06:33.241199,176384.59375,179589.84375,194367.109375,172242.546875,165899.03125,191394.0625,689090.8125,174111.0625,0.06787109375,0.97998046875,-0.21533203125,-1.4343260526657104,-0.1220703050494194,0.4882812201976776,100.0,245827.0,1.0
15:06:33.241216,176322.90625,179567.9375,194342.890625,172239.25,165884.375,191327.0,688959.8125,174104.71875,0.067138671875,0.982421875,-0.2158203125,-1.3427733182907104,0.0,0.2746581733226776,100.0,245828.0,1.0
15:06:33.247884,176320.3125,179570.703125,194342.890625,172239.15625,165881.515625,191320.65625,688718.875,174102.3125,0.066162109375,0.982177734375,-0.216552734375,-1.3122557401657104,-0.0610351525247097,0.4577636420726776,100.0,245829.0,1.0
15:06:33.257963,176409.71875,179592.609375,194366.484375,172237.640625,165890.453125,191380.828125,688878.5,174103.921875,0.06591796875,0.983642578125,-0.21484375,-1.3122557401657104,-0.0610351525247097,0.3662109076976776,100.0,245830.0,1.0
15:06:33.263554,176395.140625,179598.15625,194367.109375,172237.546875,165894.5625,191401.65625,689091.6875,174101.59375,0.06591796875,0.98291015625,-0.21435546875,-1.2817381620407104,0.0,0.5493163466453552,100.0,245831.0,1.0
15:06:33.263570,176335.953125,179582.234375,194346.109375,172237.453125,165883.03125,191342.203125,689007.125,174098.640625,0.06689453125,0.98193359375,-0.21337890625,-1.2207030057907104,0.03051757626235485,0.5493163466453552,100.0,245832.0,1.0
15:06:33.265391,176310.21875,179573.203125,194336.625,172235.9375,165873.90625,191313.59375,688761.5,174094.34375,0.06591796875,0.98291015625,-0.214111328125,-1.1596678495407104,0.03051757626235485,0.5187987685203552,100.0,245833.0,1.0
15:06:33.267972,176384.421875,179575.359375,194347.359375,172225.75,165868.015625,191354.984375,688843.1875,174088.0,0.068115234375,0.983642578125,-0.2158203125,-1.1291502714157104,0.0610351525247097,0.6103515028953552,100.0,245834.0,1.0
15:06:33.279208,176385.140625,179580.1875,194349.765625,172222.96875,165871.765625,191386.734375,689091.0625,174085.046875,0.06689453125,0.982177734375,-0.216064453125,-1.1291502714157104,0.0610351525247097,0.6103515028953552,100.0,245835.0,1.0
15:06:33.282266,176322.640625,179560.875,194330.640625,172222.96875,165864.34375,191333.625,689035.5625,174083.890625,0.064208984375,0.982421875,-0.220458984375,-1.0681151151657104,-0.0610351525247097,0.6408690810203552,100.0,245836.0,1.0
15:06:33.282289,176294.296875,179560.421875,194327.6875,172227.53125,165867.5625,191303.671875,688791.6875,174088.171875,0.064208984375,0.985595703125,-0.21630859375,-1.0986326932907104,0.0610351525247097,0.6408690810203552,100.0,245837.0,1.0
15:06:33.286705,176363.234375,179573.203125,194343.875,172223.421875,165871.234375,191344.53125,688794.875,174090.421875,0.063720703125,0.986083984375,-0.21875,-1.0375975370407104,0.03051757626235485,0.5493163466453552,100.0,245838.0,1.0
15:06:33.291197,176386.03125,179580.1875,194351.46875,172221.71875,165877.125,191386.375,689065.9375,174092.296875,0.065185546875,0.990234375,-0.2177734375,-0.9155272841453552,0.03051757626235485,0.5187987685203552,100.0,245839.0,1.0
15:06:33.291216,176331.671875,179567.390625,194339.046875,172228.609375,165877.75,191349.53125,689070.0,174098.640625,0.066650390625,0.99072265625,-0.21630859375,-0.8239745497703552,0.0915527269244194,0.4882812201976776,100.0,245840.0,1.0
15:06:33.300612,176282.578125,179547.90625,194318.828125,172226.375,165865.6875,191293.296875,688832.0625,174094.703125,0.066650390625,0.98974609375,-0.2138671875,-0.9765624403953552,-0.03051757626235485,0.5187987685203552,100.0,245841.0,1.0
15:06:33.303649,176344.546875,179565.609375,194338.40625,172228.15625,165872.21875,191334.15625,688748.375,174099.53125,0.06689453125,0.989990234375,-0.216552734375,-1.0070799589157104,-0.0610351525247097,0.3967284858226776,100.0,245842.0,1.0
15:06:33.303704,176398.984375,179584.296875,194359.328125,172227.890625,165884.90625,191392.90625,689031.6875,174102.578125,0.064453125,0.990234375,-0.215576171875,-1.0070799589157104,0.0610351525247097,0.4577636420726776,100.0,245843.0,1.0
15:06:33.309278,176348.65625,179577.140625,194349.59375,172230.65625,165886.96875,191372.609375,689087.5,174103.640625,0.063232421875,0.98779296875,-0.218017578125,-1.0070799589157104,0.0610351525247097,0.4272460639476776,100.0,245844.0,1.0
15:06:33.327878,176293.671875,179561.765625,194331.265625,172229.046875,165879.71875,191317.4375,688874.4375,174100.96875,0.060302734375,0.98779296875,-0.2158203125,-1.0070799589157104,-0.0610351525247097,0.4272460639476776,100.0,245845.0,1.0
15:06:33.327902,176332.5625,179574.640625,194344.046875,172230.125,165885.984375,191343.734375,688720.875,174104.1875,0.05859375,0.988525390625,-0.21240234375,-1.0375975370407104,-0.2136230319738388,0.2136230319738388,100.0,245846.0,1.0
15:06:33.327907,176394.4375,179582.421875,194354.953125,172222.34375,165885.265625,191394.234375,688988.625,174099.0,0.05859375,0.990478515625,-0.213134765625,-1.1291502714157104,-0.2136230319738388,0.1525878757238388,100.0,245847.0,1.0
15:06:33.331084,176350.0,179575.796875,194344.3125,172224.21875,165884.015625,191382.796875,689094.375,174098.015625,0.05810546875,0.992431640625,-0.21435546875,-1.2207030057907104,-0.3662109076976776,0.0,100.0,245848.0,1.0
15:06:33.331109,176293.671875,179556.046875,194325.71875,172226.09375,165872.921875,191316.90625,688923.8125,174096.5,0.06103515625,0.99609375,-0.211669921875,-1.4343260526657104,-0.4577636420726776,0.0,100.0,245849.0,1.0
15:06:33.332984,176318.609375,179573.75,194340.296875,172233.078125,165879.71875,191334.34375,688713.9375,174102.484375,0.0625,0.997314453125,-0.2138671875,-1.6479490995407104,-0.4272460639476776,0.0,100.0,245850.0,1.0
15:06:33.338030,176399.4375,179586.53125,194359.515625,172226.546875,165884.46875,191390.75,688932.1875,174098.546875,0.06298828125,0.998779296875,-0.2109375,-1.8615721464157104,-0.5187987685203552,-0.03051757626235485,100.0,245851.0,1.0
15:06:33.340423,176379.5,179593.421875,194364.515625,172238.171875,165896.71875,191402.5625,689108.25,174107.484375,0.06591796875,0.997802734375,-0.21044921875,-1.9531248807907104,-0.5493163466453552,0.03051757626235485,100.0,245852.0,1.0
15:06:33.342971,176321.75,179570.609375,194344.671875,172240.3125,165886.609375,191335.6875,688969.6875,174107.3125,0.065673828125,0.9990234375,-0.21044921875,-2.105712652206421,-0.5187987685203552,0.1525878757238388,100.0,245853.0,1.0
15:06:33.353019,176314.6875,179566.0625,194342.171875,172236.65625,165879.8125,191321.46875,688726.5,174102.578125,0.068603515625,0.9970703125,-0.209228515625,-2.319335699081421,-0.4882812201976776,0.2136230319738388,100.0,245854.0,1.0
15:06:33.357244,176395.78125,179575.171875,194357.09375,172231.734375,165878.203125,191368.578125,688893.5625,174102.21875,0.070068359375,0.995849609375,-0.213134765625,-2.197265386581421,-0.4577636420726776,0.3356933295726776,100.0,245855.0,1.0
15:06:33.357253,176377.0,179572.5,194350.125,172229.671875,165874.1875,191380.109375,689102.6875,174097.828125,0.068359375,0.9931640625,-0.211669921875,-2.471923589706421,-0.3662109076976776,0.4272460639476776,100.0,245856.0,1.0
15:06:33.359777,176315.125,179550.953125,194326.703125,172228.96875,165860.859375,191316.640625,689014.3125,174094.4375,0.068115234375,0.98779296875,-0.212890625,-2.563476324081421,-0.2746581733226776,0.5187987685203552,100.0,245857.0,1.0
15:06:33.359787,176288.3125,179546.125,194316.421875,172223.421875,165853.171875,191291.609375,688763.5625,174086.921875,0.066650390625,0.986572265625,-0.214111328125,-2.563476324081421,-0.1831054538488388,0.5187987685203552,100.0,245858.0,1.0
15:06:33.375634,176363.40625,179556.75,194331.078125,172211.609375,165852.453125,191338.546875,688840.9375,174081.109375,0.066650390625,0.986328125,-0.2177734375,-2.655029058456421,-0.1525878757238388,0.6103515028953552,100.0,245859.0,1.0
15:06:33.378535,176369.21875,179564.625,194337.078125,172210.09375,165861.84375,191374.390625,689090.1875,174082.28125,0.065673828125,0.98388671875,-0.2158203125,-2.655029058456421,-0.1220703050494194,0.7629393935203552,100.0,245860.0,1.0
15:06:33.378554,176315.9375,179553.625,194324.734375,172217.0625,165863.625,191330.3125,689041.8125,174088.0,0.063720703125,0.98486328125,-0.212646484375,-2.655029058456421,-0.2136230319738388,0.7019042372703552,100.0,245861.0,1.0
15:06:33.381158,176287.40625,179557.296875,194323.484375,172224.140625,165867.296875,191305.640625,688796.125,174092.921875,0.06396484375,0.9853515625,-0.212158203125,-2.624511480331421,-0.0915527269244194,0.7934569716453552,100.0,245862.0,1.0
15:06:33.381183,176360.90625,179574.015625,194342.078125,172224.9375,165875.171875,191354.09375,688798.125,174098.734375,0.064697265625,0.9853515625,-0.210205078125,-2.624511480331421,-0.0915527269244194,0.7934569716453552,100.0,245863.0,1.0
15:06:33.390484,176388.265625,179586.0,194351.203125,172226.453125,165883.921875,191398.4375,689066.25,174102.390625,0.0625,0.984130859375,-0.20751953125,-2.593993902206421,-0.1220703050494194,0.7324218153953552,100.0,245864.0,1.0
15:06:33.396067,176334.171875,179576.78125,194339.125,172233.25,165885.53125,191363.484375,689076.125,174109.71875,0.062255859375,0.982421875,-0.207275390625,-2.593993902206421,-0.1525878757238388,0.6408690810203552,100.0,245865.0,1.0
15:06:33.396131,176292.515625,179566.59375,194328.75,172235.046875,165883.84375,191320.84375,688844.25,174110.703125,0.064208984375,0.9814453125,-0.208984375,-2.593993902206421,-0.2441406100988388,0.5798339247703552,100.0,245866.0,1.0
15:06:33.401714,176353.125,179584.109375,194348.25,172234.421875,165894.296875,191363.21875,688765.8125,174113.578125,0.064208984375,0.980712890625,-0.2109375,-2.593993902206421,-0.3051757514476776,0.5798339247703552,100.0,245867.0,1.0
15:06:33.406034,176403.90625,179597.796875,194366.390625,172233.875,165903.421875,191415.96875,689044.0625,174112.59375,0.063720703125,0.981201171875,-0.2109375,-2.471923589706421,-0.2746581733226776,0.5493163466453552,100.0,245868.0,1.0
15:06:33.406108,176369.9375,179602.4375,194370.25,172251.40625,165915.75,191403.359375,689106.625,174125.640625,0.064453125,0.980712890625,-0.21240234375,-2.288818120956421,-0.2441406100988388,0.3662109076976776,100.0,245869.0,1.0
15:06:33.414218,176321.390625,179591.09375,194357.015625,172254.4375,165908.328125,191348.375,688895.625,174123.40625,0.064208984375,0.98095703125,-0.212890625,-2.258300542831421,-0.2746581733226776,0.3051757514476776,100.0,245870.0,1.0
15:06:33.421064,176360.640625,179604.046875,194368.546875,172253.015625,165910.296875,191370.640625,688737.5625,174122.421875,0.065185546875,0.981201171875,-0.212158203125,-2.136230230331421,-0.1831054538488388,0.2746581733226776,100.0,245871.0,1.0
15:06:33.421131,176427.78125,179619.609375,194386.0625,172249.609375,165918.4375,191426.421875,689000.875,174122.15625,0.066162109375,0.979736328125,-0.209228515625,-2.014159917831421,-0.2136230319738388,0.2441406100988388,100.0,245872.0,1.0
15:06:33.423027,176384.59375,179613.984375,194377.578125,172253.375,165918.796875,191415.34375,689129.4375,174123.578125,0.06591796875,0.979248046875,-0.208984375,-1.9836424589157104,-0.1831054538488388,0.3356933295726776,100.0,245873.0,1.0
15:06:33.438534,176316.640625,179583.3125,194346.453125,172243.796875,165897.609375,191340.953125,688956.8125,174110.796875,0.06787109375,0.97998046875,-0.2109375,-1.7700194120407104,-0.0610351525247097,0.3356933295726776,100.0,245874.0,1.0
15:06:33.438553,176331.3125,179587.609375,194351.640625,172245.5,165898.5,191347.578125,688743.8125,174113.125,0.06884765625,0.981201171875,-0.210693359375,-1.6784666776657104,-0.0915527269244194,0.2746581733226776,100.0,245875.0,1.0
15:06:33.440433,176401.40625,179591.0,194361.75,172235.390625,165894.03125,191393.171875,688957.5,174106.78125,0.06884765625,0.982666015625,-0.211669921875,-1.6174315214157104,0.03051757626235485,0.1831054538488388,100.0,245876.0,1.0
15:06:33.443552,176371.71875,179589.84375,194355.9375,172235.578125,165893.765625,191394.6875,689128.375,174104.359375,0.06787109375,0.983642578125,-0.211181640625,-1.5869139432907104,0.0610351525247097,0.2441406100988388,100.0,245877.0,1.0
15:06:33.443559,176309.234375,179569.09375,194331.96875,172233.515625,165879.09375,191328.078125,688981.125,174099.984375,0.06787109375,0.98291015625,-0.20849609375,-1.4343260526657104,0.0915527269244194,0.3356933295726776,100.0,245878.0,1.0
15:06:33.445431,176303.421875,179570.703125,194329.109375,172230.03125,165873.5625,191317.171875,688729.9375,174095.328125,0.06787109375,0.982421875,-0.21044921875,-1.3122557401657104,0.2136230319738388,0.3356933295726776,100.0,245879.0,1.0
15:06:33.458017,176388.265625,179577.59375,194347.984375,172227.796875,165875.34375,191361.78125,688883.3125,174095.78125,0.06689453125,0.9833984375,-0.21484375,-1.2512205839157104,0.1525878757238388,0.3356933295726776,100.0,245880.0,1.0
15:06:33.461087,176387.734375,179586.265625,194359.421875,172241.484375,165890.09375,191384.671875,689099.1875,174108.109375,0.065673828125,0.9833984375,-0.21484375,-1.1291502714157104,0.2136230319738388,0.4577636420726776,100.0,245881.0,1.0
15:06:33.461096,176326.03125,179560.875,194337.4375,172242.375,165877.9375,191317.625,688999.375,174106.953125,0.06494140625,0.98486328125,-0.2158203125,-1.1291502714157104,0.1831054538488388,0.4577636420726776,100.0,245882.0,1.0
15:06:33.463103,176299.03125,179553.0,194328.671875,172238.078125,165870.421875,191290.53125,688738.75,174101.6875,0.065185546875,0.9873046875,-0.21435546875,-1.0375975370407104,0.2136230319738388,0.5187987685203552,100.0,245883.0,1.0
15:06:33.472999,176376.375,179564.09375,194345.65625,172231.46875,165873.015625,191338.8125,688813.625,174102.125,0.064208984375,0.985107421875,-0.214111328125,-0.9155272841453552,0.3051757514476776,0.5187987685203552,100.0,245884.0,1.0
15:06:33.476107,176381.734375,179571.15625,194349.234375,172229.046875,165878.921875,191373.046875,689061.75,174101.765625,0.06201171875,0.98486328125,-0.213623046875,-0.9765624403953552,0.2746581733226776,0.5187987685203552,100.0,245885.0,1.0
15:06:33.476122,176322.8125,179556.3125,194331.625,172229.9375,165872.84375,191324.234375,689017.25,174101.140625,0.064208984375,0.986328125,-0.21630859375,-0.9155272841453552,0.2136230319738388,0.4272460639476776,100.0,245886.0,1.0
15:06:33.484297,176295.90625,179561.5,194330.1875,172235.046875,165875.34375,191300.28125,688779.0625,174104.625,0.06103515625,0.988525390625,-0.21826171875,-0.7934569716453552,0.2746581733226776,0.4882812201976776,100.0,245887.0,1.0
15:06:33.488462,176374.3125,179587.15625,194355.046875,172237.984375,165885.71875,191356.875,688773.875,174110.796875,0.06103515625,0.98681640625,-0.215576171875,-0.7934569716453552,0.2136230319738388,0.4272460639476776,100.0,245888.0,1.0
15:06:33.488473,176402.03125,179600.203125,194364.609375,172236.828125,165892.515625,191404.875,689039.875,174107.9375,0.059814453125,0.989013671875,-0.215087890625,-0.7019042372703552,0.03051757626235485,0.3967284858226776,100.0,245889.0,1.0
15:06:33.519831,176345.078125,179583.671875,194346.90625,172236.375,165885.890625,191366.078125,689049.4375,174104.625,0.060302734375,0.989501953125,-0.215087890625,-0.7019042372703552,-0.03051757626235485,0.3662109076976776,100.0,245890.0,1.0
15:06:33.519861,176301.09375,179571.15625,194332.0625,172235.3125,165879.359375,191319.765625,688823.5,174101.765625,0.0615234375,0.99072265625,-0.21435546875,-0.7019042372703552,0.0610351525247097,0.4577636420726776,100.0,245891.0,1.0
15:06:33.560466,176364.125,179596.1875,194354.6875,172237.546875,165890.984375,191366.078125,688741.25,174107.21875,0.0634765625,0.989013671875,-0.21484375,-0.6103515028953552,-0.03051757626235485,0.6103515028953552,100.0,245892.0,1.0
15:06:33.566718,176422.421875,179619.4375,194378.296875,172241.484375,165906.28125,191427.328125,689032.875,174112.3125,0.06396484375,0.990966796875,-0.214111328125,-0.7019042372703552,-0.0915527269244194,0.5798339247703552,100.0,245893.0,1.0
15:06:33.569169,176377.4375,179611.828125,194370.6875,172248.1875,165910.03125,191403.71875,689087.6875,174115.8125,0.061767578125,0.990966796875,-0.215576171875,-0.7934569716453552,-0.03051757626235485,0.5187987685203552,100.0,245894.0,1.0
15:06:33.571681,176325.046875,179593.328125,194351.640625,172248.09375,165899.296875,191344.890625,688883.3125,174111.96875,0.061767578125,0.98974609375,-0.216552734375,-0.7934569716453552,-0.1525878757238388,0.5187987685203552,100.0,245895.0,1.0
15:06:33.585414,176363.859375,179604.046875,194364.15625,172248.265625,165902.703125,191368.3125,688725.9375,174114.640625,0.063720703125,0.987548828125,-0.216064453125,-0.8850097060203552,-0.1220703050494194,0.6103515028953552,100.0,245896.0,1.0
15:06:33.587879,176424.03125,179612.453125,194378.375,172240.578125,165903.6875,191416.6875,688988.4375,174109.09375,0.065673828125,0.98974609375,-0.2158203125,-0.8544921278953552,-0.0915527269244194,0.5798339247703552,100.0,245897.0,1.0
15:06:33.590380,176386.03125,179609.15625,194374.09375,172249.53125,165906.90625,191406.40625,689105.9375,174115.0,0.065673828125,0.989013671875,-0.2158203125,-0.8850097060203552,-0.0915527269244194,0.5493163466453552,100.0,245898.0,1.0
15:06:33.592927,176320.046875,179577.40625,194344.9375,172241.390625,165886.703125,191332.015625,688924.0,174106.421875,0.064697265625,0.986572265625,-0.21337890625,-0.9155272841453552,-0.0610351525247097,0.5798339247703552,100.0,245899.0,1.0
15:06:33.595382,176329.34375,179578.03125,194345.296875,172234.421875,165883.125,191335.859375,688709.25,174102.03125,0.0654296875,0.9853515625,-0.2158203125,-1.0681151151657104,-0.1220703050494194,0.6408690810203552,100.0,245900.0,1.0
15:06:33.597955,176406.859375,179591.625,194363.453125,172230.390625,165888.125,191392.0,688938.75,174102.3125,0.068115234375,0.984619140625,-0.216552734375,-1.0681151151657104,0.0,0.6713866591453552,100.0,245901.0,1.0
15:06:33.600399,176379.234375,179592.96875,194362.015625,172233.96875,165892.953125,191397.8125,689103.75,174104.71875,0.069580078125,0.984619140625,-0.218017578125,-1.1291502714157104,0.0,0.7324218153953552,100.0,245902.0,1.0
15:06:33.602953,176324.0625,179577.59375,194344.9375,172238.171875,165885.53125,191334.875,688963.4375,174108.828125,0.0703125,0.98583984375,-0.21923828125,-1.0681151151657104,0.0610351525247097,0.7934569716453552,100.0,245903.0,1.0
15:06:33.607920,176315.84375,179573.125,194339.3125,172232.1875,165877.578125,191319.9375,688713.9375,174102.03125,0.07080078125,0.989013671875,-0.216552734375,-1.0681151151657104,0.0610351525247097,0.8850097060203552,100.0,245904.0,1.0
15:06:33.610387,176402.296875,179588.5,194361.296875,172229.9375,165882.5,191376.1875,688876.6875,174103.640625,0.071044921875,0.9892578125,-0.21337890625,-1.0986326932907104,0.2136230319738388,0.9155272841453552,100.0,245905.0,1.0
15:06:33.612986,176388.703125,179593.234375,194361.296875,172230.65625,165885.09375,191395.9375,689087.0,174103.5625,0.0703125,0.988037109375,-0.21484375,-1.1291502714157104,0.1831054538488388,1.0375975370407104,100.0,245906.0,1.0
