Timestamp,Fz,FC3,FCz,FC4,Cz,C3,C4
15:32:58.735267,166099.84375,192565.734375,182161.546875,211600.125,197769.140625,193971.390625,690437.3125,204139.75,0.06591796875,1.0146484375,-0.0263671875,-0.8544921278953552,0.8850097060203552,1.2207030057907104,93.33334350585938,71785.0,1.0
15:32:58.735278,166192.46875,192584.0625,182180.671875,211611.21875,197784.15625,193978.46875,690435.75,204143.046875,0.0673828125,1.015625,-0.026611328125,-0.8544921278953552,0.9460448622703552,1.2207030057907104,93.33334350585938,71786.0,1.0
15:32:58.735280,166221.609375,192591.40625,182179.6875,211582.15625,197786.65625,193977.828125,690819.5,204134.5625,0.068359375,1.0126953125,-0.027587890625,-0.8544921278953552,1.0070799589157104,1.1291502714157104,93.33334350585938,71787.0,1.0
15:32:58.738034,166137.75,192575.84375,182165.109375,211567.59375,197774.40625,193972.296875,690950.6875,204133.3125,0.068115234375,1.012939453125,-0.025390625,-0.8544921278953552,0.9765624403953552,1.2512205839157104,93.33334350585938,71788.0,1.0
15:32:58.740400,166095.1875,192562.4375,182160.28125,211602.90625,197766.546875,193966.21875,690496.125,204142.15625,0.06787109375,1.013427734375,-0.026611328125,-0.8239745497703552,0.9765624403953552,1.0681151151657104,93.33334350585938,71789.0,1.0
15:32:58.744174,166172.359375,192577.28125,182175.046875,211608.171875,197776.828125,193969.4375,690411.6875,204143.5,0.06640625,1.012939453125,-0.02587890625,-0.7629393935203552,1.0375975370407104,1.0375975370407104,93.33334350585938,71790.0,1.0
15:32:58.754063,166231.1875,192591.40625,182181.296875,211598.078125,197786.84375,193972.109375,690738.0625,204142.609375,0.06787109375,1.01123046875,-0.02490234375,-0.6713866591453552,1.0070799589157104,0.9460448622703552,93.33334350585938,71791.0,1.0
15:32:58.754071,166157.59375,192582.8125,182169.5,211570.53125,197779.953125,193972.921875,690993.6875,204140.09375,0.063720703125,1.011474609375,-0.024169921875,-0.6408690810203552,1.0070799589157104,0.8850097060203552,93.33334350585938,71792.0,1.0
15:32:58.754073,166098.859375,192561.984375,182159.484375,211607.1875,197766.09375,193964.78125,690544.9375,204145.28125,0.06494140625,1.012451171875,-0.02392578125,-0.6103515028953552,1.0681151151657104,0.7324218153953552,93.33334350585938,71793.0,1.0
15:32:58.767926,166155.8125,192571.375,182171.375,211602.90625,197772.625,193967.375,690381.3125,204143.953125,0.060302734375,1.01220703125,-0.0224609375,-0.7019042372703552,1.0070799589157104,0.6103515028953552,93.33334350585938,71794.0,1.0
15:32:58.770889,166232.96875,192587.46875,182181.5625,211603.171875,197784.78125,193971.21875,690645.9375,204143.5,0.0615234375,1.01318359375,-0.023681640625,-0.7019042372703552,0.9765624403953552,0.6103515028953552,93.33334350585938,71795.0,1.0
15:32:58.770897,166172.078125,192585.046875,182172.453125,211560.34375,197781.46875,193973.1875,690993.9375,204135.71875,0.06103515625,1.012939453125,-0.02197265625,-0.7324218153953552,0.8544921278953552,0.4272460639476776,93.33334350585938,71796.0,1.0
15:32:58.772825,166101.359375,192564.578125,182161.890625,211598.25,197767.0,193964.609375,690628.5,204140.546875,0.059814453125,1.013671875,-0.0224609375,-0.7324218153953552,0.7629393935203552,0.3356933295726776,93.33334350585938,71797.0,1.0
15:32:58.776592,166137.65625,192569.5,182169.40625,211598.15625,197767.53125,193965.59375,690382.1875,204139.75,0.0615234375,1.014404296875,-0.0224609375,-0.8239745497703552,0.7934569716453552,0.3967284858226776,93.33334350585938,71798.0,1.0
15:32:58.788412,166230.921875,192585.140625,182182.015625,211608.890625,197776.015625,193968.625,690579.1875,204140.375,0.06298828125,1.016357421875,-0.023193359375,-0.9460448622703552,0.6713866591453552,0.3967284858226776,93.33334350585938,71799.0,1.0
15:32:58.788422,166185.859375,192585.59375,182172.71875,211560.4375,197772.09375,193972.03125,690989.8125,204128.203125,0.0625,1.014404296875,-0.02197265625,-1.0681151151657104,0.6408690810203552,0.2746581733226776,93.33334350585938,71800.0,1.0
15:32:58.802347,166104.21875,192562.703125,182158.671875,211589.40625,197754.828125,193964.25,690722.5625,204128.921875,0.0625,1.0146484375,-0.022705078125,-1.1291502714157104,0.5493163466453552,0.3662109076976776,93.33334350585938,71801.0,1.0
15:32:58.802421,166118.0,192563.0625,182162.4375,211590.03125,197752.953125,193963.890625,690391.0625,204125.796875,0.064453125,1.014404296875,-0.02490234375,-1.0986326932907104,0.5493163466453552,0.4272460639476776,93.33334350585938,71802.0,1.0
15:32:58.805468,166219.5625,192581.390625,182178.4375,211606.125,197766.359375,193967.109375,690508.25,204131.15625,0.0634765625,1.0146484375,-0.025146484375,-1.1596678495407104,0.6408690810203552,0.3662109076976776,93.33334350585938,71803.0,1.0
15:32:58.805537,166199.171875,192584.703125,182171.46875,211559.71875,197765.390625,193969.78125,690945.0,204125.890625,0.064208984375,1.013671875,-0.023681640625,-1.1901854276657104,0.7324218153953552,0.5187987685203552,93.33334350585938,71804.0,1.0
15:32:58.805564,166115.140625,192564.578125,182161.71875,211585.921875,197754.125,193966.5625,690813.125,204137.234375,0.064208984375,1.0146484375,-0.025634765625,-1.2817381620407104,0.6713866591453552,0.6408690810203552,93.33334350585938,71805.0,1.0
15:32:58.809820,166102.34375,192555.8125,182159.390625,211596.640625,197745.359375,193961.5625,690416.25,204141.265625,0.064208984375,1.014404296875,-0.02392578125,-1.3427733182907104,0.7629393935203552,0.6408690810203552,93.33334350585938,71806.0,1.0
15:32:58.809892,166195.328125,192567.265625,182169.5,211604.0625,197750.09375,193959.328125,690470.5625,204142.34375,0.06396484375,1.013671875,-0.020263671875,-1.3732908964157104,0.7019042372703552,0.5798339247703552,93.33334350585938,71807.0,1.0
15:32:58.815420,166203.015625,192577.453125,182167.265625,211567.765625,197751.53125,193965.234375,690887.375,204136.703125,0.063232421875,1.01416015625,-0.02197265625,-1.3427733182907104,0.7324218153953552,0.6103515028953552,93.33334350585938,71808.0,1.0
15:32:58.834102,166116.921875,192562.796875,182154.75,211571.15625,197738.375,193964.0625,690893.6875,204139.46875,0.062744140625,1.01416015625,-0.023681640625,-1.4038084745407104,0.7019042372703552,0.5187987685203552,93.33334350585938,71809.0,1.0
15:32:58.834181,166087.953125,192551.609375,182151.796875,211592.0,197728.640625,193961.109375,690446.6875,204141.53125,0.060791015625,1.012939453125,-0.021240234375,-1.3732908964157104,0.6103515028953552,0.5187987685203552,93.33334350585938,71810.0,1.0
15:32:58.834209,166176.828125,192565.5625,182167.53125,211598.515625,197737.3125,193963.984375,690440.4375,204141.078125,0.0595703125,1.0126953125,-0.020751953125,-1.4343260526657104,0.4882812201976776,0.6408690810203552,93.33334350585938,71811.0,1.0
15:32:58.837627,166209.453125,192573.96875,182167.890625,211572.953125,197739.984375,193964.6875,690815.5625,204133.21875,0.05859375,1.010498046875,-0.017822265625,-1.4953612089157104,0.4272460639476776,0.7324218153953552,93.33334350585938,71812.0,1.0
15:32:58.837660,166122.640625,192557.515625,182150.09375,211553.8125,197723.984375,193960.671875,690958.5,204129.375,0.06005859375,1.010009765625,-0.02197265625,-1.4038084745407104,0.3967284858226776,0.8239745497703552,93.33334350585938,71813.0,1.0
15:32:58.839398,166075.4375,192541.421875,182142.140625,211583.140625,197709.59375,193953.15625,690492.5625,204132.046875,0.059326171875,1.009033203125,-0.022705078125,-1.3732908964157104,0.3356933295726776,0.7934569716453552,93.33334350585938,71814.0,1.0
15:32:58.845365,166149.640625,192555.109375,182155.546875,211582.34375,197715.578125,193955.75,690399.4375,204130.71875,0.059326171875,1.009521484375,-0.0234375,-1.3122557401657104,0.3356933295726776,0.7629393935203552,93.33334350585938,71815.0,1.0
15:32:58.861154,166207.578125,192566.90625,182160.46875,211570.8125,197722.296875,193956.28125,690717.0625,204127.40625,0.061279296875,1.008056640625,-0.020751953125,-1.2817381620407104,0.2441406100988388,0.7934569716453552,93.33334350585938,71816.0,1.0
15:32:58.861217,166131.859375,192556.265625,182148.75,211536.828125,197712.1875,193952.71875,690987.875,204122.046875,0.063232421875,1.0087890625,-0.023681640625,-1.2817381620407104,0.1831054538488388,0.7934569716453552,93.33334350585938,71817.0,1.0
15:32:58.867986,166072.9375,192535.609375,182139.71875,211576.4375,197697.703125,193943.59375,690564.875,204130.71875,0.062255859375,1.008056640625,-0.023681640625,-1.2207030057907104,0.1525878757238388,0.7019042372703552,93.33334350585938,71818.0,1.0
15:32:58.868041,166128.359375,192545.0,182152.6875,211577.515625,197703.328125,193945.921875,690390.25,204131.15625,0.064697265625,1.007568359375,-0.0234375,-1.1901854276657104,0.1525878757238388,0.7629393935203552,93.33334350585938,71819.0,1.0
15:32:58.868060,166213.5625,192565.296875,182167.265625,211585.46875,197717.546875,193951.734375,690648.4375,204133.03125,0.065673828125,1.008056640625,-0.023681640625,-1.1596678495407104,0.1831054538488388,0.7629393935203552,93.33334350585938,71820.0,1.0
15:32:58.871086,166154.921875,192563.859375,182156.890625,211543.53125,197712.1875,193956.015625,691013.875,204125.625,0.064453125,1.009033203125,-0.022216796875,-1.0375975370407104,0.1525878757238388,0.7629393935203552,93.33334350585938,71821.0,1.0
15:32:58.871131,166083.21875,192543.5625,182144.734375,211581.625,197696.546875,193949.765625,690657.375,204132.40625,0.06396484375,1.010986328125,-0.02197265625,-1.0375975370407104,0.0915527269244194,0.7324218153953552,93.33334350585938,71822.0,1.0
15:32:58.872837,166119.78125,192553.140625,182155.8125,211583.328125,197699.578125,193955.84375,690400.6875,204132.046875,0.0654296875,1.008056640625,-0.02392578125,-1.0070799589157104,0.2136230319738388,0.8239745497703552,93.33334350585938,71823.0,1.0
15:32:58.880347,166219.5625,192576.734375,182174.421875,211597.453125,197714.59375,193963.984375,690595.8125,204134.734375,0.065185546875,1.007568359375,-0.021728515625,-0.9155272841453552,0.1525878757238388,0.8239745497703552,93.33334350585938,71824.0,1.0
15:32:58.897258,166183.703125,192583.171875,182170.390625,211551.765625,197714.515625,193970.328125,691009.75,204126.0625,0.06640625,1.00927734375,-0.02197265625,-0.8544921278953552,0.1831054538488388,0.8239745497703552,93.33334350585938,71825.0,1.0
15:32:58.897285,166106.015625,192564.578125,182159.03125,211586.625,197699.21875,193966.484375,690757.1875,204132.40625,0.065185546875,1.009033203125,-0.02197265625,-0.8850097060203552,0.1831054538488388,0.8544921278953552,93.33334350585938,71826.0,1.0
15:32:58.899677,166113.171875,192562.34375,182159.03125,211586.453125,197693.40625,193965.140625,690413.0625,204130.359375,0.06494140625,1.0107421875,-0.0234375,-0.8850097060203552,0.1831054538488388,0.7324218153953552,93.33334350585938,71827.0,1.0
15:32:58.899703,166207.21875,192572.71875,182167.890625,211595.390625,197697.171875,193962.1875,690521.5,204128.5625,0.065185546875,1.01220703125,-0.02294921875,-0.8239745497703552,0.2746581733226776,0.7324218153953552,93.33334350585938,71828.0,1.0
15:32:58.902338,166184.421875,192571.109375,182155.453125,211543.984375,197688.765625,193958.96875,690956.5,204114.4375,0.06396484375,1.01171875,-0.023681640625,-0.7324218153953552,0.3356933295726776,0.7629393935203552,93.33334350585938,71829.0,1.0
15:32:58.902356,166095.640625,192546.609375,182137.484375,211557.84375,197669.71875,193948.953125,690838.5625,204117.296875,0.066162109375,1.012451171875,-0.027099609375,-0.6713866591453552,0.2136230319738388,0.7629393935203552,93.33334350585938,71830.0,1.0
15:32:58.949074,166079.90625,192535.703125,182132.125,211565.890625,197658.0,193942.4375,690425.6875,204117.03125,0.066162109375,1.011962890625,-0.026123046875,-0.7019042372703552,0.3356933295726776,0.7934569716453552,93.33334350585938,71831.0,1.0
15:32:58.955269,166172.0,192548.125,182144.546875,211573.84375,197664.359375,193940.828125,690455.3125,204115.328125,0.065673828125,1.011962890625,-0.0244140625,-0.7019042372703552,0.3967284858226776,0.7934569716453552,93.33334350585938,71832.0,1.0
15:32:58.955284,166184.875,192558.671875,182145.625,211540.765625,197669.8125,193943.765625,690874.5,204109.96875,0.064208984375,1.010009765625,-0.0244140625,-0.7324218153953552,0.4272460639476776,0.7934569716453552,93.33334350585938,71833.0,1.0
15:32:58.955285,166100.5625,192541.59375,182135.96875,211543.265625,197658.453125,193939.296875,690904.875,204113.28125,0.065185546875,1.010498046875,-0.023681640625,-0.7324218153953552,0.3967284858226776,0.7934569716453552,93.33334350585938,71834.0,1.0
15:32:58.957936,166071.0625,192530.875,182133.90625,211566.0625,197649.875,193935.09375,690458.5,204119.0,0.065673828125,1.008544921875,-0.024169921875,-0.7324218153953552,0.4272460639476776,0.7934569716453552,93.33334350585938,71835.0,1.0
15:32:58.960324,166159.5625,192546.34375,182150.28125,211573.046875,197658.453125,193939.5625,690435.5625,204119.8125,0.065185546875,1.0126953125,-0.0234375,-0.6713866591453552,0.4882812201976776,0.7629393935203552,93.33334350585938,71836.0,1.0
15:32:58.962821,166200.515625,192561.625,182154.921875,211554.0,197666.671875,193946.984375,690813.0,204116.234375,0.064208984375,1.01220703125,-0.02294921875,-0.7324218153953552,0.5798339247703552,0.7019042372703552,93.33334350585938,71837.0,1.0
15:32:58.965291,166117.1875,192549.46875,182140.703125,211533.796875,197655.0625,193945.015625,690976.5625,204112.390625,0.063720703125,1.01171875,-0.026611328125,-0.7019042372703552,0.5798339247703552,0.7019042372703552,93.33334350585938,71838.0,1.0
15:32:58.968358,166069.171875,192532.578125,182133.28125,211567.859375,197642.625,193937.953125,690518.5625,204118.015625,0.064208984375,1.011474609375,-0.02685546875,-0.7019042372703552,0.5493163466453552,0.5798339247703552,93.33334350585938,71839.0,1.0
15:32:58.968365,166143.125,192546.25,182149.203125,211570.8125,197650.40625,193941.625,690422.875,204119.265625,0.06494140625,1.010498046875,-0.027099609375,-0.7019042372703552,0.5493163466453552,0.7934569716453552,93.33334350585938,71840.0,1.0
15:32:58.970275,166207.578125,192561.984375,182156.53125,211562.21875,197659.53125,193945.5625,690737.3125,204116.3125,0.0634765625,1.01220703125,-0.029296875,-0.6713866591453552,0.5493163466453552,0.7629393935203552,93.33334350585938,71841.0,1.0
15:32:58.972850,166136.6875,192557.15625,182147.859375,211528.34375,197653.171875,193948.328125,691019.5,204111.21875,0.06298828125,1.012451171875,-0.026123046875,-0.6713866591453552,0.5798339247703552,0.7629393935203552,93.33334350585938,71842.0,1.0
15:32:58.975286,166076.6875,192539.015625,182141.15625,211567.234375,197642.359375,193942.78125,690582.6875,204119.359375,0.064208984375,1.0107421875,-0.024658203125,-0.6408690810203552,0.6103515028953552,0.7934569716453552,93.33334350585938,71843.0,1.0
15:32:58.977786,166130.328125,192548.390625,182153.84375,211567.140625,197647.8125,193947.078125,690402.4375,204118.640625,0.06396484375,1.012451171875,-0.027587890625,-0.7324218153953552,0.6713866591453552,0.6103515028953552,93.33334350585938,71844.0,1.0
15:32:58.980317,166219.921875,192572.265625,182172.625,211580.015625,197668.109375,193958.609375,690658.75,204125.625,0.063232421875,1.01171875,-0.02734375,-0.7629393935203552,0.6408690810203552,0.7019042372703552,93.33334350585938,71845.0,1.0
15:32:58.982863,166167.796875,192575.671875,182170.484375,211541.84375,197671.421875,193967.015625,691028.6875,204125.53125,0.063720703125,1.01171875,-0.027587890625,-0.7019042372703552,0.6103515028953552,0.6713866591453552,93.33334350585938,71846.0,1.0
15:32:58.985939,166096.265625,192554.203125,182161.265625,211581.71875,197657.296875,193959.859375,690677.5,204135.453125,0.06298828125,1.009765625,-0.02685546875,-0.8239745497703552,0.6408690810203552,0.4882812201976776,93.33334350585938,71847.0,1.0
15:32:58.985947,166127.203125,192558.765625,182168.96875,211581.171875,197657.640625,193961.5625,690400.625,204135.90625,0.064208984375,1.010986328125,-0.025390625,-0.7324218153953552,0.6408690810203552,0.4882812201976776,93.33334350585938,71848.0,1.0
15:32:58.987809,166228.328125,192582.015625,182187.5625,211597.265625,197673.109375,193968.359375,690572.9375,204142.78125,0.06396484375,1.01123046875,-0.02587890625,-0.7324218153953552,0.6713866591453552,0.5798339247703552,93.33334350585938,71849.0,1.0
15:32:58.990289,166194.53125,192586.3125,182182.640625,211551.5,197671.953125,193972.828125,690999.75,204137.328125,0.0625,1.01318359375,-0.028564453125,-0.7629393935203552,0.5493163466453552,0.6408690810203552,93.33334350585938,71850.0,1.0
15:32:58.992874,166112.453125,192564.21875,182169.3125,211582.78125,197655.5,193964.609375,690767.125,204144.390625,0.0615234375,1.014404296875,-0.0263671875,-0.7019042372703552,0.5798339247703552,0.6713866591453552,93.33334350585938,71851.0,1.0
15:32:58.995884,166116.203125,192559.75,182169.40625,211586.453125,197647.90625,193961.390625,690418.5,204141.984375,0.0625,1.014404296875,-0.02734375,-0.9155272841453552,0.6103515028953552,0.5798339247703552,93.33334350585938,71852.0,1.0
15:32:58.995893,166214.109375,192573.96875,182181.390625,211598.515625,197654.15625,193961.828125,690528.375,204140.375,0.063232421875,1.012451171875,-0.029052734375,-1.0070799589157104,0.6408690810203552,0.6103515028953552,93.33334350585938,71853.0,1.0
15:32:59.008440,166204.625,192581.5625,182178.609375,211557.390625,197656.125,193967.375,690957.875,204134.109375,0.062255859375,1.01123046875,-0.029052734375,-0.9460448622703552,0.5798339247703552,0.5187987685203552,93.33334350585938,71854.0,1.0
15:32:59.008452,166119.515625,192562.078125,182165.46875,211576.53125,197642.890625,193962.375,690856.5,204140.09375,0.06494140625,1.010498046875,-0.026123046875,-0.8544921278953552,0.5493163466453552,0.5187987685203552,93.33334350585938,71855.0,1.0
15:32:59.010307,166106.640625,192555.109375,182165.75,211590.921875,197635.828125,193960.765625,690437.0,204144.390625,0.065673828125,1.009521484375,-0.026611328125,-0.9460448622703552,0.5187987685203552,0.5493163466453552,93.33334350585938,71856.0,1.0
15:32:59.014103,166204.359375,192573.078125,182182.734375,211602.90625,197648.265625,193965.59375,690463.9375,204148.6875,0.065185546875,1.009765625,-0.02685546875,-0.9765624403953552,0.6103515028953552,0.5187987685203552,93.33334350585938,71857.0,1.0
15:32:59.025931,166218.671875,192583.171875,182181.65625,211569.90625,197653.71875,193970.765625,690879.5,204141.265625,0.06396484375,1.01220703125,-0.029052734375,-0.9765624403953552,0.5493163466453552,0.5798339247703552,93.33334350585938,71858.0,1.0
15:32:59.025950,166131.3125,192565.828125,182167.984375,211567.140625,197642.0,193968.265625,690929.9375,204141.796875,0.0654296875,1.013916015625,-0.028076171875,-0.8850097060203552,0.5187987685203552,0.5798339247703552,93.33334350585938,71859.0,1.0
15:32:59.028356,166095.734375,192551.171875,182161.359375,211588.859375,197629.9375,193962.546875,690475.625,204143.765625,0.065673828125,1.0107421875,-0.03076171875,-0.9460448622703552,0.5493163466453552,0.6103515028953552,93.33334350585938,71860.0,1.0
15:32:59.028364,166181.203125,192566.015625,182174.421875,211593.15625,197637.796875,193964.875,690442.0,204143.234375,0.067138671875,1.009033203125,-0.02978515625,-0.9155272841453552,0.5493163466453552,0.7019042372703552,93.33334350585938,71861.0,1.0
15:32:59.034060,166225.546875,192581.125,182178.265625,211575.984375,197646.296875,193969.875,690807.625,204139.03125,0.066650390625,1.00927734375,-0.0283203125,-0.8544921278953552,0.6408690810203552,0.7629393935203552,93.33334350585938,71862.0,1.0
15:32:59.040884,166144.375,192570.65625,182166.09375,211556.40625,197635.65625,193968.359375,690990.1875,204136.875,0.06591796875,1.01025390625,-0.03076171875,-0.8239745497703552,0.7629393935203552,0.8850097060203552,93.33334350585938,71863.0,1.0
15:32:59.040893,166092.25,192551.4375,182156.171875,211588.78125,197621.796875,193958.875,690531.0625,204141.4375,0.064208984375,1.01025390625,-0.02978515625,-0.7629393935203552,0.8239745497703552,0.8544921278953552,93.33334350585938,71864.0,1.0
15:32:59.049683,166155.640625,192557.421875,182161.890625,211582.78125,197624.125,193957.1875,690406.1875,204133.9375,0.064453125,1.01025390625,-0.02734375,-0.7629393935203552,0.7934569716453552,0.8850097060203552,93.33334350585938,71865.0,1.0
15:32:59.049694,166220.8125,192571.375,182167.890625,211574.921875,197633.328125,193959.6875,690708.875,204130.0,0.064697265625,1.009521484375,-0.031005859375,-0.8239745497703552,0.8544921278953552,0.8239745497703552,93.33334350585938,71866.0,1.0
15:32:59.051526,166148.03125,192563.59375,182154.296875,211534.78125,197625.015625,193958.96875,691014.75,204121.859375,0.064208984375,1.00927734375,-0.029052734375,-0.7324218153953552,0.8544921278953552,0.7629393935203552,93.33334350585938,71867.0,1.0
15:32:59.056555,166079.015625,192539.09375,182138.921875,211567.59375,197606.6875,193947.796875,690598.125,204125.4375,0.062744140625,1.010009765625,-0.02880859375,-0.7019042372703552,0.8239745497703552,0.6713866591453552,93.33334350585938,71868.0,1.0
15:32:59.062791,166125.6875,192546.25,182147.6875,211562.9375,197610.0,193948.15625,690401.9375,204123.5625,0.063232421875,1.007080078125,-0.030029296875,-0.7324218153953552,0.8239745497703552,0.6103515028953552,93.33334350585938,71869.0,1.0
15:32:59.074634,166211.0625,192562.875,182160.109375,211568.03125,197622.875,193950.75,690642.75,204124.71875,0.0615234375,1.007568359375,-0.029541015625,-0.7629393935203552,0.6408690810203552,0.4882812201976776,93.33334350585938,71870.0,1.0
15:32:59.074644,166159.390625,192563.328125,182152.953125,211523.421875,197622.59375,193954.40625,691020.8125,204119.53125,0.06201171875,1.008056640625,-0.02880859375,-0.7934569716453552,0.6408690810203552,0.3356933295726776,93.33334350585938,71871.0,1.0
15:32:59.077190,166087.15625,192543.65625,182143.484375,211563.109375,197610.53125,193947.4375,690680.8125,204131.703125,0.06201171875,1.0087890625,-0.027587890625,-0.8239745497703552,0.5493163466453552,0.3051757514476776,93.33334350585938,71872.0,1.0
15:32:59.077200,166113.53125,192547.765625,182148.484375,211565.890625,197611.421875,193947.703125,690391.875,204133.390625,0.061767578125,1.009033203125,-0.02734375,-0.8239745497703552,0.4577636420726776,0.3051757514476776,93.33334350585938,71873.0,1.0
15:32:59.080067,166208.65625,192563.953125,182159.21875,211577.59375,197622.6875,193949.046875,690553.75,204133.390625,0.0634765625,1.01171875,-0.02880859375,-0.7934569716453552,0.4577636420726776,0.2441406100988388,93.33334350585938,71874.0,1.0
15:32:59.092254,166177.0,192569.765625,182154.921875,211531.015625,197624.75,193954.765625,690985.0625,204124.90625,0.0625,1.01318359375,-0.031005859375,-0.7934569716453552,0.3967284858226776,0.2441406100988388,93.33334350585938,71875.0,1.0
15:32:59.092263,166101.90625,192553.5,182146.96875,211563.390625,197615.453125,193951.546875,690773.375,204133.125,0.062744140625,1.015625,-0.031494140625,-0.7934569716453552,0.5493163466453552,0.1831054538488388,93.33334350585938,71876.0,1.0
15:32:59.103412,166111.015625,192553.578125,182152.78125,211569.828125,197616.34375,193952.890625,690412.875,204134.46875,0.064697265625,1.01611328125,-0.031494140625,-0.8850097060203552,0.5493163466453552,0.0915527269244194,93.33334350585938,71877.0,1.0
15:32:59.103421,166210.265625,192571.28125,182167.4375,211579.65625,197627.78125,193955.484375,690499.0,204134.375,0.064208984375,1.015380859375,-0.03125,-0.9765624403953552,0.3967284858226776,0.2136230319738388,93.33334350585938,71878.0,1.0
15:32:59.108418,166201.765625,192580.765625,182165.46875,211535.484375,197633.0625,193961.390625,690933.875,204126.875,0.064208984375,1.01513671875,-0.03125,-0.9460448622703552,0.4272460639476776,0.2136230319738388,93.33334350585938,71879.0,1.0
15:32:59.108428,166115.765625,192562.34375,182153.046875,211551.765625,197622.15625,193957.359375,690856.0625,204132.59375,0.066162109375,1.01318359375,-0.028076171875,-1.0375975370407104,0.3967284858226776,0.3356933295726776,93.33334350585938,71880.0,1.0
15:32:59.110458,166101.359375,192555.1875,182153.21875,211570.8125,197618.390625,193954.953125,690435.5,204137.15625,0.0634765625,1.0146484375,-0.027587890625,-1.1291502714157104,0.3967284858226776,0.3662109076976776,93.33334350585938,71881.0,1.0
15:32:59.123389,166198.734375,192571.90625,182171.734375,211585.203125,197632.796875,193958.515625,690460.1875,204141.078125,0.06494140625,1.01513671875,-0.029296875,-1.2207030057907104,0.4577636420726776,0.4882812201976776,93.33334350585938,71882.0,1.0
15:32:59.123399,166219.46875,192583.890625,182174.328125,211555.515625,197642.453125,193964.25,690865.1875,204135.359375,0.06494140625,1.014892578125,-0.0263671875,-1.3427733182907104,0.4577636420726776,0.3662109076976776,93.33334350585938,71883.0,1.0
15:32:59.126495,166137.3125,192571.015625,182165.296875,211553.546875,197637.796875,193964.15625,690931.625,204138.3125,0.06298828125,1.015869140625,-0.027099609375,-1.5258787870407104,0.4577636420726776,0.5493163466453552,93.33334350585938,71884.0,1.0
15:32:59.126504,166102.34375,192558.046875,182163.5,211580.546875,197632.25,193959.0625,690472.125,204143.40625,0.0615234375,1.01611328125,-0.028076171875,-1.6174315214157104,0.5187987685203552,0.5187987685203552,93.33334350585938,71885.0,1.0
15:32:59.126505,166188.796875,192574.40625,182179.875,211587.703125,197646.5625,193964.0625,690415.0,204144.21875,0.062744140625,1.014892578125,-0.03076171875,-1.6784666776657104,0.5187987685203552,0.4882812201976776,93.33334350585938,71886.0,1.0
15:32:59.133326,166236.015625,192589.34375,182186.390625,211572.953125,197658.8125,193969.703125,690774.25,204140.546875,0.061767578125,1.013916015625,-0.028564453125,-1.7089842557907104,0.4882812201976776,0.4882812201976776,93.33334350585938,71887.0,1.0
15:32:59.144749,166152.328125,192573.96875,182170.484375,211549.53125,197647.359375,193965.3125,690974.6875,204136.078125,0.06201171875,1.0146484375,-0.02587890625,-1.7089842557907104,0.4577636420726776,0.6103515028953552,93.33334350585938,71888.0,1.0
15:32:59.144841,166096.890625,192552.421875,182159.84375,211582.515625,197635.125,193955.75,690524.1875,204141.53125,0.06103515625,1.014404296875,-0.02587890625,-1.7089842557907104,0.4577636420726776,0.4882812201976776,93.33334350585938,71889.0,1.0
15:32:59.152883,166160.90625,192561.359375,182172.359375,211580.734375,197644.328125,193956.640625,690400.5625,204141.53125,0.059814453125,1.013671875,-0.024658203125,-1.7700194120407104,0.4272460639476776,0.4577636420726776,93.33334350585938,71890.0,1.0
15:32:59.152898,166228.859375,192575.9375,182179.875,211573.671875,197655.328125,193958.796875,690693.875,204139.296875,0.05810546875,1.012939453125,-0.0263671875,-1.8615721464157104,0.2136230319738388,0.4272460639476776,93.33334350585938,71891.0,1.0
15:32:59.152900,166159.65625,192570.03125,182168.0625,211532.984375,197649.78125,193960.125,691002.6875,204132.40625,0.059326171875,1.01318359375,-0.029052734375,-1.8615721464157104,0.1831054538488388,0.3662109076976776,93.33334350585938,71892.0,1.0
15:32:59.156577,166096.359375,192552.15625,182161.0,211575.546875,197639.3125,193954.859375,690595.6875,204141.984375,0.0615234375,1.011474609375,-0.030029296875,-1.9226073026657104,0.1525878757238388,0.4272460639476776,93.33334350585938,71893.0,1.0
15:32:59.161605,166139.453125,192557.25,182168.609375,211572.765625,197639.765625,193953.96875,690384.875,204139.125,0.061279296875,1.011962890625,-0.028076171875,-1.9531248807907104,0.03051757626235485,0.3967284858226776,93.33334350585938,71894.0,1.0
15:32:59.168407,166227.25,192574.40625,182178.609375,211579.75,197649.328125,193958.078125,690620.0,204137.953125,0.061279296875,1.0107421875,-0.027587890625,-1.9226073026657104,0.1220703050494194,0.4577636420726776,93.33334350585938,71895.0,1.0
15:32:59.168422,166173.6875,192573.96875,182166.71875,211529.3125,197643.796875,193961.296875,691001.6875,204126.421875,0.061767578125,1.012451171875,-0.026123046875,-1.9226073026657104,0.1220703050494194,0.3967284858226776,93.33334350585938,71896.0,1.0
15:32:59.179151,166096.171875,192551.609375,182151.96875,211561.59375,197627.078125,193953.0625,690682.6875,204130.265625,0.0615234375,1.0126953125,-0.026611328125,-1.9531248807907104,0.0,0.3967284858226776,93.33334350585938,71897.0,1.0
15:32:59.193622,166121.75,192554.390625,182158.140625,211560.25,197626.359375,193953.0625,690392.875,204128.03125,0.060546875,1.011962890625,-0.0263671875,-1.9836424589157104,0.0,0.5187987685203552,93.33334350585938,71898.0,1.0
15:32:59.193648,166218.3125,192568.328125,182169.3125,211570.53125,197636.015625,193951.8125,690550.0,204126.515625,0.060302734375,1.01318359375,-0.02587890625,-1.9836424589157104,0.0,0.5493163466453552,93.33334350585938,71899.0,1.0
15:32:59.193654,166186.84375,192570.03125,182162.34375,211519.484375,197635.46875,193953.78125,690970.3125,204116.671875,0.0615234375,1.012451171875,-0.02587890625,-1.9836424589157104,0.0610351525247097,0.5798339247703552,93.33334350585938,71900.0,1.0
15:32:59.197286,166106.015625,192551.4375,182152.953125,211547.828125,197625.28125,193950.75,690767.625,204123.828125,0.06298828125,1.01123046875,-0.02783203125,-1.9226073026657104,0.03051757626235485,0.5798339247703552,93.33334350585938,71901.0,1.0
15:32:59.197303,166108.515625,192549.375,182154.65625,211555.25,197621.171875,193949.578125,690395.625,204123.296875,0.062255859375,1.011474609375,-0.0234375,-1.9531248807907104,-0.0915527269244194,0.5187987685203552,93.33334350585938,71902.0,1.0
15:32:59.199170,166205.796875,192565.390625,182168.6875,211568.75,197631.453125,193951.734375,690494.0625,204123.65625,0.0625,1.0126953125,-0.0244140625,-1.9531248807907104,-0.0915527269244194,0.4882812201976776,93.33334350585938,71903.0,1.0
15:32:59.201672,166202.125,192574.40625,182165.921875,211528.96875,197635.296875,193958.078125,690919.875,204116.859375,0.062744140625,1.011474609375,-0.026123046875,-1.8615721464157104,-0.1220703050494194,0.5798339247703552,93.33334350585938,71904.0,1.0
15:32:59.207879,166114.78125,192556.71875,182153.578125,211539.25,197622.328125,193954.671875,690857.6875,204119.53125,0.064208984375,1.013916015625,-0.023681640625,-1.8310545682907104,-0.1525878757238388,0.5493163466453552,93.33334350585938,71905.0,1.0
15:32:59.219726,166093.859375,192547.59375,182151.703125,211554.984375,197616.15625,193952.171875,690428.3125,204119.265625,0.06298828125,1.011474609375,-0.024658203125,-1.8005369901657104,-0.0915527269244194,0.6103515028953552,93.33334350585938,71906.0,1.0
15:32:59.219745,166187.734375,192562.25,182166.375,211563.5625,197627.25,193955.125,690450.25,204118.375,0.062255859375,1.010498046875,-0.02783203125,-1.8310545682907104,-0.0915527269244194,0.6103515028953552,93.33334350585938,71907.0,1.0
15:32:59.222271,166211.515625,192573.15625,182166.8125,211532.359375,197633.328125,193958.875,690853.5625,204111.046875,0.063720703125,1.009521484375,-0.027099609375,-1.7700194120407104,-0.0610351525247097,0.6713866591453552,93.33334350585938,71908.0,1.0
15:32:59.222286,166125.234375,192557.78125,182152.953125,211523.421875,197621.703125,193955.75,690936.5625,204111.046875,0.0634765625,1.01123046875,-0.02490234375,-1.8310545682907104,0.0,0.6408690810203552,93.33334350585938,71909.0,1.0
15:32:59.234645,166083.75,192540.625,182144.015625,211546.75,197608.296875,193946.8125,690472.625,204113.546875,0.062255859375,1.011474609375,-0.024169921875,-1.7395018339157104,-0.0610351525247097,0.6408690810203552,93.33334350585938,71910.0,1.0
15:32:59.234663,166161.453125,192552.0625,182153.671875,211547.46875,197612.859375,193945.921875,690427.625,204111.578125,0.063720703125,1.012939453125,-0.02490234375,-1.7089842557907104,-0.0915527269244194,0.6408690810203552,93.33334350585938,71911.0,1.0
15:32:59.237730,166206.6875,192560.5625,182154.296875,211527.890625,197616.515625,193944.046875,690776.6875,204105.5,0.064208984375,1.012451171875,-0.027099609375,-1.6479490995407104,-0.0915527269244194,0.6713866591453552,93.33334350585938,71912.0,1.0
15:32:59.237750,166125.421875,192548.578125,182140.625,211502.234375,197606.78125,193943.59375,690990.625,204104.421875,0.06494140625,1.01123046875,-0.024169921875,-1.7089842557907104,0.0,0.5798339247703552,93.33334350585938,71913.0,1.0
15:32:59.237756,166065.6875,192526.671875,182126.21875,211533.25,197590.234375,193934.203125,690540.0,204108.890625,0.063720703125,1.01123046875,-0.02392578125,-1.7089842557907104,-0.0915527269244194,0.6103515028953552,93.33334350585938,71914.0,1.0
15:32:59.241588,166128.1875,192535.4375,182136.59375,211533.609375,197594.609375,193935.1875,690401.0625,204107.828125,0.06298828125,1.01123046875,-0.0244140625,-1.7089842557907104,-0.0915527269244194,0.6408690810203552,93.33334350585938,71915.0,1.0
15:32:59.256590,166202.296875,192551.609375,182147.0625,211533.875,197605.875,193938.578125,690688.4375,204106.484375,0.0634765625,1.012451171875,-0.0244140625,-1.6174315214157104,0.0,0.6408690810203552,93.33334350585938,71916.0,1.0
15:32:59.262240,166136.328125,192546.078125,182136.78125,211496.15625,197599.796875,193938.3125,691008.3125,204100.3125,0.064697265625,1.009521484375,-0.02685546875,-1.6784666776657104,0.0,0.7934569716453552,93.33334350585938,71917.0,1.0
15:32:59.262261,166069.09375,192524.171875,182125.515625,211536.03125,197584.78125,193927.953125,690614.5,204108.09375,0.0634765625,1.01171875,-0.02587890625,-1.6174315214157104,0.0610351525247097,0.8239745497703552,93.33334350585938,71918.0,1.0
15:32:59.264071,166111.46875,192529.890625,182133.90625,211533.703125,197586.296875,193928.84375,690390.6875,204106.484375,0.062744140625,1.012451171875,-0.025634765625,-1.6174315214157104,0.0610351525247097,0.7324218153953552,93.33334350585938,71919.0,1.0
15:32:59.266546,166203.203125,192548.578125,182149.015625,211544.78125,197600.25,193933.9375,690610.125,204110.59375,0.064453125,1.01123046875,-0.02587890625,-1.5869139432907104,0.0915527269244194,0.6408690810203552,93.33334350585938,71920.0,1.0
15:32:59.271300,166155.640625,192549.015625,182142.40625,211499.8125,197598.90625,193937.6875,691006.8125,204105.046875,0.06494140625,1.010986328125,-0.027587890625,-1.6174315214157104,0.1220703050494194,0.6103515028953552,93.33334350585938,71921.0,1.0
15:32:59.271316,166078.65625,192526.484375,182129.984375,211537.1875,197583.4375,193929.90625,690698.25,204112.03125,0.06591796875,1.01171875,-0.025390625,-1.5869139432907104,0.1525878757238388,0.4882812201976776,93.33334350585938,71922.0,1.0
15:32:59.282851,166099.484375,192529.171875,182135.703125,211539.609375,197583.0,193931.4375,690392.0625,204111.140625,0.064208984375,1.01123046875,-0.0244140625,-1.5869139432907104,0.1525878757238388,0.6713866591453552,93.33334350585938,71923.0,1.0
15:32:59.285951,166201.046875,192550.09375,182153.671875,211557.21875,197598.734375,193937.328125,690545.4375,204115.78125,0.064697265625,1.0107421875,-0.025390625,-1.4953612089157104,0.0915527269244194,0.6408690810203552,93.33334350585938,71924.0,1.0
15:32:59.285964,166174.59375,192553.671875,182148.3125,211510.71875,197598.640625,193940.546875,690969.625,204108.359375,0.063232421875,1.010498046875,-0.028076171875,-1.5563963651657104,0.0915527269244194,0.6408690810203552,93.33334350585938,71925.0,1.0
15:32:59.287864,166090.90625,192532.921875,182135.078125,211535.84375,197582.71875,193934.296875,690788.8125,204114.265625,0.062744140625,1.01171875,-0.026123046875,-1.5869139432907104,0.1220703050494194,0.6103515028953552,93.33334350585938,71926.0,1.0
15:32:59.291582,166089.203125,192528.8125,182135.171875,211542.546875,197575.65625,193931.34375,690409.125,204113.015625,0.064697265625,1.011474609375,-0.0244140625,-1.5258787870407104,0.1831054538488388,0.6103515028953552,93.33334350585938,71927.0,1.0
15:32:59.303427,166191.578125,192548.75,182154.5625,211557.84375,197589.078125,193935.71875,690488.4375,204115.15625,0.06396484375,1.0107421875,-0.025146484375,-1.4648436307907104,0.1220703050494194,0.6713866591453552,93.33334350585938,71928.0,1.0
15:32:59.303455,166191.9375,192559.21875,182154.125,211518.765625,197595.15625,193942.609375,690914.0,204107.828125,0.065185546875,1.011962890625,-0.0263671875,-1.4648436307907104,0.2746581733226776,0.6713866591453552,93.33334350585938,71929.0,1.0
15:32:59.305366,166108.15625,192543.5625,182144.28125,211528.875,197587.46875,193941.359375,690871.375,204113.71875,0.063720703125,1.010986328125,-0.02734375,-1.5258787870407104,0.1831054538488388,0.6713866591453552,93.33334350585938,71930.0,1.0
15:32:59.307843,166087.421875,192535.796875,182146.15625,211548.71875,197583.625,193938.578125,690433.625,204118.734375,0.0625,1.009765625,-0.0283203125,-1.4648436307907104,0.2136230319738388,0.6713866591453552,93.33334350585938,71931.0,1.0
15:32:59.314103,166180.578125,192551.4375,182163.0625,211557.84375,197596.3125,193941.984375,690450.4375,204119.265625,0.06494140625,1.010009765625,-0.02490234375,-1.4648436307907104,0.3051757514476776,0.7629393935203552,93.33334350585938,71932.0,1.0
15:32:59.320902,166209.453125,192565.296875,182165.296875,211530.296875,197604.546875,193948.6875,690845.9375,204114.625,0.0634765625,1.01171875,-0.025146484375,-1.4648436307907104,0.2441406100988388,0.7324218153953552,93.33334350585938,71933.0,1.0
15:32:59.320928,166125.59375,192552.859375,182154.828125,211522.25,197596.046875,193948.875,690947.375,204117.65625,0.065673828125,1.010986328125,-0.025146484375,-1.4343260526657104,0.3356933295726776,0.6713866591453552,93.33334350585938,71934.0,1.0
15:32:59.333460,166082.234375,192534.984375,182146.703125,211549.171875,197583.0,193941.453125,690487.8125,204123.46875,0.065673828125,1.009765625,-0.0244140625,-1.4038084745407104,0.3051757514476776,0.8850097060203552,93.33334350585938,71935.0,1.0
15:32:59.333486,166159.5625,192546.34375,182158.328125,211550.234375,197588.171875,193943.328125,690418.0,204122.3125,0.06591796875,1.00927734375,-0.02392578125,-1.4038084745407104,0.3051757514476776,0.8850097060203552,93.33334350585938,71936.0,1.0
15:32:59.335907,166210.53125,192559.125,182161.8125,211535.75,197594.265625,193944.390625,690756.8125,204118.203125,0.0654296875,1.009765625,-0.02587890625,-1.4038084745407104,0.3356933295726776,0.7629393935203552,93.33334350585938,71937.0,1.0
15:32:59.335936,166130.515625,192546.875,182147.765625,211507.140625,197583.265625,193941.0,690986.125,204113.546875,0.064697265625,1.009765625,-0.029052734375,-1.3732908964157104,0.3051757514476776,0.8239745497703552,93.33334350585938,71938.0,1.0
15:32:59.337826,166075.703125,192527.921875,182137.765625,211543.53125,197568.234375,193933.125,690536.1875,204119.1875,0.063232421875,1.01123046875,-0.02685546875,-1.3427733182907104,0.3662109076976776,0.8850097060203552,93.33334350585938,71939.0,1.0
15:32:59.345414,166137.21875,192538.828125,182148.21875,211541.296875,197570.65625,193934.296875,690390.625,204116.140625,0.065673828125,1.0107421875,-0.0244140625,-1.4038084745407104,0.4882812201976776,1.0070799589157104,93.33334350585938,71940.0,1.0
15:32:59.352203,166213.296875,192556.171875,182159.65625,211543.71875,197583.0,193938.859375,690673.3125,204116.9375,0.064208984375,1.01025390625,-0.02392578125,-1.3732908964157104,0.6103515028953552,0.8850097060203552,93.33334350585938,71941.0,1.0
15:32:59.352216,166149.828125,192552.953125,182150.90625,211505.265625,197577.71875,193941.09375,691006.0625,204112.46875,0.06201171875,1.013427734375,-0.023193359375,-1.4038084745407104,0.5187987685203552,0.9765624403953552,93.33334350585938,71942.0,1.0
15:32:59.367284,166083.21875,192532.65625,182141.15625,211544.78125,197564.3125,193934.296875,690612.875,204120.875,0.0615234375,1.013671875,-0.0244140625,-1.4343260526657104,0.4272460639476776,0.9765624403953552,93.33334350585938,71943.0,1.0
15:32:59.367297,166124.34375,192541.25,182150.359375,211543.265625,197567.890625,193939.390625,690386.5,204118.46875,0.062744140625,1.012939453125,-0.025146484375,-1.4648436307907104,0.4882812201976776,0.8850097060203552,93.33334350585938,71944.0,1.0
15:32:59.369142,166211.515625,192556.796875,182161.265625,211548.984375,197576.828125,193941.171875,690608.75,204116.234375,0.06396484375,1.010986328125,-0.02685546875,-1.5258787870407104,0.5493163466453552,0.8239745497703552,93.33334350585938,71945.0,1.0
15:32:59.371619,166164.484375,192555.453125,182152.234375,211502.140625,197572.265625,193943.5,691003.4375,204107.109375,0.065185546875,1.010009765625,-0.025146484375,-1.4953612089157104,0.5187987685203552,1.0375975370407104,93.33334350585938,71946.0,1.0
15:32:59.374064,166085.453125,192531.046875,182137.9375,211537.453125,197554.65625,193934.296875,690710.0,204113.71875,0.0654296875,1.01171875,-0.0283203125,-1.5258787870407104,0.5187987685203552,1.0375975370407104,93.33334350585938,71947.0,1.0
15:32:59.378777,166099.390625,192528.1875,182138.5625,211536.65625,197548.578125,193930.8125,690393.625,204109.96875,0.065185546875,1.010498046875,-0.02734375,-1.5563963651657104,0.6408690810203552,1.0070799589157104,93.33334350585938,71948.0,1.0
15:32:59.385345,166198.015625,192546.703125,182152.6875,211549.796875,197558.40625,193933.671875,690527.75,204110.59375,0.06396484375,1.01123046875,-0.027587890625,-1.5258787870407104,0.6713866591453552,1.0375975370407104,93.33334350585938,71949.0,1.0
15:32:59.385369,166176.5625,192555.015625,182149.203125,211504.546875,197557.875,193941.09375,690966.0625,204102.375,0.06396484375,1.010498046875,-0.02734375,-1.5563963651657104,0.6713866591453552,0.9765624403953552,93.33334350585938,71950.0,1.0
15:32:59.399027,166095.640625,192537.84375,182139.28125,211529.234375,197543.75,193938.765625,690799.9375,204109.34375,0.063720703125,1.01025390625,-0.027587890625,-1.5869139432907104,0.6408690810203552,1.0681151151657104,93.33334350585938,71951.0,1.0
15:32:59.399352,166094.5625,192535.875,182141.78125,211541.5625,197539.90625,193939.921875,690407.6875,204111.84375,0.06640625,1.01123046875,-0.026123046875,-1.6784666776657104,0.6103515028953552,1.0070799589157104,93.33334350585938,71952.0,1.0
15:32:59.399372,166193.09375,192553.765625,182158.046875,211553.546875,197551.609375,193944.484375,690477.5,204115.421875,0.06591796875,1.011474609375,-0.02490234375,-1.5563963651657104,0.7019042372703552,1.0070799589157104,93.33334350585938,71953.0,1.0
15:32:59.399384,166194.703125,192561.8125,182154.75,211511.171875,197554.828125,193949.578125,690902.625,204107.28125,0.065185546875,1.01123046875,-0.0263671875,-1.5563963651657104,0.6713866591453552,1.0070799589157104,93.33334350585938,71954.0,1.0
15:32:59.407950,166107.171875,192543.125,182141.328125,211513.9375,197539.453125,193945.375,690880.75,204108.890625,0.06396484375,1.011962890625,-0.02587890625,-1.5869139432907104,0.6103515028953552,1.0375975370407104,93.33334350585938,71955.0,1.0
15:32:59.414637,166084.015625,192533.109375,182139.8125,211535.671875,197528.984375,193942.78125,690437.625,204113.71875,0.066162109375,1.011962890625,-0.021484375,-1.6479490995407104,0.7324218153953552,1.0070799589157104,93.33334350585938,71956.0,1.0
15:32:59.414667,166179.59375,192551.796875,182158.40625,211547.296875,197542.40625,193948.15625,690447.375,204117.390625,0.06640625,1.010986328125,-0.023681640625,-1.5869139432907104,0.7019042372703552,0.9460448622703552,93.33334350585938,71957.0,1.0
15:32:59.427746,166214.640625,192569.046875,182165.296875,211525.390625,197552.859375,193955.390625,690838.0,204115.15625,0.06494140625,1.010986328125,-0.024658203125,-1.5563963651657104,0.7324218153953552,1.0070799589157104,93.33334350585938,71958.0,1.0
15:32:59.427770,166134.359375,192558.40625,182156.53125,211518.40625,197544.640625,193954.953125,690959.875,204119.53125,0.064697265625,1.010498046875,-0.0224609375,-1.5258787870407104,0.7019042372703552,0.9765624403953552,93.33334350585938,71959.0,1.0
15:32:59.427777,166091.265625,192541.25,182149.5625,211548.0,197532.203125,193946.71875,690496.5,204125.078125,0.066650390625,1.010009765625,-0.025390625,-1.4953612089157104,0.7934569716453552,0.8850097060203552,93.33334350585938,71960.0,1.0
15:32:59.430895,166169.578125,192553.9375,182163.421875,211552.5625,197540.078125,193948.78125,690423.0,204126.0625,0.0654296875,1.0087890625,-0.0244140625,-1.4953612089157104,0.7934569716453552,0.9155272841453552,93.33334350585938,71961.0,1.0
15:32:59.430915,166229.125,192571.109375,182172.8125,211542.640625,197551.34375,193955.75,690760.9375,204126.6875,0.0654296875,1.009521484375,-0.02392578125,-1.4648436307907104,0.7629393935203552,0.9155272841453552,93.33334350585938,71962.0,1.0
15:32:59.432823,166153.40625,192562.515625,182162.171875,211513.671875,197542.765625,193957.265625,691009.5,204123.46875,0.065673828125,1.012451171875,-0.021728515625,-1.4953612089157104,0.8239745497703552,0.8239745497703552,93.33334350585938,71963.0,1.0
15:32:59.447050,166092.25,192541.421875,182151.171875,211546.671875,197526.578125,193947.609375,690561.75,204127.21875,0.066162109375,1.010498046875,-0.022216796875,-1.4648436307907104,0.8850097060203552,0.8239745497703552,93.33334350585938,71964.0,1.0
15:32:59.454950,166149.734375,192550.28125,182161.71875,211543.796875,197529.890625,193946.8125,690403.0625,204123.734375,0.06591796875,1.010986328125,-0.021728515625,-1.4648436307907104,0.8850097060203552,0.7629393935203552,93.33334350585938,71965.0,1.0
15:32:59.454974,166230.109375,192568.6875,182173.34375,211549.609375,197540.96875,193950.203125,690679.0625,204125.890625,0.064208984375,1.010498046875,-0.0234375,-1.5258787870407104,0.8239745497703552,0.7324218153953552,93.33334350585938,71966.0,1.0
15:32:59.454978,166168.0625,192565.5625,182163.15625,211507.5,197533.8125,193949.9375,691020.8125,204119.53125,0.06591796875,1.010986328125,-0.0234375,-1.4343260526657104,0.8850097060203552,0.6408690810203552,93.33334350585938,71967.0,1.0
15:32:59.463250,166096.890625,192541.953125,182151.171875,211545.859375,197516.65625,193940.109375,690643.75,204126.515625,0.064697265625,1.00927734375,-0.025390625,-1.4648436307907104,0.8239745497703552,0.7629393935203552,93.33334350585938,71968.0,1.0
15:32:59.463303,166135.515625,192548.21875,182159.75,211545.59375,197518.984375,193941.53125,690402.5625,204125.796875,0.0654296875,1.010498046875,-0.021484375,-1.4343260526657104,0.8850097060203552,0.6713866591453552,93.33334350585938,71969.0,1.0
15:32:59.465313,166230.921875,192566.640625,182173.34375,211559.359375,197530.78125,193945.734375,690611.5625,204127.40625,0.064208984375,1.009765625,-0.02392578125,-1.4648436307907104,0.8544921278953552,0.5187987685203552,93.33334350585938,71970.0,1.0
15:32:59.483166,166189.515625,192569.59375,182167.796875,211513.046875,197529.796875,193951.28125,691016.8125,204120.703125,0.0654296875,1.010498046875,-0.025634765625,-1.4038084745407104,0.7934569716453552,0.5493163466453552,93.33334350585938,71971.0,1.0
15:32:59.483192,166110.03125,192550.09375,182157.15625,211545.0625,197517.28125,193946.359375,690733.875,204127.859375,0.065673828125,1.011962890625,-0.026611328125,-1.3427733182907104,0.7324218153953552,0.5798339247703552,93.33334350585938,71972.0,1.0
15:32:59.484725,166120.5,192547.40625,182157.421875,211542.90625,197511.828125,193943.0625,690400.8125,204122.9375,0.065673828125,1.012451171875,-0.025390625,-1.3732908964157104,0.8544921278953552,0.4577636420726776,93.33334350585938,71973.0,1.0
15:32:59.484733,166217.328125,192561.453125,182168.78125,211551.765625,197521.125,193943.953125,690525.5,204120.25,0.064453125,1.01416015625,-0.023681640625,-1.3427733182907104,0.7629393935203552,0.3967284858226776,93.33334350585938,71974.0,1.0
15:32:59.495125,166196.5,192565.921875,182162.96875,211505.625,197521.484375,193948.234375,690960.25,204111.046875,0.065185546875,1.012939453125,-0.024658203125,-1.3732908964157104,0.7629393935203552,0.4272460639476776,93.33334350585938,71975.0,1.0
15:32:59.495291,166106.640625,192540.703125,182145.171875,211521.625,197502.796875,193938.765625,690810.9375,204113.09375,0.065185546875,1.01123046875,-0.02392578125,-1.4343260526657104,0.7629393935203552,0.3967284858226776,93.33334350585938,71976.0,1.0
15:32:59.495299,166095.46875,192533.375,182142.59375,211527.984375,197494.84375,193933.578125,690410.625,204111.9375,0.063720703125,1.01171875,-0.02685546875,-1.3732908964157104,0.6408690810203552,0.3662109076976776,93.33334350585938,71977.0,1.0
15:32:59.495303,166195.15625,192551.34375,182160.375,211541.03125,197506.8125,193935.90625,690457.875,204114.265625,0.06396484375,1.010986328125,-0.02392578125,-1.3732908964157104,0.6408690810203552,0.4577636420726776,93.33334350585938,71978.0,1.0
15:32:59.500342,166206.59375,192563.6875,182161.265625,211508.125,197511.375,193941.71875,690883.8125,204110.15625,0.063232421875,1.0107421875,-0.0263671875,-1.3122557401657104,0.6408690810203552,0.4882812201976776,93.33334350585938,71979.0,1.0
15:32:59.507190,166123.890625,192548.75,182150.0,211515.734375,197499.046875,193939.296875,690886.375,204114.984375,0.06396484375,1.010986328125,-0.024658203125,-1.3427733182907104,0.5798339247703552,0.4882812201976776,93.33334350585938,71980.0,1.0
15:32:59.507215,166098.140625,192540.4375,182148.578125,211536.828125,197492.953125,193938.765625,690446.125,204119.890625,0.063720703125,1.009765625,-0.0234375,-1.3427733182907104,0.6103515028953552,0.4577636420726776,93.33334350585938,71981.0,1.0
15:32:59.511613,166190.6875,192558.765625,182165.828125,211546.390625,197505.65625,193945.375,690436.75,204123.109375,0.06396484375,1.009033203125,-0.0263671875,-1.3122557401657104,0.6408690810203552,0.3662109076976776,93.33334350585938,71982.0,1.0
15:32:59.515348,166221.34375,192569.859375,182166.453125,211518.859375,197510.484375,193947.796875,690817.625,204117.390625,0.06396484375,1.010009765625,-0.02734375,-1.2207030057907104,0.5187987685203552,0.3967284858226776,93.33334350585938,71983.0,1.0
15:32:59.527849,166137.21875,192556.53125,182152.6875,211504.546875,197499.125,193947.265625,690954.4375,204116.859375,0.0654296875,1.0107421875,-0.0263671875,-1.2207030057907104,0.4882812201976776,0.3967284858226776,93.33334350585938,71984.0,1.0
15:32:59.532354,166090.90625,192539.640625,182145.625,211535.21875,197487.59375,193940.546875,690489.25,204120.796875,0.0634765625,1.0107421875,-0.02587890625,-1.1901854276657104,0.3967284858226776,0.3356933295726776,93.33334350585938,71985.0,1.0
15:32:59.532365,166167.4375,192552.78125,182159.21875,211536.5625,197496.09375,193943.859375,690410.9375,204121.0625,0.063232421875,1.0087890625,-0.02587890625,-1.1901854276657104,0.3662109076976776,0.2441406100988388,93.33334350585938,71986.0,1.0
15:32:59.545902,166227.515625,192567.703125,182166.640625,211527.0,197503.953125,193947.96875,690740.125,204119.984375,0.06201171875,1.010009765625,-0.02587890625,-1.1291502714157104,0.3356933295726776,0.3051757514476776,93.33334350585938,71987.0,1.0
15:32:59.545978,166154.296875,192561.546875,182156.796875,211497.765625,197496.71875,193950.03125,691000.8125,204116.140625,0.0634765625,1.01025390625,-0.025390625,-1.1596678495407104,0.3967284858226776,0.3356933295726776,93.33334350585938,71988.0,1.0
15:32:59.546006,166096.625,192544.546875,182149.921875,211538.078125,197484.203125,193944.671875,690569.25,204124.28125,0.063232421875,1.010009765625,-0.02587890625,-1.0986326932907104,0.3662109076976776,0.3967284858226776,93.33334350585938,71989.0,1.0
15:32:59.548503,166153.125,192553.84375,182160.5625,211537.453125,197487.234375,193945.921875,690399.4375,204123.109375,0.062255859375,1.011962890625,-0.025390625,-1.1596678495407104,0.3051757514476776,0.4272460639476776,93.33334350585938,71990.0,1.0
15:32:59.548561,166237.171875,192573.515625,182172.625,211542.109375,197499.484375,193950.390625,690663.375,204122.75,0.064208984375,1.01220703125,-0.02392578125,-1.1596678495407104,0.2136230319738388,0.4882812201976776,93.33334350585938,71991.0,1.0
15:32:59.550584,166181.734375,192575.3125,182167.0,211501.328125,197497.875,193955.03125,691018.8125,204117.484375,0.0634765625,1.01220703125,-0.025390625,-1.0681151151657104,0.2136230319738388,0.4577636420726776,93.33334350585938,71992.0,1.0
15:32:59.562888,166110.84375,192555.546875,182158.140625,211540.140625,197485.8125,193948.0625,690645.9375,204126.875,0.064208984375,1.011474609375,-0.02783203125,-1.0070799589157104,0.1831054538488388,0.5187987685203552,93.33334350585938,71993.0,1.0
15:32:59.570382,166146.609375,192563.59375,182169.046875,211540.578125,197492.15625,193952.890625,690393.375,204127.859375,0.065185546875,1.013427734375,-0.026611328125,-1.1291502714157104,0.0915527269244194,0.4577636420726776,93.33334350585938,71994.0,1.0
15:32:59.570462,166240.578125,192578.703125,182180.859375,211550.953125,197502.4375,193955.21875,690591.3125,204128.296875,0.06298828125,1.01416015625,-0.024658203125,-1.0681151151657104,0.0915527269244194,0.5493163466453552,93.33334350585938,71995.0,1.0
15:32:59.570489,166196.046875,192575.484375,182169.859375,211501.0625,197497.609375,193954.859375,690997.125,204119.09375,0.061767578125,1.014404296875,-0.025146484375,-1.1291502714157104,0.0610351525247097,0.5187987685203552,93.33334350585938,71996.0,1.0
15:32:59.576139,166110.390625,192549.46875,182153.84375,211531.828125,197479.109375,193944.578125,690734.0,204126.421875,0.062744140625,1.013671875,-0.023681640625,-1.1596678495407104,0.0610351525247097,0.5798339247703552,93.33334350585938,71997.0,1.0
15:32:59.576225,166119.875,192545.171875,182153.578125,211534.421875,197471.859375,193939.921875,690393.8125,204124.09375,0.0615234375,1.013427734375,-0.023681640625,-1.1901854276657104,0.1220703050494194,0.5798339247703552,93.33334350585938,71998.0,1.0
15:32:59.588028,166223.21875,192564.3125,182168.78125,211549.53125,197481.34375,193942.4375,690521.4375,204125.796875,0.063232421875,1.011962890625,-0.024169921875,-1.1596678495407104,0.0610351525247097,0.6103515028953552,93.33334350585938,71999.0,1.0
15:32:59.592167,166204.71875,192568.875,182161.1875,211501.328125,197480.0,193945.109375,690951.75,204114.890625,0.064697265625,1.01220703125,-0.023681640625,-1.1596678495407104,0.03051757626235485,0.6103515028953552,93.33334350585938,72000.0,1.0
15:32:59.592249,166116.46875,192546.515625,182146.4375,211518.234375,197464.890625,193937.515625,690823.0,204118.640625,0.06396484375,1.012939453125,-0.0263671875,-1.2207030057907104,0.0610351525247097,0.5798339247703552,93.33334350585938,72001.0,1.0
15:32:59.592280,166104.84375,192539.90625,182144.734375,211528.78125,197457.828125,193935.453125,690421.125,204119.890625,0.06689453125,1.01123046875,-0.026611328125,-1.2207030057907104,0.03051757626235485,0.5798339247703552,93.33334350585938,72002.0,1.0
15:32:59.594177,166205.171875,192558.40625,182161.265625,211543.53125,197469.71875,193940.109375,690470.8125,204122.046875,0.06494140625,1.011474609375,-0.025634765625,-1.1901854276657104,0.0610351525247097,0.6408690810203552,93.33334350585938,72003.0,1.0
15:32:59.597855,166212.40625,192564.9375,182158.765625,211505.890625,197472.84375,193940.375,690887.25,204114.53125,0.066650390625,1.010986328125,-0.026611328125,-1.2207030057907104,0.0915527269244194,0.6408690810203552,93.33334350585938,72004.0,1.0
15:32:59.604559,166122.28125,192544.109375,182141.953125,211504.375,197457.203125,193932.140625,690902.125,204114.078125,0.06640625,1.0107421875,-0.02685546875,-1.2817381620407104,0.0915527269244194,0.5798339247703552,93.33334350585938,72005.0,1.0
15:32:59.611038,166092.609375,192530.0625,182136.6875,211527.0,197444.5,193924.640625,690450.25,204116.3125,0.064453125,1.0126953125,-0.0263671875,-1.2512205839157104,0.03051757626235485,0.6103515028953552,93.33334350585938,72006.0,1.0
15:32:59.611123,166177.890625,192541.421875,182148.671875,211533.4375,197451.5625,193924.453125,690431.375,204114.265625,0.06396484375,1.01171875,-0.02490234375,-1.2817381620407104,0.03051757626235485,0.5187987685203552,93.33334350585938,72007.0,1.0
15:32:59.617181,166210.890625,192550.71875,182147.765625,211508.578125,197455.3125,193924.90625,690806.1875,204106.125,0.06689453125,1.01025390625,-0.028564453125,-1.2512205839157104,0.0915527269244194,0.5493163466453552,93.33334350585938,72008.0,1.0
15:32:59.623567,166126.578125,192537.40625,182133.46875,211490.96875,197444.046875,193921.78125,690962.25,204103.53125,0.06640625,1.01171875,-0.02734375,-1.2817381620407104,0.0915527269244194,0.5798339247703552,93.33334350585938,72009.0,1.0
15:32:59.623588,166078.03125,192519.515625,182124.34375,211520.46875,197433.140625,193913.28125,690514.625,204105.953125,0.06689453125,1.0107421875,-0.027099609375,-1.2817381620407104,0.1220703050494194,0.5187987685203552,93.33334350585938,72010.0,1.0
15:32:59.634187,166150.359375,192531.953125,182136.234375,211520.109375,197439.046875,193914.796875,690412.25,204104.34375,0.0673828125,1.010986328125,-0.027099609375,-1.2207030057907104,0.1831054538488388,0.5798339247703552,93.33334350585938,72011.0,1.0
15:32:59.637736,166215.71875,192549.203125,182146.25,211514.390625,197449.59375,193920.890625,690732.625,204103.53125,0.068115234375,1.009521484375,-0.028076171875,-1.2207030057907104,0.1831054538488388,0.5493163466453552,93.33334350585938,72012.0,1.0
15:32:59.637781,166143.75,192544.109375,182136.15625,211482.46875,197442.4375,193924.375,691007.25,204100.3125,0.0654296875,1.009033203125,-0.029052734375,-1.2512205839157104,0.3051757514476776,0.6103515028953552,93.33334350585938,72013.0,1.0
15:32:59.639065,166082.5,192524.4375,182125.859375,211518.953125,197429.21875,193917.84375,690575.4375,204107.828125,0.066162109375,1.0107421875,-0.02880859375,-1.1901854276657104,0.3662109076976776,0.5493163466453552,93.33334350585938,72014.0,1.0
15:32:59.654846,166132.125,192530.421875,182133.640625,211513.5,197431.265625,193917.84375,690393.8125,204103.984375,0.066650390625,1.012939453125,-0.031494140625,-1.1596678495407104,0.3051757514476776,0.6408690810203552,93.33334350585938,72015.0,1.0
15:32:59.655095,166211.0625,192544.90625,182142.046875,211516.453125,197439.578125,193919.1875,690648.1875,204099.875,0.0673828125,1.011474609375,-0.03076171875,-1.1596678495407104,0.3662109076976776,0.4882812201976776,93.33334350585938,72016.0,1.0
15:32:59.658149,166149.734375,192540.0,182128.8125,211471.109375,197432.609375,193920.171875,691011.4375,204091.375,0.06689453125,1.0126953125,-0.029296875,-1.3122557401657104,0.4882812201976776,0.5187987685203552,93.33334350585938,72017.0,1.0
15:32:59.658180,166071.59375,192513.609375,182111.5625,211505.53125,197413.65625,193910.6875,690659.1875,204096.296875,0.0654296875,1.010986328125,-0.028564453125,-1.3122557401657104,0.4577636420726776,0.5798339247703552,93.33334350585938,72018.0,1.0
15:32:59.659316,166097.515625,192514.875,182115.140625,211501.515625,197413.65625,193911.671875,690394.125,204094.59375,0.06396484375,1.011962890625,-0.02734375,-1.3122557401657104,0.4272460639476776,0.5798339247703552,93.33334350585938,72019.0,1.0
15:32:59.665358,166189.078125,192528.09375,182125.328125,211511.796875,197425.1875,193912.296875,690573.875,204095.3125,0.0654296875,1.01220703125,-0.028564453125,-1.3122557401657104,0.4882812201976776,0.5493163466453552,93.33334350585938,72020.0,1.0
15:32:59.669645,166151.796875,192530.15625,182119.25,211462.53125,197427.515625,193916.234375,690992.875,204089.671875,0.06640625,1.010986328125,-0.029052734375,-1.2817381620407104,0.4882812201976776,0.5493163466453552,93.33334350585938,72021.0,1.0
15:32:59.669674,166068.90625,192505.578125,182105.84375,211491.40625,197413.203125,193908.015625,690741.875,204096.734375,0.066162109375,1.010009765625,-0.029541015625,-1.4038084745407104,0.4577636420726776,0.5187987685203552,93.33334350585938,72022.0,1.0
15:32:59.683896,166076.953125,192502.265625,182107.453125,211495.171875,197409.71875,193905.234375,690390.1875,204095.390625,0.064697265625,1.011962890625,-0.02880859375,-1.2817381620407104,0.4577636420726776,0.6103515028953552,93.33334350585938,72023.0,1.0
15:32:59.685905,166176.640625,192520.859375,182122.015625,211508.75,197423.484375,193908.8125,690512.1875,204096.828125,0.06494140625,1.0146484375,-0.031005859375,-1.2817381620407104,0.4577636420726776,0.6713866591453552,93.33334350585938,72024.0,1.0
15:32:59.685932,166165.015625,192530.421875,182119.15625,211465.125,197428.765625,193916.5,690942.1875,204090.390625,0.0654296875,1.01611328125,-0.029296875,-1.2817381620407104,0.4577636420726776,0.6408690810203552,93.33334350585938,72025.0,1.0
15:32:59.687809,166078.65625,192511.65625,182105.75,211480.234375,197413.828125,193910.515625,690830.125,204094.5,0.063232421875,1.013427734375,-0.02734375,-1.3427733182907104,0.5187987685203552,0.4882812201976776,93.33334350585938,72026.0,1.0
15:32:59.690326,166069.09375,192506.546875,182107.984375,211494.359375,197408.921875,193909.53125,690418.625,204097.359375,0.0634765625,1.013671875,-0.0283203125,-1.3732908964157104,0.3967284858226776,0.5187987685203552,93.33334350585938,72027.0,1.0
15:32:59.692820,166171.640625,192527.921875,182130.96875,211510.90625,197426.984375,193918.203125,690463.375,204103.09375,0.063720703125,1.01416015625,-0.02685546875,-1.3732908964157104,0.4272460639476776,0.6103515028953552,93.33334350585938,72028.0,1.0
15:32:59.705374,166190.5,192542.5,182136.59375,211481.671875,197439.140625,193924.109375,690873.5625,204099.6875,0.0654296875,1.015380859375,-0.027587890625,-1.4343260526657104,0.4272460639476776,0.5798339247703552,93.33334350585938,72029.0,1.0
15:32:59.708464,166104.578125,192526.671875,182124.890625,211483.0,197429.65625,193918.640625,690905.3125,204102.1875,0.063232421875,1.013427734375,-0.02880859375,-1.4648436307907104,0.3967284858226776,0.5798339247703552,93.33334350585938,72030.0,1.0
15:32:59.708476,166072.484375,192514.0625,182120.953125,211505.53125,197420.71875,193913.28125,690447.0,204106.84375,0.065185546875,1.013427734375,-0.02685546875,-1.5869139432907104,0.3356933295726776,0.6103515028953552,93.33334350585938,72031.0,1.0
15:32:59.710386,166158.671875,192529.171875,182137.125,211512.6875,197430.015625,193916.6875,690423.8125,204107.015625,0.064697265625,1.014892578125,-0.029541015625,-1.6784666776657104,0.3051757514476776,0.6408690810203552,93.33334350585938,72032.0,1.0
15:32:59.714104,166199.625,192541.15625,182140.890625,211493.5625,197436.546875,193919.28125,690790.4375,204103.171875,0.065185546875,1.012451171875,-0.028564453125,-1.6784666776657104,0.4577636420726776,0.6408690810203552,93.33334350585938,72033.0,1.0
15:32:59.727214,166118.171875,192527.921875,182126.40625,211473.078125,197424.5625,193916.40625,690959.3125,204100.3125,0.065673828125,1.01025390625,-0.02685546875,-1.8005369901657104,0.3967284858226776,0.5187987685203552,93.33334350585938,72034.0,1.0
15:32:59.727225,166067.03125,192507.890625,182114.6875,211501.78125,197409.640625,193907.296875,690496.75,204101.296875,0.064453125,1.01123046875,-0.02587890625,-1.7700194120407104,0.3051757514476776,0.4577636420726776,93.33334350585938,72035.0,1.0
15:32:59.729136,166137.3125,192519.25,182126.671875,211499.90625,197415.890625,193909.265625,690389.1875,204097.8125,0.06298828125,1.01220703125,-0.025390625,-1.7700194120407104,0.2746581733226776,0.5493163466453552,93.33334350585938,72036.0,1.0
15:32:59.732848,166203.828125,192536.59375,182136.5,211494.09375,197426.265625,193916.234375,690703.625,204096.828125,0.06494140625,1.011962890625,-0.02490234375,-1.8615721464157104,0.2441406100988388,0.5493163466453552,93.33334350585938,72037.0,1.0
15:32:59.744735,166133.90625,192532.75,182127.125,211461.1875,197419.203125,193920.25,690997.0,204092.0,0.0625,1.01025390625,-0.025634765625,-1.8310545682907104,0.3356933295726776,0.5187987685203552,93.33334350585938,72038.0,1.0
15:32:59.744744,166067.484375,192509.328125,182113.625,211495.171875,197399.53125,193910.0625,690580.9375,204094.6875,0.0615234375,1.010498046875,-0.025634765625,-1.9226073026657104,0.2136230319738388,0.4577636420726776,93.33334350585938,72039.0,1.0
15:32:59.747205,166117.375,192516.828125,182122.015625,211491.140625,197401.9375,193910.875,690384.0625,204093.34375,0.062255859375,1.010009765625,-0.026611328125,-1.9226073026657104,0.2136230319738388,0.4882812201976776,93.33334350585938,72040.0,1.0
15:32:59.747216,166202.578125,192534.1875,182135.796875,211498.390625,197417.59375,193914.359375,690627.4375,204097.28125,0.063720703125,1.0107421875,-0.025390625,-1.9531248807907104,0.1525878757238388,0.6103515028953552,93.33334350585938,72041.0,1.0
15:32:59.749102,166148.21875,192533.015625,182128.453125,211455.734375,197415.984375,193917.75,691002.25,204093.34375,0.06201171875,1.011474609375,-0.02734375,-2.014159917831421,0.0915527269244194,0.6103515028953552,93.33334350585938,72042.0,1.0
15:32:59.755337,166072.3125,192510.3125,182115.140625,211492.125,197399.265625,193910.515625,690656.75,204100.140625,0.0615234375,1.011962890625,-0.02392578125,-2.014159917831421,0.03051757626235485,0.5493163466453552,93.33334350585938,72043.0,1.0
15:32:59.769237,166100.296875,192516.296875,182122.375,211491.59375,197399.53125,193912.921875,690372.8125,204098.171875,0.063232421875,1.01171875,-0.02587890625,-2.075195074081421,0.03051757626235485,0.5798339247703552,93.33334350585938,72044.0,1.0
15:32:59.769303,166200.78125,192537.125,182137.578125,211506.34375,197414.015625,193918.296875,690548.25,204100.578125,0.061767578125,1.012451171875,-0.022705078125,-2.044677495956421,0.0610351525247097,0.5798339247703552,93.33334350585938,72045.0,1.0
15:32:59.769307,166166.09375,192540.96875,182131.765625,211456.71875,197414.28125,193923.921875,690963.8125,204091.90625,0.06298828125,1.011474609375,-0.026123046875,-2.044677495956421,0.0610351525247097,0.6103515028953552,93.33334350585938,72046.0,1.0
15:32:59.775381,166083.65625,192519.34375,182119.875,211485.78125,197399.53125,193916.5,690733.5,204097.71875,0.0634765625,1.01123046875,-0.0283203125,-1.9836424589157104,0.03051757626235485,0.6713866591453552,93.33334350585938,72047.0,1.0
15:32:59.788443,166091.171875,192519.34375,182123.546875,211492.3125,197397.109375,193915.609375,690382.75,204099.515625,0.063720703125,1.01171875,-0.026611328125,-2.075195074081421,-0.03051757626235485,0.6408690810203552,93.33334350585938,72048.0,1.0
15:32:59.788467,166190.859375,192535.796875,182139.015625,211505.453125,197407.75,193916.5,690504.0,204099.953125,0.064208984375,1.0107421875,-0.025634765625,-2.044677495956421,-0.0915527269244194,0.5798339247703552,93.33334350585938,72049.0,1.0
15:32:59.791508,166185.40625,192545.453125,182139.546875,211465.21875,197412.21875,193922.21875,690925.0,204093.25,0.061767578125,1.0107421875,-0.0263671875,-2.075195074081421,-0.03051757626235485,0.6408690810203552,93.33334350585938,72050.0,1.0
15:32:59.791520,166106.1875,192529.796875,182131.234375,211486.21875,197402.21875,193920.4375,690834.8125,204101.203125,0.064208984375,1.010498046875,-0.028564453125,-1.9836424589157104,-0.1220703050494194,0.5493163466453552,93.33334350585938,72051.0,1.0
15:32:59.791523,166095.1875,192525.59375,182135.25,211507.5,197399.703125,193920.53125,690422.4375,204107.828125,0.064697265625,1.010498046875,-0.026611328125,-1.9836424589157104,-0.0915527269244194,0.6103515028953552,93.33334350585938,72052.0,1.0
15:32:59.794070,166189.96875,192540.890625,182150.546875,211517.25,197412.21875,193922.765625,690447.8125,204108.625,0.06494140625,1.01171875,-0.0283203125,-2.014159917831421,-0.0915527269244194,0.6103515028953552,93.33334350585938,72053.0,1.0
15:32:59.796600,166203.828125,192547.59375,182145.984375,211480.6875,197415.09375,193923.828125,690859.375,204099.953125,0.06494140625,1.0107421875,-0.025634765625,-1.9226073026657104,-0.0610351525247097,0.6713866591453552,93.33334350585938,72054.0,1.0
15:32:59.805480,166110.9375,192525.859375,182126.578125,211474.609375,197397.109375,193915.609375,690908.0,204097.28125,0.063720703125,1.012939453125,-0.02587890625,-2.014159917831421,0.0,0.6103515028953552,93.33334350585938,72055.0,1.0
15:32:59.812340,166073.296875,192509.765625,182117.546875,211497.578125,197384.515625,193909.34375,690451.9375,204098.078125,0.06298828125,1.01220703125,-0.029296875,-2.014159917831421,-0.03051757626235485,0.5493163466453552,93.33334350585938,72056.0,1.0
15:32:59.812388,166154.296875,192520.140625,182127.75,211497.21875,197391.03125,193909.53125,690407.9375,204094.0625,0.06298828125,1.013671875,-0.028076171875,-1.9531248807907104,-0.0610351525247097,0.5798339247703552,93.33334350585938,72057.0,1.0
15:32:59.820901,166197.296875,192533.734375,182131.5,211476.296875,197399.625,193914.71875,690773.375,204089.3125,0.066162109375,1.012451171875,-0.02880859375,-1.9531248807907104,-0.1220703050494194,0.6408690810203552,93.33334350585938,72058.0,1.0
15:32:59.820927,166115.765625,192522.921875,182119.15625,211454.21875,197391.296875,193914.265625,690962.9375,204086.546875,0.066162109375,1.012451171875,-0.02685546875,-2.044677495956421,0.0,0.7019042372703552,93.33334350585938,72059.0,1.0
15:32:59.822942,166060.859375,192503.0625,182108.078125,211484.890625,197376.546875,193905.0625,690513.0,204089.671875,0.064453125,1.0126953125,-0.0263671875,-2.075195074081421,0.03051757626235485,0.7324218153953552,93.33334350585938,72060.0,1.0
15:32:59.825404,166129.4375,192515.5,182122.015625,211486.046875,197385.140625,193908.640625,690390.25,204090.125,0.066650390625,1.011962890625,-0.025634765625,-2.105712652206421,-0.03051757626235485,0.6713866591453552,93.33334350585938,72061.0,1.0
15:32:59.832851,166193.984375,192527.296875,182125.953125,211479.34375,197394.4375,193909.078125,690688.5,204087.890625,0.067626953125,1.01025390625,-0.02392578125,-2.136230230331421,0.03051757626235485,0.6408690810203552,93.33334350585938,72062.0,1.0
15:32:59.839792,166123.53125,192519.25,182114.515625,211443.40625,197388.796875,193909.53125,690992.4375,204084.3125,0.06982421875,1.00927734375,-0.0263671875,-2.105712652206421,0.1220703050494194,0.8239745497703552,93.33334350585938,72063.0,1.0
15:32:59.839818,166058.53125,192497.34375,182104.140625,211481.390625,197375.390625,193901.03125,690579.0,204092.359375,0.06689453125,1.009521484375,-0.025146484375,-2.136230230331421,0.1831054538488388,0.8239745497703552,93.33334350585938,72064.0,1.0
15:32:59.851371,166106.375,192506.828125,182116.484375,211479.609375,197381.65625,193903.265625,690374.875,204091.640625,0.066650390625,1.00732421875,-0.0263671875,-2.166747808456421,0.1525878757238388,0.8850097060203552,93.33334350585938,72065.0,1.0
15:32:59.851407,166196.9375,192527.03125,182132.84375,211486.5,197397.203125,193908.359375,690613.3125,204093.25,0.0654296875,1.00927734375,-0.026611328125,-2.166747808456421,0.1525878757238388,0.8544921278953552,93.33334350585938,72066.0,1.0
15:32:59.852891,166144.8125,192526.578125,182125.421875,211442.5,197395.859375,193911.765625,690992.25,204086.640625,0.06640625,1.01025390625,-0.025390625,-2.075195074081421,0.2136230319738388,0.9460448622703552,93.33334350585938,72067.0,1.0
15:32:59.855365,166072.484375,192507.984375,182117.375,211485.15625,197386.296875,193906.40625,690666.0,204098.265625,0.06591796875,1.012451171875,-0.024169921875,-2.075195074081421,0.1831054538488388,0.9460448622703552,93.33334350585938,72068.0,1.0
15:32:59.866737,166099.578125,192511.109375,182123.8125,211486.765625,197387.640625,193906.484375,690376.0625,204099.0625,0.066650390625,1.012451171875,-0.0263671875,-2.136230230331421,0.1525878757238388,0.8850097060203552,93.33334350585938,72069.0,1.0
15:32:59.869695,166194.96875,192526.84375,182133.90625,211498.921875,197398.8125,193907.5625,690534.4375,204101.03125,0.067626953125,1.012939453125,-0.02587890625,-2.014159917831421,0.2136230319738388,0.9460448622703552,93.33334350585938,72070.0,1.0
15:32:59.869717,166161.890625,192528.546875,182125.6875,211448.5,197395.15625,193909.34375,690956.5,204090.03125,0.066650390625,1.013671875,-0.0244140625,-2.105712652206421,0.2136230319738388,0.9460448622703552,93.33334350585938,72071.0,1.0
15:32:59.871762,166079.453125,192507.265625,182114.6875,211476.21875,197380.21875,193902.546875,690747.8125,204096.46875,0.067138671875,1.013916015625,-0.025390625,-2.014159917831421,0.2441406100988388,0.9460448622703552,93.33334350585938,72072.0,1.0
15:32:59.875315,166087.234375,192507.453125,182120.953125,211484.078125,197376.109375,193901.484375,690389.6875,204097.28125,0.066650390625,1.013671875,-0.026611328125,-2.075195074081421,0.3356933295726776,0.8544921278953552,93.33334350585938,72073.0,1.0
15:32:59.896120,166192.5625,192528.90625,182140.265625,211500.984375,197388.53125,193906.484375,690493.3125,204098.96875,0.064697265625,1.010498046875,-0.02587890625,-2.044677495956421,0.3356933295726776,0.7629393935203552,93.33334350585938,72074.0,1.0
15:32:59.896211,166186.84375,192537.84375,182138.46875,211459.046875,197390.40625,193912.75,690913.75,204091.90625,0.06494140625,1.0126953125,-0.026611328125,-1.8920897245407104,0.2746581733226776,0.7019042372703552,93.33334350585938,72075.0,1.0
15:32:59.898081,166104.21875,192523.546875,182129.71875,211475.859375,197379.59375,193913.546875,690841.5625,204098.96875,0.06396484375,1.01220703125,-0.025390625,-1.8920897245407104,0.2136230319738388,0.6408690810203552,93.33334350585938,72076.0,1.0
15:32:59.900770,166088.40625,192518.4375,182130.875,211494.71875,197372.4375,193914.09375,690421.1875,204103.0,0.06396484375,1.013671875,-0.0224609375,-1.9531248807907104,0.1831054538488388,0.4882812201976776,93.33334350585938,72077.0,1.0
15:32:59.903497,166185.3125,192535.96875,182147.765625,211506.15625,197383.171875,193919.09375,690442.5625,204105.046875,0.0625,1.013671875,-0.0224609375,-1.9836424589157104,0.1831054538488388,0.4272460639476776,93.33334350585938,72078.0,1.0
15:32:59.903575,166207.9375,192550.546875,182152.15625,211478.265625,197391.75,193927.234375,690849.5625,204101.296875,0.06298828125,1.014404296875,-0.024658203125,-2.166747808456421,0.2746581733226776,0.2136230319738388,93.33334350585938,72079.0,1.0
15:32:59.905971,166126.75,192538.5625,182142.671875,211476.65625,197382.8125,193928.9375,690921.25,204105.046875,0.061279296875,1.012939453125,-0.026123046875,-2.105712652206421,0.1220703050494194,0.0915527269244194,93.33334350585938,72080.0,1.0
15:32:59.906006,166088.125,192522.109375,182135.078125,211500.265625,197368.234375,193921.15625,690460.8125,204105.765625,0.06298828125,1.01123046875,-0.022705078125,-2.136230230331421,0.03051757626235485,0.0610351525247097,93.33334350585938,72081.0,1.0
15:32:59.919122,166168.953125,192534.1875,182148.046875,211503.484375,197373.875,193921.515625,690411.625,204102.453125,0.0615234375,1.013671875,-0.02197265625,-2.197265386581421,-0.03051757626235485,-0.0915527269244194,93.33334350585938,72082.0,1.0
15:32:59.924198,166218.84375,192550.359375,182155.375,211487.03125,197383.078125,193927.5,690768.375,204097.8125,0.06201171875,1.01220703125,-0.022705078125,-2.197265386581421,0.0610351525247097,-0.1525878757238388,93.33334350585938,72083.0,1.0
15:32:59.924232,166134.796875,192536.59375,182139.640625,211460.390625,197368.859375,193924.734375,690969.25,204092.453125,0.064208984375,1.011474609375,-0.02392578125,-2.136230230331421,-0.03051757626235485,-0.0610351525247097,93.33334350585938,72084.0,1.0
15:32:59.924240,166074.1875,192511.03125,182123.0,211486.765625,197349.015625,193910.78125,690515.875,204094.59375,0.0654296875,1.011474609375,-0.02392578125,-2.136230230331421,-0.1831054538488388,-0.0915527269244194,93.33334350585938,72085.0,1.0
15:32:59.944168,166133.46875,192517.1875,182130.15625,211481.578125,197351.34375,193907.828125,690391.6875,204092.171875,0.06494140625,1.010986328125,-0.024169921875,-2.136230230331421,-0.0610351525247097,-0.1220703050494194,93.33334350585938,72086.0,1.0
15:32:59.944240,166204.625,192532.75,182139.09375,211479.078125,197362.609375,193910.59375,690690.9375,204094.234375,0.065185546875,1.01171875,-0.025634765625,-2.105712652206421,-0.0610351525247097,-0.03051757626235485,93.33334350585938,72087.0,1.0
15:32:59.944261,166138.734375,192528.453125,182131.140625,211443.40625,197357.78125,193912.203125,690996.0625,204091.375,0.0654296875,1.01220703125,-0.02294921875,-2.166747808456421,-0.03051757626235485,-0.03051757626235485,93.33334350585938,72088.0,1.0
15:32:59.951516,166074.1875,192508.796875,182122.828125,211485.328125,197344.28125,193904.609375,690598.9375,204099.953125,0.065185546875,1.01220703125,-0.02099609375,-2.136230230331421,0.0,0.03051757626235485,93.33334350585938,72089.0,1.0
15:32:59.951539,166120.9375,192516.5625,182132.484375,211484.96875,197347.671875,193906.84375,690379.8125,204099.421875,0.064453125,1.01318359375,-0.021484375,-2.136230230331421,-0.03051757626235485,0.1525878757238388,93.33334350585938,72090.0,1.0
15:32:59.951543,166207.84375,192532.03125,182142.5,211491.671875,197356.609375,193908.640625,690600.0625,204098.796875,0.06396484375,1.01220703125,-0.021484375,-2.258300542831421,0.0,0.2136230319738388,93.33334350585938,72091.0,1.0
15:32:59.954692,166154.5625,192529.078125,182131.234375,211442.859375,197349.90625,193910.6875,690994.0,204089.234375,0.06298828125,1.01123046875,-0.021240234375,-2.166747808456421,-0.03051757626235485,0.2441406100988388,93.33334350585938,72092.0,1.0
15:32:59.954727,166071.234375,192502.0,182113.625,211474.875,197330.234375,193899.6875,690683.75,204093.34375,0.062255859375,1.011962890625,-0.021484375,-2.105712652206421,-0.03051757626235485,0.3051757514476776,93.33334350585938,72093.0,1.0
15:32:59.956601,166090.546875,192500.75,182117.90625,211475.140625,197329.34375,193898.359375,690387.1875,204093.609375,0.06005859375,1.010986328125,-0.019775390625,-2.044677495956421,-0.0915527269244194,0.3356933295726776,93.33334350585938,72094.0,1.0
15:32:59.969070,166193.1875,192521.21875,182137.3125,211494.890625,197346.0625,193903.625,690550.5,204100.765625,0.056884765625,1.01171875,-0.021728515625,-2.075195074081421,-0.2136230319738388,0.4272460639476776,93.33334350585938,72095.0,1.0
15:32:59.976510,166168.515625,192529.890625,182135.25,211452.078125,197348.296875,193908.546875,690966.125,204094.421875,0.0595703125,1.012451171875,-0.021240234375,-2.105712652206421,-0.2441406100988388,0.5493163466453552,93.33334350585938,72096.0,1.0
15:32:59.976525,166090.015625,192512.90625,182127.5625,211483.8125,197337.390625,193906.125,690764.625,204104.15625,0.061767578125,1.01171875,-0.018798828125,-2.075195074081421,-0.2441406100988388,0.5798339247703552,93.33334350585938,72097.0,1.0
15:32:59.976528,166090.8125,192510.40625,182131.046875,211490.703125,197332.65625,193905.5,690391.4375,204104.0625,0.059814453125,1.012939453125,-0.02001953125,-2.227782964706421,-0.2746581733226776,0.4272460639476776,93.33334350585938,72098.0,1.0
15:32:59.980914,166190.40625,192527.921875,182146.078125,211500.171875,197341.234375,193907.828125,690486.625,204103.71875,0.059814453125,1.013427734375,-0.018310546875,-2.319335699081421,-0.3356933295726776,0.4882812201976776,93.33334350585938,72099.0,1.0
15:32:59.980927,166184.515625,192534.453125,182139.546875,211453.59375,197339.1875,193910.15625,690910.1875,204092.0,0.060546875,1.011474609375,-0.01953125,-2.227782964706421,-0.3967284858226776,0.5187987685203552,93.33334350585938,72100.0,1.0
15:32:59.986599,166093.5,192511.203125,182121.671875,211461.28125,197319.953125,193901.921875,690851.6875,204091.640625,0.062744140625,1.01220703125,-0.018310546875,-2.288818120956421,-0.4577636420726776,0.4882812201976776,93.33334350585938,72101.0,1.0
15:33:00.000439,166071.859375,192500.390625,182117.375,211478.0,197309.234375,193898.171875,690422.0,204092.53125,0.0615234375,1.010498046875,-0.019287109375,-2.227782964706421,-0.4882812201976776,0.5187987685203552,93.33334350585938,72102.0,1.0
15:33:00.005306,166164.390625,192516.03125,182132.03125,211485.6875,197318.078125,193903.453125,690437.3125,204092.265625,0.063232421875,1.01171875,-0.01904296875,-2.197265386581421,-0.4577636420726776,0.6408690810203552,93.33334350585938,72103.0,1.0
15:33:00.005336,166188.0,192527.921875,182133.109375,211453.6875,197321.75,193908.28125,690835.25,204083.78125,0.065673828125,1.011474609375,-0.020263671875,-2.258300542831421,-0.4577636420726776,0.4577636420726776,93.33334350585938,72104.0,1.0
15:33:00.005344,166103.875,192515.3125,182121.84375,211443.75,197309.046875,193906.84375,690924.1875,204080.90625,0.06591796875,1.011474609375,-0.021240234375,-2.288818120956421,-0.4882812201976776,0.5187987685203552,93.33334350585938,72105.0,1.0
15:33:00.007822,166064.890625,192501.71875,182114.953125,211465.9375,197297.15625,193902.109375,690468.125,204080.203125,0.065185546875,1.009765625,-0.02099609375,-2.166747808456421,-0.6103515028953552,0.5493163466453552,93.33334350585938,72106.0,1.0
15:33:00.010338,166148.03125,192518.171875,182129.078125,211466.640625,197305.734375,193907.46875,690401.875,204077.0625,0.06396484375,1.0107421875,-0.020263671875,-2.227782964706421,-0.4882812201976776,0.6408690810203552,93.33334350585938,72107.0,1.0
15:33:00.017804,166199.625,192534.265625,182136.0625,211450.546875,197313.4375,193913.640625,690752.875,204072.234375,0.064208984375,1.0126953125,-0.019287109375,-2.136230230331421,-0.4577636420726776,0.6713866591453552,93.33334350585938,72108.0,1.0
15:33:00.024714,166119.78125,192522.5625,182123.453125,211424.171875,197302.078125,193911.140625,690973.375,204068.3125,0.06640625,1.011962890625,-0.02001953125,-2.136230230331421,-0.4577636420726776,0.6103515028953552,93.33334350585938,72109.0,1.0
15:33:00.024734,166067.5625,192503.15625,182114.609375,211463.6875,197287.953125,193901.484375,690532.5,204077.34375,0.06640625,1.012939453125,-0.01953125,-2.075195074081421,-0.4272460639476776,0.6103515028953552,93.33334350585938,72110.0,1.0
15:33:00.037364,166132.5625,192514.328125,182127.5625,211464.59375,197294.296875,193903.09375,690395.1875,204078.671875,0.065673828125,1.010986328125,-0.02099609375,-2.136230230331421,-0.3356933295726776,0.6713866591453552,93.33334350585938,72111.0,1.0
15:33:00.037388,166207.765625,192532.390625,182139.8125,211463.96875,197307.0,193907.46875,690685.8125,204081.265625,0.065185546875,1.009521484375,-0.019287109375,-2.075195074081421,-0.2441406100988388,0.7019042372703552,93.33334350585938,72112.0,1.0
15:33:00.039706,166141.59375,192527.828125,182127.75,211424.796875,197298.953125,193907.734375,691003.25,204076.0,0.0654296875,1.009765625,-0.01953125,-2.044677495956421,-0.1831054538488388,0.6408690810203552,93.33334350585938,72113.0,1.0
15:33:00.039721,166071.5,192504.59375,182115.140625,211463.34375,197280.890625,193898.4375,690608.4375,204083.6875,0.06640625,1.01025390625,-0.018798828125,-1.9836424589157104,-0.2136230319738388,0.5493163466453552,93.33334350585938,72114.0,1.0
15:33:00.047253,166114.6875,192511.921875,182125.234375,211462.984375,197283.484375,193899.78125,690380.9375,204084.9375,0.06494140625,1.01025390625,-0.02001953125,-1.8920897245407104,-0.2441406100988388,0.5493163466453552,93.33334350585938,72115.0,1.0
15:33:00.047274,166204.453125,192529.625,182139.015625,211472.375,197295.640625,193902.375,690598.1875,204088.0625,0.065673828125,1.011474609375,-0.01953125,-1.8310545682907104,-0.1220703050494194,0.5493163466453552,93.33334350585938,72116.0,1.0
15:33:00.059053,166154.296875,192527.75,182128.8125,211425.609375,197290.1875,193903.359375,690992.875,204079.21875,0.06591796875,1.011962890625,-0.021484375,-1.8615721464157104,-0.0915527269244194,0.5187987685203552,93.33334350585938,72117.0,1.0
15:33:00.063405,166076.234375,192505.03125,182115.234375,211461.015625,197271.671875,193895.765625,690687.625,204085.828125,0.068115234375,1.010498046875,-0.02099609375,-1.8005369901657104,-0.0610351525247097,0.6103515028953552,93.33334350585938,72118.0,1.0
15:33:00.063422,166091.796875,192502.984375,182115.234375,211456.90625,197264.703125,193892.984375,690379.6875,204081.359375,0.067138671875,1.01123046875,-0.021728515625,-1.8005369901657104,-0.03051757626235485,0.6103515028953552,93.33334350585938,72119.0,1.0
15:33:00.070311,166186.921875,192516.65625,182125.859375,211466.375,197272.390625,193892.09375,690530.4375,204079.390625,0.06640625,1.01171875,-0.0185546875,-1.7700194120407104,0.0610351525247097,0.6713866591453552,93.33334350585938,72120.0,1.0
15:33:00.070336,166161.359375,192521.390625,182121.21875,211419.53125,197273.46875,193895.9375,690959.9375,204072.234375,0.06787109375,1.01025390625,-0.02099609375,-1.7700194120407104,0.2136230319738388,0.7019042372703552,93.33334350585938,72121.0,1.0
15:33:00.070340,166080.4375,192502.796875,182112.71875,211449.21875,197262.109375,193892.453125,690782.5625,204082.078125,0.067626953125,1.0087890625,-0.02392578125,-1.6784666776657104,0.2441406100988388,0.7934569716453552,93.33334350585938,72122.0,1.0
15:33:00.072895,166081.78125,192501.453125,182118.453125,211463.875,197261.578125,193894.0625,690404.5625,204088.0625,0.066650390625,1.009765625,-0.022705078125,-1.6479490995407104,0.2746581733226776,0.7324218153953552,93.33334350585938,72123.0,1.0
15:33:00.085625,166183.625,192519.703125,182137.3125,211481.9375,197276.6875,193899.34375,690480.125,204094.953125,0.068115234375,1.01123046875,-0.018310546875,-1.4648436307907104,0.4272460639476776,0.7019042372703552,93.33334350585938,72124.0,1.0
15:33:00.089673,166193.8125,192537.75,182145.453125,211453.59375,197290.1875,193912.203125,690912.0625,204097.359375,0.06640625,1.011474609375,-0.020751953125,-1.4038084745407104,0.3662109076976776,0.6713866591453552,93.33334350585938,72125.0,1.0
15:33:00.089707,166114.5,192525.515625,182139.375,211469.328125,197283.75,193911.234375,690874.5,204104.78125,0.065185546875,1.01171875,-0.019775390625,-1.3732908964157104,0.3967284858226776,0.7629393935203552,93.33334350585938,72126.0,1.0
15:33:00.091673,166091.4375,192514.15625,182136.59375,211486.765625,197275.703125,193905.59375,690440.5,204106.125,0.06494140625,1.0107421875,-0.0205078125,-1.3427733182907104,0.3662109076976776,0.5493163466453552,93.33334350585938,72127.0,1.0
15:33:00.105898,166186.390625,192534.1875,182155.1875,211497.484375,197289.375,193912.203125,690439.0,204108.8125,0.06298828125,1.01025390625,-0.021240234375,-1.3732908964157104,0.3662109076976776,0.5798339247703552,93.33334350585938,72128.0,1.0
15:33:00.105916,166216.703125,192549.5625,182161.265625,211472.1875,197299.65625,193919.625,690835.5625,204104.78125,0.0625,1.0107421875,-0.02197265625,-1.2817381620407104,0.3662109076976776,0.6713866591453552,93.33334350585938,72129.0,1.0
15:33:00.110903,166131.21875,192534.53125,182148.578125,211459.40625,197288.046875,193917.125,690943.0625,204101.65625,0.06298828125,1.009033203125,-0.0244140625,-1.2207030057907104,0.3967284858226776,0.6103515028953552,93.33334350585938,72130.0,1.0
15:33:00.110921,166086.171875,192514.328125,182137.84375,211482.375,197272.125,193907.296875,690481.5625,204100.765625,0.0625,1.00927734375,-0.0224609375,-1.1901854276657104,0.3662109076976776,0.6713866591453552,93.33334350585938,72131.0,1.0
15:33:00.112848,166164.125,192527.46875,182151.265625,211486.21875,197281.328125,193910.421875,690409.5,204098.609375,0.064208984375,1.009033203125,-0.024658203125,-1.2207030057907104,0.3967284858226776,0.6103515028953552,93.33334350585938,72132.0,1.0
15:33:00.115358,166221.609375,192545.359375,182161.1875,211475.765625,197293.3125,193916.859375,690754.25,204097.28125,0.064208984375,1.008544921875,-0.02294921875,-1.2207030057907104,0.3967284858226776,0.6103515028953552,93.33334350585938,72133.0,1.0
15:33:00.119102,166147.765625,192537.84375,182152.234375,211451.625,197284.109375,193917.3125,690989.625,204097.28125,0.064208984375,1.010009765625,-0.02001953125,-1.0986326932907104,0.3051757514476776,0.5798339247703552,93.33334350585938,72134.0,1.0
15:33:00.132143,166091.96875,192518.796875,182144.828125,211490.0625,197268.1875,193908.640625,690540.625,204105.328125,0.061279296875,1.010498046875,-0.019775390625,-1.0681151151657104,0.3662109076976776,0.5493163466453552,93.33334350585938,72135.0,1.0
15:33:00.136184,166152.421875,192529.078125,182155.375,211488.46875,197274.1875,193911.859375,690392.9375,204105.328125,0.064208984375,1.012451171875,-0.02197265625,-1.1291502714157104,0.3662109076976776,0.6408690810203552,93.33334350585938,72136.0,1.0
15:33:00.136209,166229.484375,192546.421875,182165.109375,211488.28125,197285.71875,193915.96875,690672.9375,204107.203125,0.062255859375,1.0107421875,-0.024658203125,-1.0681151151657104,0.3662109076976776,0.5798339247703552,93.33334350585938,72137.0,1.0
15:33:00.137306,166162.78125,192540.703125,182154.296875,211444.734375,197279.90625,193917.125,691005.9375,204101.828125,0.06201171875,1.011474609375,-0.02490234375,-0.9765624403953552,0.3967284858226776,0.6408690810203552,93.33334350585938,72138.0,1.0
15:33:00.139519,166089.921875,192515.9375,182138.203125,211481.3125,197261.03125,193907.296875,690622.25,204107.28125,0.060791015625,1.01025390625,-0.025146484375,-0.9155272841453552,0.3967284858226776,0.5798339247703552,93.33334350585938,72139.0,1.0
15:33:00.151619,166126.9375,192518.09375,182141.421875,211478.453125,197255.859375,193905.140625,690388.125,204102.546875,0.06298828125,1.010009765625,-0.02197265625,-1.0070799589157104,0.3662109076976776,0.6713866591453552,93.33334350585938,72140.0,1.0
15:33:00.154811,166217.59375,192534.890625,182152.234375,211486.046875,197264.53125,193907.5625,690597.3125,204101.921875,0.062744140625,1.010009765625,-0.0224609375,-1.0375975370407104,0.2746581733226776,0.7019042372703552,93.33334350585938,72141.0,1.0
15:33:00.154826,166171.453125,192536.0625,182143.921875,211435.703125,197260.328125,193911.40625,690996.8125,204092.265625,0.063232421875,1.00927734375,-0.026123046875,-1.0375975370407104,0.3356933295726776,0.7324218153953552,93.33334350585938,72142.0,1.0
15:33:00.156593,166093.234375,192514.15625,182133.46875,211468.171875,197246.375,193904.875,690703.4375,204098.4375,0.06201171875,1.010009765625,-0.023681640625,-1.1596678495407104,0.3662109076976776,0.7629393935203552,93.33334350585938,72143.0,1.0
15:33:00.161079,166108.703125,192512.90625,182135.703125,211464.40625,197242.359375,193902.640625,690386.0625,204093.703125,0.06201171875,1.01318359375,-0.024169921875,-1.1291502714157104,0.3051757514476776,0.7629393935203552,93.33334350585938,72144.0,1.0
15:33:00.172179,166207.671875,192529.796875,182148.3125,211476.21875,197251.203125,193904.4375,690534.3125,204092.71875,0.062255859375,1.012451171875,-0.0263671875,-1.0986326932907104,0.3662109076976776,0.7324218153953552,93.33334350585938,72145.0,1.0
15:33:00.172190,166183.53125,192533.90625,182142.40625,211429.359375,197251.203125,193906.9375,690959.0,204084.9375,0.06396484375,1.0126953125,-0.0263671875,-1.0681151151657104,0.3051757514476776,0.8850097060203552,93.33334350585938,72146.0,1.0
15:33:00.172193,166097.515625,192511.828125,182129.4375,211452.25,197235.640625,193898.796875,690794.125,204091.203125,0.06494140625,1.01318359375,-0.02587890625,-1.1596678495407104,0.3356933295726776,0.8850097060203552,93.33334350585938,72147.0,1.0
15:33:00.176607,166092.25,192505.921875,182129.890625,211461.640625,197229.65625,193895.40625,690401.0,204091.203125,0.064697265625,1.0107421875,-0.02783203125,-1.1901854276657104,0.3967284858226776,0.9765624403953552,93.33334350585938,72148.0,1.0
15:33:00.179042,166194.265625,192525.421875,182147.59375,211475.9375,197244.671875,193900.859375,690469.9375,204094.328125,0.066650390625,1.009033203125,-0.028564453125,-1.2207030057907104,0.3662109076976776,1.0375975370407104,93.33334350585938,72149.0,1.0
15:33:00.182826,166204.625,192540.265625,182151.890625,211443.671875,197251.828125,193909.34375,690892.0,204089.765625,0.06591796875,1.009033203125,-0.02783203125,-1.2207030057907104,0.3051757514476776,1.1596678495407104,93.33334350585938,72150.0,1.0
15:33:00.195904,166120.765625,192525.6875,182142.40625,211451.890625,197240.828125,193908.015625,690873.75,204092.71875,0.066162109375,1.009033203125,-0.028076171875,-1.2207030057907104,0.3662109076976776,1.1596678495407104,93.33334350585938,72151.0,1.0
15:33:00.195920,166090.71875,192513.703125,182136.5,211465.9375,197229.203125,193903.625,690436.125,204091.46875,0.06640625,1.010986328125,-0.027099609375,-1.0986326932907104,0.2441406100988388,1.0986326932907104,93.33334350585938,72152.0,1.0
15:33:00.197915,166178.875,192527.921875,182148.671875,211471.46875,197237.25,193906.3125,690428.8125,204089.046875,0.0625,1.01416015625,-0.0263671875,-1.1901854276657104,0.2136230319738388,1.0375975370407104,93.33334350585938,72153.0,1.0
15:33:00.202199,166212.046875,192540.96875,182152.953125,211447.421875,197245.84375,193910.515625,690820.3125,204083.15625,0.061279296875,1.01318359375,-0.027099609375,-1.1901854276657104,0.2136230319738388,0.9460448622703552,93.33334350585938,72154.0,1.0
15:33:00.202212,166131.046875,192528.375,182144.109375,211437.40625,197238.15625,193909.625,690945.5625,204084.125,0.0615234375,1.013427734375,-0.0244140625,-1.2817381620407104,0.1831054538488388,0.7324218153953552,93.33334350585938,72155.0,1.0
15:33:00.216622,166085.359375,192508.796875,182135.078125,211466.203125,197224.296875,193901.578125,690481.875,204087.625,0.06103515625,1.013916015625,-0.02587890625,-1.3427733182907104,0.0915527269244194,0.6713866591453552,93.33334350585938,72156.0,1.0
15:33:00.219701,166157.515625,192518.625,182144.46875,211465.03125,197227.6875,193901.296875,690395.6875,204085.390625,0.0615234375,1.01513671875,-0.02587890625,-1.3427733182907104,0.1220703050494194,0.6103515028953552,93.33334350585938,72157.0,1.0
15:33:00.219724,166215.265625,192535.171875,182151.703125,211453.765625,197236.453125,193905.328125,690727.75,204082.609375,0.06201171875,1.013671875,-0.022705078125,-1.2512205839157104,0.0610351525247097,0.4577636420726776,93.33334350585938,72158.0,1.0
15:33:00.221626,166136.234375,192524.078125,182138.109375,211419.265625,197225.359375,193903.890625,690976.3125,204076.71875,0.06396484375,1.0146484375,-0.02294921875,-1.4953612089157104,-0.03051757626235485,0.5493163466453552,93.33334350585938,72159.0,1.0
15:33:00.224041,166076.234375,192504.859375,182128.28125,211455.828125,197211.421875,193896.296875,690542.0,204084.9375,0.0654296875,1.013916015625,-0.025146484375,-1.5258787870407104,-0.1220703050494194,0.4882812201976776,93.33334350585938,72160.0,1.0
15:33:00.227943,166130.0625,192511.03125,182133.203125,211454.3125,197213.296875,193895.046875,690372.0,204083.6875,0.064697265625,1.014404296875,-0.02783203125,-1.5869139432907104,-0.1525878757238388,0.4577636420726776,93.33334350585938,72161.0,1.0
15:33:00.257311,166205.171875,192522.46875,182139.015625,211454.75,197220.453125,193894.234375,690634.1875,204082.25,0.068359375,1.016357421875,-0.024169921875,-1.6479490995407104,-0.0915527269244194,0.4577636420726776,93.33334350585938,72162.0,1.0
15:33:00.257395,166141.328125,192515.9375,182125.6875,211411.921875,197209.890625,193892.984375,690982.1875,204074.65625,0.067626953125,1.016357421875,-0.025390625,-1.8005369901657104,-0.2136230319738388,0.5187987685203552,93.33334350585938,72163.0,1.0
15:33:00.259863,166069.453125,192492.875,182111.828125,211447.328125,197189.6875,193884.3125,690614.0625,204080.28125,0.069091796875,1.013916015625,-0.02490234375,-1.8920897245407104,-0.1220703050494194,0.5798339247703552,93.33334350585938,72164.0,1.0
15:33:00.259937,166105.296875,192498.59375,182117.90625,211443.40625,197188.625,193886.015625,690369.9375,204077.609375,0.06591796875,1.014404296875,-0.02685546875,-1.9226073026657104,-0.0610351525247097,0.5493163466453552,93.33334350585938,72165.0,1.0
15:33:00.262007,166195.78125,192515.578125,182128.640625,211451.890625,197198.1875,193888.96875,690578.0,204078.40625,0.066162109375,1.01416015625,-0.027587890625,-1.9531248807907104,-0.1220703050494194,0.6103515028953552,93.33334350585938,72166.0,1.0
15:33:00.264588,166151.078125,192517.015625,182119.78125,211401.015625,197195.40625,193892.546875,690979.0625,204069.296875,0.064453125,1.01220703125,-0.025634765625,-1.8920897245407104,0.0,0.7934569716453552,93.33334350585938,72167.0,1.0
15:33:00.266655,166067.75,192491.984375,182105.21875,211429.1875,197176.90625,193882.4375,690707.75,204072.234375,0.065185546875,1.012939453125,-0.02685546875,-1.9531248807907104,-0.03051757626235485,0.7019042372703552,93.33334350585938,72168.0,1.0
15:33:00.269839,166081.34375,192491.09375,182107.984375,211430.703125,197173.15625,193880.734375,690378.8125,204071.53125,0.0654296875,1.011474609375,-0.0263671875,-2.044677495956421,-0.0610351525247097,0.6408690810203552,93.33334350585938,72169.0,1.0
15:33:00.271596,166185.140625,192510.046875,182127.03125,211449.125,197188.53125,193885.390625,690508.375,204076.984375,0.064208984375,1.0126953125,-0.026611328125,-2.075195074081421,-0.1525878757238388,0.7324218153953552,93.33334350585938,72170.0,1.0
15:33:00.274605,166169.21875,192518.0,182127.125,211408.53125,197193.265625,193890.84375,690939.8125,204072.59375,0.064453125,1.01171875,-0.025390625,-2.136230230331421,-0.2441406100988388,0.7019042372703552,93.33334350585938,72171.0,1.0
15:33:00.276587,166084.734375,192498.421875,182116.21875,211430.890625,197179.859375,193885.125,690793.375,204077.609375,0.06494140625,1.012939453125,-0.021728515625,-2.044677495956421,-0.2746581733226776,0.7019042372703552,93.33334350585938,72172.0,1.0
15:33:00.279161,166080.0,192496.09375,182118.359375,211442.234375,197175.921875,193885.921875,690398.6875,204078.328125,0.063232421875,1.009521484375,-0.02294921875,-2.197265386581421,-0.2136230319738388,0.7934569716453552,93.33334350585938,72173.0,1.0
15:33:00.283629,166179.78125,192516.125,182135.96875,211455.46875,197188.265625,193891.375,690468.75,204081.1875,0.0634765625,1.011962890625,-0.021240234375,-2.105712652206421,-0.2746581733226776,0.7629393935203552,93.33334350585938,72174.0,1.0
15:33:00.283648,166190.765625,192529.625,182139.640625,211423.8125,197195.5,193898.078125,690880.0,204078.953125,0.061767578125,1.0126953125,-0.0224609375,-2.166747808456421,-0.3051757514476776,0.7324218153953552,93.33334350585938,72175.0,1.0
15:33:00.296052,166111.375,192518.53125,182133.28125,211434.375,197189.421875,193899.6875,690878.0,204085.296875,0.064453125,1.011474609375,-0.025390625,-2.258300542831421,-0.3051757514476776,0.7324218153953552,93.33334350585938,72176.0,1.0
15:33:00.296083,166089.828125,192513.171875,182136.15625,211459.046875,197185.765625,193900.765625,690441.0625,204092.09375,0.06396484375,1.01171875,-0.02099609375,-2.288818120956421,-0.2746581733226776,0.7324218153953552,93.33334350585938,72177.0,1.0
15:33:00.298762,166180.84375,192529.078125,182153.046875,211468.171875,197195.953125,193904.796875,690427.0,204091.90625,0.062744140625,1.01123046875,-0.0166015625,-2.288818120956421,-0.3356933295726776,0.7324218153953552,93.33334350585938,72178.0,1.0
15:33:00.298799,166215.53125,192540.265625,182155.453125,211443.3125,197200.15625,193906.3125,690803.875,204083.59375,0.06494140625,1.0087890625,-0.0185546875,-2.227782964706421,-0.3356933295726776,0.7019042372703552,93.33334350585938,72179.0,1.0
15:33:00.300363,166136.40625,192529.078125,182143.5625,211430.171875,197188.796875,193904.796875,690942.6875,204082.703125,0.0634765625,1.01171875,-0.01904296875,-2.197265386581421,-0.3051757514476776,0.7019042372703552,93.33334350585938,72180.0,1.0
15:33:00.306636,166095.546875,192516.296875,182139.09375,211464.328125,197178.25,193900.59375,690489.5625,204090.5625,0.0654296875,1.011962890625,-0.020751953125,-2.227782964706421,-0.3662109076976776,0.6713866591453552,93.33334350585938,72181.0,1.0
15:33:00.319070,166177.09375,192535.796875,182158.140625,211472.015625,197189.421875,193908.1875,690390.4375,204093.703125,0.06298828125,1.012939453125,-0.019775390625,-2.075195074081421,-0.5187987685203552,0.6408690810203552,93.33334350585938,72182.0,1.0
15:33:00.322210,166243.15625,192554.296875,182168.15625,211465.9375,197199.34375,193914.625,690713.125,204094.0625,0.065185546875,1.01123046875,-0.019287109375,-2.105712652206421,-0.4882812201976776,0.7019042372703552,93.33334350585938,72183.0,1.0
15:33:00.322229,166174.59375,192551.53125,182159.9375,211437.140625,197192.28125,193919.09375,690981.75,204092.8125,0.06640625,1.011962890625,-0.017578125,-2.136230230331421,-0.4577636420726776,0.6103515028953552,93.33334350585938,72184.0,1.0
15:33:00.326984,166123.09375,192540.0,182155.640625,211479.515625,197179.859375,193917.390625,690550.3125,204103.53125,0.06591796875,1.011474609375,-0.01953125,-2.136230230331421,-0.5493163466453552,0.6103515028953552,93.33334350585938,72185.0,1.0
15:33:00.329063,166183.078125,192552.78125,182169.140625,211477.203125,197183.34375,193919.984375,690384.6875,204101.03125,0.066162109375,1.010498046875,-0.02197265625,-2.197265386581421,-0.4577636420726776,0.6103515028953552,93.33334350585938,72186.0,1.0
15:33:00.332908,166269.890625,192571.1875,182183.625,211481.671875,197197.5625,193924.546875,690656.875,204104.15625,0.0673828125,1.0107421875,-0.021240234375,-2.075195074081421,-0.5187987685203552,0.5493163466453552,93.33334350585938,72187.0,1.0
15:33:00.337842,166217.0625,192572.625,182178.609375,211443.578125,197193.890625,193930.8125,691001.0,204101.125,0.0654296875,1.01171875,-0.0166015625,-2.075195074081421,-0.4577636420726776,0.5187987685203552,93.33334350585938,72188.0,1.0
15:33:00.350052,166150.8125,192553.9375,182171.109375,211487.03125,197179.59375,193926.515625,690641.5,204109.96875,0.066162109375,1.008544921875,-0.01708984375,-1.9836424589157104,-0.4882812201976776,0.5493163466453552,93.33334350585938,72189.0,1.0
15:33:00.350070,166185.40625,192559.125,182177.546875,211485.78125,197181.015625,193927.859375,690379.0625,204107.921875,0.06591796875,1.010009765625,-0.0185546875,-1.8310545682907104,-0.5187987685203552,0.4272460639476776,93.33334350585938,72190.0,1.0
15:33:00.352226,166280.984375,192576.296875,182191.40625,211497.21875,197191.03125,193928.84375,690562.125,204108.359375,0.067138671875,1.010009765625,-0.021728515625,-1.8920897245407104,-0.4882812201976776,0.3662109076976776,93.33334350585938,72191.0,1.0
15:33:00.352242,166240.84375,192577.984375,182183.625,211448.234375,197188.265625,193931.4375,690972.125,204100.671875,0.0673828125,1.010009765625,-0.020751953125,-1.8615721464157104,-0.3967284858226776,0.4272460639476776,93.33334350585938,72192.0,1.0
15:33:00.354146,166158.578125,192556.171875,182169.9375,211478.625,197172.078125,193924.453125,690718.125,204106.578125,0.06494140625,1.010986328125,-0.01806640625,-1.8920897245407104,-0.4272460639476776,0.3356933295726776,93.33334350585938,72193.0,1.0
15:33:00.365396,166168.953125,192555.734375,182174.765625,211484.890625,197171.28125,193924.28125,690384.0625,204107.28125,0.065185546875,1.010009765625,-0.016357421875,-1.8005369901657104,-0.3967284858226776,0.3051757514476776,93.33334350585938,72194.0,1.0
15:33:00.377220,166271.59375,192574.328125,182193.015625,211501.515625,197187.453125,193929.375,690509.4375,204112.03125,0.06591796875,1.010009765625,-0.021240234375,-1.9226073026657104,-0.3967284858226776,0.2746581733226776,93.33334350585938,72195.0,1.0
15:33:00.377238,166256.3125,192579.421875,182187.921875,211455.828125,197187.8125,193932.6875,690928.8125,204102.8125,0.067138671875,1.0107421875,-0.019775390625,-1.8310545682907104,-0.4577636420726776,0.2441406100988388,93.33334350585938,72196.0,1.0
15:33:00.384785,166168.59375,192556.265625,182172.8125,211473.984375,197171.90625,193925.796875,690803.3125,204108.09375,0.06640625,1.011474609375,-0.015869140625,-1.8310545682907104,-0.3356933295726776,0.2441406100988388,93.33334350585938,72197.0,1.0
15:33:00.384809,166157.328125,192548.9375,182171.375,211487.828125,197165.734375,193922.765625,690400.875,204111.40625,0.067626953125,1.01123046875,-0.01806640625,-1.6784666776657104,-0.4577636420726776,0.2136230319738388,93.33334350585938,72198.0,1.0
15:33:00.384812,166252.1875,192563.5,182184.078125,211498.828125,197173.59375,193923.65625,690442.625,204111.3125,0.066162109375,1.01171875,-0.019287109375,-1.6174315214157104,-0.4272460639476776,0.1831054538488388,93.33334350585938,72199.0,1.0
15:33:00.384815,166264.984375,192576.921875,182187.203125,211465.21875,197180.9375,193930.71875,690861.1875,204106.03125,0.065673828125,1.010986328125,-0.019775390625,-1.5258787870407104,-0.4272460639476776,0.0915527269244194,93.33334350585938,72200.0,1.0
15:33:00.387222,166176.734375,192557.6875,182172.453125,211463.0625,197166.625,193925.171875,690881.5625,204105.328125,0.065673828125,1.011962890625,-0.01953125,-1.6174315214157104,-0.3356933295726776,0.1831054538488388,93.33334350585938,72201.0,1.0
15:33:00.387247,166143.125,192542.671875,182165.5625,211482.5625,197154.28125,193919.1875,690439.25,204106.03125,0.06396484375,1.01220703125,-0.01904296875,-1.6174315214157104,-0.3662109076976776,0.1525878757238388,93.33334350585938,72202.0,1.0
15:33:00.398129,166228.40625,192555.734375,182178.265625,211488.375,197162.515625,193920.25,690421.1875,204105.859375,0.064697265625,1.01123046875,-0.01953125,-1.5563963651657104,-0.3356933295726776,0.2746581733226776,93.33334350585938,72203.0,1.0
15:33:00.400363,166258.546875,192561.1875,182174.6875,211460.125,197163.5,193917.75,690789.125,204098.171875,0.064697265625,1.012451171875,-0.01953125,-1.5563963651657104,-0.3967284858226776,0.2746581733226776,93.33334350585938,72204.0,1.0
15:33:00.404098,166168.59375,192540.703125,182153.140625,211436.78125,197144.90625,193910.421875,690941.25,204091.734375,0.064453125,1.014404296875,-0.01904296875,-1.4648436307907104,-0.4272460639476776,0.2441406100988388,93.33334350585938,72205.0,1.0
15:33:00.410987,166114.15625,192518.71875,182140.265625,211463.421875,197127.109375,193899.875,690486.8125,204093.4375,0.0634765625,1.01318359375,-0.016357421875,-1.5258787870407104,-0.3051757514476776,0.3051757514476776,93.33334350585938,72206.0,1.0
15:33:00.417163,166184.25,192531.046875,182151.4375,211461.1875,197132.734375,193901.390625,690393.8125,204091.28125,0.062744140625,1.013427734375,-0.019287109375,-1.5258787870407104,-0.3662109076976776,0.4272460639476776,93.33334350585938,72207.0,1.0
15:33:00.417177,166246.5625,192546.96875,182159.3125,211451.796875,197142.125,193903.71875,690712.6875,204088.78125,0.062255859375,1.01318359375,-0.019775390625,-1.5258787870407104,-0.4272460639476776,0.3051757514476776,93.33334350585938,72208.0,1.0
15:33:00.423425,166170.828125,192539.453125,182147.6875,211418.09375,197134.703125,193903.71875,690983.9375,204083.78125,0.064453125,1.012939453125,-0.0185546875,-1.4953612089157104,-0.4272460639476776,0.2746581733226776,93.33334350585938,72209.0,1.0
15:33:00.423444,166106.640625,192516.484375,182135.4375,211454.578125,197118.34375,193893.96875,690575.6875,204090.125,0.0625,1.010498046875,-0.01953125,-1.4648436307907104,-0.3356933295726776,0.3662109076976776,93.33334350585938,72210.0,1.0
15:33:00.432221,166157.59375,192524.171875,182144.828125,211451.625,197120.3125,193895.9375,690385.6875,204088.0625,0.061279296875,1.01123046875,-0.02099609375,-1.4648436307907104,-0.3662109076976776,0.5493163466453552,93.33334350585938,72211.0,1.0
15:33:00.432247,166236.546875,192537.21875,182153.21875,211452.703125,197130.234375,193896.46875,690630.5,204085.5625,0.061279296875,1.01123046875,-0.016845703125,-1.4343260526657104,-0.4272460639476776,0.4882812201976776,93.33334350585938,72212.0,1.0
15:33:00.437911,166175.21875,192530.875,182141.0625,211405.140625,197123.171875,193895.484375,690991.625,204075.734375,0.062255859375,1.010986328125,-0.01904296875,-1.4343260526657104,-0.4882812201976776,0.5187987685203552,93.33334350585938,72213.0,1.0
15:33:00.440293,166098.40625,192505.65625,182127.65625,211440.453125,197105.828125,193885.296875,690640.75,204080.28125,0.061279296875,1.01123046875,-0.02001953125,-1.4038084745407104,-0.4577636420726776,0.5493163466453552,93.33334350585938,72214.0,1.0
15:33:00.442914,166127.296875,192508.34375,182133.109375,211438.921875,197104.75,193885.390625,690370.0625,204077.609375,0.062744140625,1.010498046875,-0.018798828125,-1.4038084745407104,-0.3662109076976776,0.5798339247703552,93.33334350585938,72215.0,1.0
15:33:00.446735,166223.046875,192526.84375,182148.9375,211452.78125,197117.625,193889.59375,690549.875,204078.671875,0.064208984375,1.01171875,-0.02001953125,-1.4953612089157104,-0.3967284858226776,0.7019042372703552,93.33334350585938,72216.0,1.0
15:33:00.462785,166190.40625,192535.34375,182148.046875,211407.546875,197122.09375,193898.625,690968.6875,204073.765625,0.064697265625,1.012451171875,-0.020263671875,-1.4953612089157104,-0.3662109076976776,0.6408690810203552,93.33334350585938,72217.0,1.0
15:33:00.462821,166113.171875,192518.53125,182140.265625,211440.71875,197113.25,193896.921875,690729.5625,204084.21875,0.064208984375,1.011474609375,-0.02099609375,-1.4953612089157104,-0.4882812201976776,0.7019042372703552,93.33334350585938,72218.0,1.0
15:33:00.462828,166120.671875,192517.734375,182144.546875,211444.390625,197112.984375,193897.640625,690386.75,204086.453125,0.06640625,1.012451171875,-0.019775390625,-1.5258787870407104,-0.5187987685203552,0.7324218153953552,93.33334350585938,72219.0,1.0
15:33:00.462834,166217.328125,192532.921875,182157.703125,211454.75,197124.0625,193899.515625,690508.1875,204088.15625,0.068115234375,1.014404296875,-0.0205078125,-1.4953612089157104,-0.5493163466453552,0.7629393935203552,93.33334350585938,72220.0,1.0
15:33:00.464318,166204.71875,192539.90625,182153.84375,211409.15625,197128.359375,193905.5,690931.625,204082.078125,0.064208984375,1.0146484375,-0.021484375,-1.4648436307907104,-0.4882812201976776,0.8850097060203552,93.33334350585938,72221.0,1.0
15:33:00.479154,166117.375,192518.4375,182141.0625,211424.71875,197114.5,193899.0625,690821.625,204086.09375,0.064697265625,1.012939453125,-0.019287109375,-1.5563963651657104,-0.3967284858226776,0.7934569716453552,93.33334350585938,72222.0,1.0
15:33:00.482199,166101.984375,192507.890625,182137.40625,211436.609375,197104.9375,193893.078125,690407.125,204085.390625,0.0654296875,1.0126953125,-0.018310546875,-1.5563963651657104,-0.4577636420726776,0.8239745497703552,93.33334350585938,72223.0,1.0
15:33:00.482212,166197.65625,192522.203125,182151.890625,211448.765625,197111.546875,193893.4375,690445.5,204085.828125,0.067138671875,1.01171875,-0.018798828125,-1.5563963651657104,-0.5187987685203552,0.7934569716453552,93.33334350585938,72224.0,1.0
15:33:00.485103,166212.859375,192532.65625,182152.6875,211417.203125,197114.765625,193897.28125,690858.8125,204080.203125,0.06640625,1.01171875,-0.020751953125,-1.5258787870407104,-0.3967284858226776,0.7629393935203552,93.33334350585938,72225.0,1.0
15:33:00.486597,166124.515625,192514.59375,182136.421875,211414.703125,197098.859375,193891.296875,690897.3125,204079.390625,0.0654296875,1.011962890625,-0.021484375,-1.5563963651657104,-0.3967284858226776,0.7934569716453552,93.33334350585938,72226.0,1.0
15:33:00.496254,166090.28125,192502.4375,182131.953125,211440.0,197087.953125,193886.546875,690455.5,204082.515625,0.0654296875,1.011962890625,-0.023193359375,-1.5563963651657104,-0.3662109076976776,0.9155272841453552,93.33334350585938,72227.0,1.0
15:33:00.502264,166177.53125,192519.078125,182149.109375,211447.328125,197098.859375,193891.828125,690416.4375,204084.40625,0.067626953125,1.01171875,-0.019775390625,-1.5563963651657104,-0.4272460639476776,0.7629393935203552,93.33334350585938,72228.0,1.0
15:33:00.502344,166223.3125,192535.609375,182157.609375,211428.828125,197108.953125,193898.53125,690784.8125,204083.859375,0.0654296875,1.01171875,-0.01904296875,-1.5258787870407104,-0.3356933295726776,0.8544921278953552,93.33334350585938,72229.0,1.0
15:33:00.508500,166143.75,192523.984375,182146.78125,211409.15625,197100.015625,193897.375,690957.5625,204083.78125,0.068115234375,1.01123046875,-0.021240234375,-1.4953612089157104,-0.3051757514476776,0.7629393935203552,93.33334350585938,72230.0,1.0
15:33:00.508518,166094.390625,192505.65625,182138.03125,211441.515625,197086.875,193890.484375,690500.5,204090.125,0.06640625,1.00927734375,-0.0234375,-1.5258787870407104,-0.3662109076976776,0.8544921278953552,93.33334350585938,72231.0,1.0
15:33:00.521009,166160.109375,192513.4375,182146.515625,211438.921875,197090.0,193889.6875,690387.125,204086.640625,0.067626953125,1.01123046875,-0.02197265625,-1.4953612089157104,-0.2746581733226776,0.7629393935203552,93.33334350585938,72232.0,1.0
15:33:00.521026,166221.703125,192525.6875,182151.171875,211430.890625,197096.4375,193891.015625,690695.125,204081.625,0.067626953125,1.00927734375,-0.021728515625,-1.4648436307907104,-0.1831054538488388,0.8544921278953552,93.33334350585938,72233.0,1.0
15:33:00.523659,166149.640625,192518.53125,182139.453125,211395.484375,197086.15625,193890.3125,690986.125,204074.5625,0.068603515625,1.010498046875,-0.023193359375,-1.4648436307907104,-0.1525878757238388,0.8239745497703552,93.33334350585938,72234.0,1.0
15:33:00.523681,166084.5625,192496.890625,182127.296875,211431.953125,197069.0,193882.53125,690571.5,204079.578125,0.068115234375,1.01025390625,-0.0244140625,-1.4038084745407104,-0.0610351525247097,0.8544921278953552,93.33334350585938,72235.0,1.0
15:33:00.525351,166130.59375,192503.515625,182132.296875,211425.609375,197068.453125,193883.59375,690373.6875,204075.109375,0.066650390625,1.0107421875,-0.02197265625,-1.2817381620407104,-0.0610351525247097,0.7324218153953552,93.33334350585938,72236.0,1.0
15:33:00.535043,166213.03125,192518.625,182140.4375,211427.484375,197077.9375,193885.75,690614.3125,204072.0625,0.067138671875,1.0107421875,-0.022216796875,-1.2817381620407104,0.03051757626235485,0.7019042372703552,93.33334350585938,72237.0,1.0
15:33:00.551385,166150.8125,192513.171875,182126.671875,211377.15625,197070.328125,193885.390625,690988.8125,204060.078125,0.066650390625,1.01171875,-0.02001953125,-1.2512205839157104,0.0610351525247097,0.7629393935203552,93.33334350585938,72238.0,1.0
15:33:00.551414,166076.234375,192491.53125,182115.578125,211412.734375,197055.671875,193878.0625,690654.8125,204067.5,0.067138671875,1.0107421875,-0.022705078125,-1.2817381620407104,0.1220703050494194,0.6408690810203552,93.33334350585938,72239.0,1.0
15:33:00.551423,166110.75,192500.296875,182128.28125,211417.375,197062.109375,193883.78125,690381.125,204072.515625,0.06689453125,1.009765625,-0.01953125,-1.3122557401657104,0.1220703050494194,0.5798339247703552,93.33334350585938,72240.0,1.0
15:33:00.551428,166210.625,192521.3125,182145.625,211432.84375,197077.390625,193890.03125,690564.625,204076.265625,0.065673828125,1.0107421875,-0.020263671875,-1.1901854276657104,0.1220703050494194,0.5798339247703552,93.33334350585938,72241.0,1.0
15:33:00.557848,166178.703125,192528.90625,182141.875,211386.71875,197077.9375,193897.546875,690979.0,204069.828125,0.06640625,1.013671875,-0.022216796875,-1.1901854276657104,0.0915527269244194,0.4882812201976776,93.33334350585938,72242.0,1.0
15:33:00.560941,166095.015625,192507.53125,182128.546875,211417.03125,197061.75,193891.734375,690755.0625,204077.515625,0.064697265625,1.01318359375,-0.021484375,-1.2512205839157104,0.1220703050494194,0.3662109076976776,93.33334350585938,72243.0,1.0
15:33:00.560955,166094.84375,192498.953125,182125.15625,211416.9375,197050.84375,193886.015625,690397.5,204073.5,0.06640625,1.011474609375,-0.020751953125,-1.2207030057907104,0.1220703050494194,0.3356933295726776,93.33334350585938,72244.0,1.0
15:33:00.562840,166187.109375,192509.859375,182131.953125,211423.90625,197055.046875,193881.984375,690494.875,204070.0,0.0654296875,1.011474609375,-0.020263671875,-1.2207030057907104,0.1220703050494194,0.4577636420726776,93.33334350585938,72245.0,1.0
15:33:00.566589,166173.875,192514.0625,182125.953125,211377.421875,197053.078125,193883.15625,690924.0,204060.53125,0.06494140625,1.011474609375,-0.020751953125,-1.2817381620407104,0.0915527269244194,0.4577636420726776,93.33334350585938,72246.0,1.0
15:33:00.579701,166086.34375,192493.234375,182111.296875,211390.828125,197036.09375,193876.359375,690834.875,204061.609375,0.06591796875,1.010498046875,-0.021728515625,-1.2512205839157104,0.1525878757238388,0.4272460639476776,93.33334350585938,72247.0,1.0
15:33:00.579719,166071.5,192485.984375,182110.84375,211407.8125,197028.671875,193873.234375,690420.1875,204063.484375,0.062744140625,1.01025390625,-0.022216796875,-1.3122557401657104,0.1525878757238388,0.4272460639476776,93.33334350585938,72248.0,1.0
15:33:00.583238,166170.75,192504.40625,182129.265625,211420.78125,197042.078125,193876.359375,690459.625,204066.96875,0.063232421875,1.01025390625,-0.022216796875,-1.2512205839157104,0.1220703050494194,0.3662109076976776,93.33334350585938,72249.0,1.0
15:33:00.583252,166191.3125,192518.53125,182133.5625,211391.0,197050.3125,193883.25,690861.875,204064.1875,0.06396484375,1.011962890625,-0.02197265625,-1.2817381620407104,0.0915527269244194,0.3967284858226776,93.33334350585938,72250.0,1.0
15:33:00.584090,166106.546875,192503.328125,182121.671875,211389.671875,197039.21875,193881.546875,690914.0,204068.390625,0.066162109375,1.012451171875,-0.0224609375,-1.2817381620407104,0.03051757626235485,0.2746581733226776,93.33334350585938,72251.0,1.0
15:33:00.598924,166074.09375,192491.984375,182117.828125,211416.9375,197030.453125,193877.96875,690461.5,204075.109375,0.0634765625,1.013671875,-0.0224609375,-1.3732908964157104,-0.0915527269244194,0.3051757514476776,93.33334350585938,72252.0,1.0
15:33:00.604642,166158.765625,192508.34375,182134.1875,211422.125,197041.09375,193883.421875,690414.9375,204077.34375,0.065185546875,1.014892578125,-0.02490234375,-1.4648436307907104,-0.03051757626235485,0.4272460639476776,93.33334350585938,72253.0,1.0
15:33:00.604661,166207.84375,192527.125,182143.65625,211406.5625,197054.6875,193892.453125,690776.6875,204078.046875,0.06494140625,1.011962890625,-0.022216796875,-1.4953612089157104,0.03051757626235485,0.4272460639476776,93.33334350585938,72254.0,1.0
15:33:00.607227,166122.734375,192513.078125,182127.5625,211378.484375,197041.015625,193888.78125,690961.5625,204071.609375,0.06494140625,1.012939453125,-0.021484375,-1.5258787870407104,-0.0610351525247097,0.4577636420726776,93.33334350585938,72255.0,1.0
15:33:00.607238,166067.296875,192492.875,182116.296875,211408.0,197021.515625,193879.125,690510.9375,204072.59375,0.062744140625,1.01318359375,-0.02001953125,-1.4953612089157104,-0.1220703050494194,0.4577636420726776,93.33334350585938,72256.0,1.0
15:33:00.609212,166136.859375,192507.890625,182129.359375,211408.703125,197027.234375,193883.421875,690400.8125,204070.0,0.063232421875,1.01416015625,-0.01904296875,-1.4648436307907104,-0.1220703050494194,0.4577636420726776,93.33334350585938,72257.0,1.0
15:33:00.612861,166205.703125,192523.546875,182138.828125,211404.6875,197038.0625,193886.90625,690707.1875,204068.21875,0.0615234375,1.014892578125,-0.019775390625,-1.4648436307907104,-0.1220703050494194,0.4882812201976776,93.33334350585938,72258.0,1.0
15:33:00.625333,166136.59375,192517.90625,182128.375,211369.90625,197031.984375,193889.859375,691001.875,204064.828125,0.063232421875,1.0146484375,-0.01904296875,-1.4953612089157104,-0.1525878757238388,0.5187987685203552,93.33334350585938,72259.0,1.0
15:33:00.631040,166074.984375,192500.828125,182120.5,211412.015625,197019.90625,193886.734375,690590.5,204074.921875,0.063232421875,1.013916015625,-0.018798828125,-1.5258787870407104,-0.1831054538488388,0.4882812201976776,93.33334350585938,72260.0,1.0
15:33:00.631101,166124.96875,192511.203125,182133.734375,211414.34375,197027.953125,193892.09375,690382.5,204075.28125,0.0625,1.013916015625,-0.021240234375,-1.4953612089157104,-0.2136230319738388,0.4272460639476776,93.33334350585938,72261.0,1.0
15:33:00.631110,166216.515625,192529.4375,182149.734375,211424.890625,197043.0625,193896.03125,690613.6875,204078.859375,0.064453125,1.0107421875,-0.0234375,-1.4953612089157104,-0.3051757514476776,0.6103515028953552,93.33334350585938,72262.0,1.0
15:33:00.632927,166162.515625,192525.953125,182140.625,211376.796875,197037.703125,193896.125,690992.125,204071.890625,0.06640625,1.011962890625,-0.025390625,-1.5258787870407104,-0.2136230319738388,0.4577636420726776,93.33334350585938,72263.0,1.0
15:33:00.639105,166083.390625,192500.5625,182124.609375,211411.65625,197018.828125,193884.3125,690665.4375,204078.234375,0.064208984375,1.01220703125,-0.0244140625,-1.4343260526657104,-0.3662109076976776,0.4882812201976776,93.33334350585938,72264.0,1.0
15:33:00.653632,166106.734375,192502.53125,182128.546875,211410.765625,197015.890625,193884.140625,690382.0,204076.265625,0.0634765625,1.01171875,-0.0244140625,-1.5563963651657104,-0.3356933295726776,0.4272460639476776,93.33334350585938,72265.0,1.0
