Timestamp,Fz,FC3,FCz,FC4,Cz,C3,C4
15:31:52.990913,167238.359375,194504.265625,183747.796875,220442.296875,201427.140625,196682.125,691149.0625,206202.265625,0.0400390625,1.010498046875,-0.02099609375,-2.105712652206421,0.03051757626235485,0.5493163466453552,93.33334350585938,55323.0,1.0
15:31:52.997460,167194.28125,194489.953125,183739.484375,220440.6875,201412.828125,196676.5,690413.75,206198.703125,0.040283203125,1.012451171875,-0.0185546875,-2.044677495956421,0.0915527269244194,0.7019042372703552,93.33334350585938,55324.0,1.0
15:31:52.997470,167313.90625,194505.15625,183756.296875,220463.9375,201426.0625,196675.25,690422.6875,206204.0625,0.04248046875,1.01220703125,-0.020751953125,-2.044677495956421,0.0,0.6408690810203552,93.33334350585938,55325.0,1.0
15:31:52.997472,167364.6875,194519.109375,183760.046875,220449.8125,201437.859375,196676.140625,691083.875,206205.40625,0.0419921875,1.010986328125,-0.018798828125,-2.044677495956421,0.0,0.5493163466453552,93.33334350585938,55326.0,1.0
15:31:53.001435,167252.390625,194501.21875,183742.875,220429.96875,201425.53125,196671.578125,691257.5625,206204.328125,0.040771484375,1.0126953125,-0.023193359375,-2.166747808456421,0.03051757626235485,0.6103515028953552,93.33334350585938,55327.0,1.0
15:31:53.001443,167192.21875,194490.234375,183742.171875,220443.28125,201418.46875,196672.203125,690503.8125,206211.484375,0.042724609375,1.013427734375,-0.026123046875,-2.136230230331421,-0.03051757626235485,0.6408690810203552,93.33334350585938,55328.0,1.0
15:31:53.001444,167295.03125,194505.78125,183759.6875,220457.328125,201428.203125,196673.359375,690367.0,206211.75,0.044189453125,1.013916015625,-0.0224609375,-2.197265386581421,-0.1525878757238388,0.6103515028953552,93.33334350585938,55329.0,1.0
15:31:53.001446,167371.921875,194517.578125,183763.625,220457.40625,201436.609375,196672.734375,690954.4375,206205.046875,0.0419921875,1.015380859375,-0.0205078125,-2.288818120956421,0.0,0.6103515028953552,93.33334350585938,55330.0,1.0
15:31:53.003405,167272.78125,194504.796875,183744.40625,220421.828125,201424.546875,196672.390625,691331.8125,206198.078125,0.04248046875,1.0146484375,-0.020263671875,-2.227782964706421,-0.0610351525247097,0.5798339247703552,93.33334350585938,55331.0,1.0
15:31:53.006440,167181.484375,194482.984375,183728.9375,220432.015625,201405.234375,196667.375,690616.1875,206198.78125,0.04248046875,1.01416015625,-0.01806640625,-2.319335699081421,0.0,0.6103515028953552,93.33334350585938,55332.0,1.0
15:31:53.006452,167259.1875,194493.796875,183743.234375,220435.5,201411.9375,196669.34375,690329.75,206197.09375,0.0419921875,1.014404296875,-0.021484375,-2.319335699081421,-0.0610351525247097,0.5493163466453552,93.33334350585938,55333.0,1.0
15:31:53.008392,167365.21875,194510.875,183755.40625,220453.125,201428.484375,196671.578125,690818.625,206200.03125,0.0419921875,1.015380859375,-0.01953125,-2.258300542831421,-0.0915527269244194,0.5187987685203552,93.33334350585938,55334.0,1.0
15:31:53.010855,167285.015625,194501.84375,183738.765625,220407.796875,201419.796875,196670.140625,691357.625,206190.203125,0.0419921875,1.0146484375,-0.01904296875,-2.319335699081421,-0.0610351525247097,0.5187987685203552,93.33334350585938,55335.0,1.0
15:31:53.028577,167179.171875,194478.875,183725.71875,220427.015625,201405.234375,196667.203125,690742.5,206196.375,0.042724609375,1.014892578125,-0.01806640625,-2.349853277206421,0.0,0.4272460639476776,93.33334350585938,55336.0,1.0
15:31:53.028598,167232.09375,194487.359375,183740.5625,220427.453125,201413.359375,196670.859375,690314.6875,206196.28125,0.03955078125,1.0146484375,-0.021728515625,-2.258300542831421,0.0,0.3662109076976776,93.33334350585938,55337.0,1.0
15:31:53.028601,167357.4375,194507.03125,183757.984375,220458.75,201431.34375,196671.578125,690682.625,206203.25,0.041259765625,1.014892578125,-0.0224609375,-2.258300542831421,-0.0610351525247097,0.3662109076976776,93.33334350585938,55338.0,1.0
15:31:53.028604,167306.65625,194505.6875,183743.953125,220409.3125,201426.953125,196673.09375,691341.125,206192.34375,0.0419921875,1.014404296875,-0.0185546875,-2.227782964706421,-0.0610351525247097,0.3967284858226776,93.33334350585938,55339.0,1.0
15:31:53.028607,167192.21875,194485.125,183730.984375,220422.71875,201410.953125,196672.296875,690885.125,206193.875,0.04296875,1.01513671875,-0.016357421875,-2.380370855331421,0.0,0.3356933295726776,93.33334350585938,55340.0,1.0
15:31:53.028610,167218.765625,194494.15625,183744.765625,220422.625,201414.96875,196677.5625,690326.9375,206193.15625,0.04248046875,1.01123046875,-0.018310546875,-2.410888433456421,-0.0610351525247097,0.3967284858226776,93.33334350585938,55341.0,1.0
15:31:53.028612,167358.609375,194522.140625,183770.6875,220462.0625,201437.328125,196683.203125,690579.0,206198.78125,0.04248046875,1.012451171875,-0.018798828125,-2.319335699081421,0.0,0.3356933295726776,93.33334350585938,55342.0,1.0
15:31:53.031566,167347.078125,194530.28125,183768.546875,220429.0625,201444.125,196688.75,691277.0625,206193.6875,0.04296875,1.01220703125,-0.01806640625,-2.319335699081421,0.0,0.3051757514476776,93.33334350585938,55343.0,1.0
15:31:53.031616,167228.609375,194509.53125,183754.234375,220434.96875,201432.859375,196689.8125,691014.125,206196.546875,0.0419921875,1.013427734375,-0.018798828125,-2.410888433456421,0.0610351525247097,0.4272460639476776,93.33334350585938,55344.0,1.0
15:31:53.033808,167220.109375,194508.46875,183760.046875,220438.546875,201433.75,196692.953125,690348.75,206198.34375,0.0419921875,1.011962890625,-0.01806640625,-2.441406011581421,-0.03051757626235485,0.3662109076976776,93.33334350585938,55345.0,1.0
15:31:53.035903,167342.78125,194517.9375,183769.875,220463.140625,201440.1875,196684.71875,690483.5,206198.515625,0.04052734375,1.010009765625,-0.017578125,-2.349853277206421,-0.03051757626235485,0.3967284858226776,93.33334350585938,55346.0,1.0
15:31:53.038397,167354.046875,194520.796875,183759.6875,220432.015625,201438.9375,196681.765625,691185.8125,206191.1875,0.041259765625,1.01220703125,-0.019775390625,-2.349853277206421,-0.03051757626235485,0.3051757514476776,93.33334350585938,55347.0,1.0
15:31:53.046572,167226.375,194495.140625,183734.484375,220416.109375,201416.3125,196673.8125,691147.5625,206190.375,0.042724609375,1.010498046875,-0.02197265625,-2.441406011581421,0.03051757626235485,0.3051757514476776,93.33334350585938,55348.0,1.0
15:31:53.046583,167181.765625,194481.734375,183728.046875,220414.3125,201402.28125,196669.515625,690412.0625,206191.546875,0.041748046875,1.010009765625,-0.01904296875,-2.410888433456421,0.03051757626235485,0.3051757514476776,93.33334350585938,55349.0,1.0
15:31:53.054137,167302.640625,194500.328125,183747.796875,220437.46875,201414.625,196669.796875,690412.0,206195.484375,0.041748046875,1.010009765625,-0.022216796875,-2.349853277206421,-0.0610351525247097,0.3356933295726776,93.33334350585938,55350.0,1.0
15:31:53.054165,167354.9375,194515.96875,183751.375,220427.375,201424.625,196671.9375,691075.3125,206193.59375,0.042724609375,1.00830078125,-0.018798828125,-2.319335699081421,-0.0915527269244194,0.3662109076976776,93.33334350585938,55351.0,1.0
15:31:53.056672,167242.828125,194499.875,183732.78125,220403.953125,201411.40625,196669.34375,691261.375,206191.453125,0.04345703125,1.00927734375,-0.01708984375,-2.105712652206421,-0.2136230319738388,0.5187987685203552,93.33334350585938,55352.0,1.0
15:31:53.056721,167175.234375,194483.34375,183725.53125,220411.28125,201397.453125,196665.5,690506.0625,206191.28125,0.040283203125,1.0087890625,-0.01806640625,-2.044677495956421,-0.0915527269244194,0.3967284858226776,93.33334350585938,55353.0,1.0
15:31:53.075284,167279.296875,194497.46875,183742.875,220426.828125,201407.203125,196667.640625,690358.625,206192.265625,0.039306640625,1.0107421875,-0.018310546875,-2.014159917831421,-0.1220703050494194,0.4272460639476776,93.33334350585938,55354.0,1.0
15:31:53.075351,167360.578125,194510.171875,183749.3125,220433.890625,201418.828125,196667.109375,690941.8125,206192.34375,0.03857421875,1.01123046875,-0.016845703125,-2.014159917831421,-0.0915527269244194,0.4577636420726776,93.33334350585938,55355.0,1.0
15:31:53.077927,167261.328125,194494.875,183730.1875,220398.140625,201408.984375,196665.046875,691323.3125,206186.265625,0.03955078125,1.012939453125,-0.01806640625,-1.8005369901657104,-0.1831054538488388,0.3967284858226776,93.33334350585938,55356.0,1.0
15:31:53.077954,167171.296875,194474.84375,183720.265625,220406.8125,201395.84375,196663.4375,690615.625,206187.078125,0.04150390625,1.01318359375,-0.021240234375,-1.7395018339157104,-0.2441406100988388,0.5493163466453552,93.33334350585938,55357.0,1.0
15:31:53.079700,167251.765625,194488.703125,183737.703125,220415.296875,201406.65625,196667.5625,690324.625,206188.0625,0.043701171875,1.01318359375,-0.01904296875,-1.7700194120407104,-0.1831054538488388,0.5798339247703552,93.33334350585938,55358.0,1.0
15:31:53.083414,167357.53125,194505.875,183748.6875,220434.796875,201420.4375,196667.46875,690805.1875,206191.90625,0.043701171875,1.0126953125,-0.020263671875,-1.7700194120407104,-0.1831054538488388,0.6408690810203552,93.33334350585938,55359.0,1.0
15:31:53.094861,167279.296875,194498.1875,183732.15625,220387.9375,201411.671875,196668.0,691354.9375,206184.75,0.044921875,1.012939453125,-0.01953125,-1.7395018339157104,-0.1220703050494194,0.7019042372703552,93.33334350585938,55360.0,1.0
15:31:53.094936,167170.9375,194472.796875,183716.234375,220400.640625,201391.546875,196661.921875,690741.1875,206184.390625,0.043701171875,1.01220703125,-0.01708984375,-1.7395018339157104,-0.0610351525247097,0.7019042372703552,93.33334350585938,55361.0,1.0
15:31:53.099166,167222.703125,194481.828125,183729.46875,220402.34375,201397.625,196664.609375,690310.25,206186.1875,0.04345703125,1.009033203125,-0.020263671875,-1.7395018339157104,-0.0610351525247097,0.6713866591453552,93.33334350585938,55362.0,1.0
15:31:53.099242,167346.984375,194501.3125,183745.46875,220426.828125,201411.9375,196665.40625,690684.9375,206184.84375,0.04541015625,1.008056640625,-0.02099609375,-1.7395018339157104,-0.03051757626235485,0.7019042372703552,93.33334350585938,55363.0,1.0
15:31:53.101125,167301.296875,194500.328125,183735.453125,220384.90625,201413.015625,196667.375,691336.625,206179.296875,0.043701171875,1.008056640625,-0.02197265625,-1.7700194120407104,0.1220703050494194,0.6713866591453552,93.33334350585938,55364.0,1.0
15:31:53.108755,167179.796875,194473.234375,183715.796875,220393.3125,201393.703125,196659.59375,690886.5625,206179.5625,0.042724609375,1.010009765625,-0.020263671875,-1.7395018339157104,0.1220703050494194,0.7629393935203552,93.33334350585938,55365.0,1.0
15:31:53.116477,167199.640625,194476.8125,183724.546875,220389.90625,201392.984375,196660.671875,690327.6875,206177.15625,0.04296875,1.013427734375,-0.02197265625,-1.6174315214157104,0.0915527269244194,0.7934569716453552,93.33334350585938,55366.0,1.0
15:31:53.116489,167334.90625,194497.921875,183745.921875,220426.125,201410.0625,196662.1875,690579.625,206180.453125,0.044677734375,1.012451171875,-0.0205078125,-1.5563963651657104,0.0610351525247097,0.8850097060203552,93.33334350585938,55367.0,1.0
15:31:53.123041,167323.109375,194504.0,183742.171875,220389.015625,201414.4375,196663.078125,691284.75,206171.703125,0.044189453125,1.011962890625,-0.02197265625,-1.5869139432907104,0.0915527269244194,0.8850097060203552,93.33334350585938,55368.0,1.0
15:31:53.123057,167202.765625,194481.46875,183727.6875,220395.0,201402.28125,196657.8125,691032.9375,206176.875,0.04150390625,1.012939453125,-0.019775390625,-1.4953612089157104,0.1220703050494194,0.8850097060203552,93.33334350585938,55369.0,1.0
15:31:53.124705,167198.5625,194483.34375,183739.3125,220405.734375,201405.953125,196660.40625,690362.375,206188.765625,0.044677734375,1.013427734375,-0.02294921875,-1.4648436307907104,0.2746581733226776,0.9155272841453552,93.33334350585938,55370.0,1.0
15:31:53.138792,167328.5625,194501.046875,183758.625,220434.609375,201419.890625,196657.546875,690465.4375,206191.1875,0.044189453125,1.01513671875,-0.02099609375,-1.3427733182907104,0.2746581733226776,0.8544921278953552,93.33334350585938,55371.0,1.0
15:31:53.141515,167345.734375,194510.25,183753.703125,220402.609375,201423.296875,196658.171875,691177.5,206181.703125,0.043212890625,1.013916015625,-0.023193359375,-1.4648436307907104,0.3967284858226776,0.7324218153953552,93.33334350585938,55372.0,1.0
15:31:53.141567,167222.4375,194488.171875,183730.8125,220391.25,201404.6875,196654.328125,691153.4375,206180.375,0.042724609375,1.013427734375,-0.023193359375,-1.4038084745407104,0.3967284858226776,0.6713866591453552,93.33334350585938,55373.0,1.0
15:31:53.141592,167177.734375,194475.921875,183723.65625,220390.171875,201392.453125,196654.59375,690416.875,206179.390625,0.040771484375,1.014892578125,-0.021484375,-1.4953612089157104,0.4272460639476776,0.5798339247703552,93.33334350585938,55374.0,1.0
15:31:53.151079,167295.65625,194493.265625,183739.03125,220410.46875,201403.0,196658.34375,690407.75,206180.640625,0.0400390625,1.01513671875,-0.01953125,-1.4038084745407104,0.3051757514476776,0.3967284858226776,93.33334350585938,55375.0,1.0
15:31:53.157843,167345.8125,194505.15625,183738.40625,220399.65625,201408.53125,196662.015625,691066.1875,206177.78125,0.03955078125,1.015869140625,-0.016845703125,-1.4953612089157104,0.3051757514476776,0.2441406100988388,93.33334350585938,55376.0,1.0
15:31:53.157912,167228.078125,194483.078125,183714.0,220371.84375,201389.046875,196657.90625,691259.125,206172.234375,0.037353515625,1.011962890625,-0.015869140625,-1.5869139432907104,0.3051757514476776,0.1220703050494194,93.33334350585938,55377.0,1.0
15:31:53.159799,167154.046875,194462.421875,183700.765625,220374.265625,201371.609375,196651.375,690506.75,206171.515625,0.037841796875,1.0146484375,-0.0166015625,-1.5563963651657104,0.2746581733226776,0.0915527269244194,93.33334350585938,55378.0,1.0
15:31:53.163588,167257.125,194477.078125,183718.65625,220392.140625,201383.140625,196652.4375,690354.5,206176.609375,0.0390625,1.014892578125,-0.016357421875,-1.6174315214157104,0.1220703050494194,-0.0610351525247097,93.33334350585938,55379.0,1.0
15:31:53.170290,167339.65625,194490.5,183724.46875,220393.21875,201394.5,196652.71875,690934.5,206173.75,0.038818359375,1.01318359375,-0.0185546875,-1.6784666776657104,0.1220703050494194,-0.1525878757238388,93.33334350585938,55380.0,1.0
15:31:53.170320,167241.75,194478.328125,183705.859375,220356.296875,201384.125,196652.09375,691331.375,206168.125,0.0419921875,1.01416015625,-0.018798828125,-1.6784666776657104,-0.03051757626235485,-0.1831054538488388,93.33334350585938,55381.0,1.0
15:31:53.176127,167153.421875,194459.375,183697.015625,220375.515625,201371.4375,196650.484375,690617.375,206177.421875,0.039306640625,1.01416015625,-0.020263671875,-1.7395018339157104,-0.0610351525247097,-0.2441406100988388,93.33334350585938,55382.0,1.0
15:31:53.186733,167236.921875,194476.546875,183718.828125,220386.953125,201384.40625,196656.734375,690327.3125,206183.5,0.04248046875,1.01513671875,-0.02099609375,-1.8615721464157104,-0.03051757626235485,-0.3356933295726776,93.33334350585938,55383.0,1.0
15:31:53.186822,167348.0625,194497.921875,183732.59375,220405.015625,201398.703125,196657.984375,690810.625,206182.421875,0.043212890625,1.012939453125,-0.020751953125,-1.8310545682907104,-0.0915527269244194,-0.2136230319738388,93.33334350585938,55384.0,1.0
15:31:53.188501,167272.953125,194491.5625,183716.953125,220361.390625,201391.8125,196656.46875,691357.25,206174.203125,0.04248046875,1.012939453125,-0.02294921875,-1.8005369901657104,0.0,-0.2136230319738388,93.33334350585938,55385.0,1.0
15:31:53.192325,167165.9375,194468.328125,183703.1875,220374.265625,201376.078125,196652.53125,690756.3125,206174.109375,0.04345703125,1.0126953125,-0.019287109375,-1.8310545682907104,0.03051757626235485,-0.1831054538488388,93.33334350585938,55386.0,1.0
15:31:53.215176,167219.671875,194479.40625,183719.1875,220377.125,201383.6875,196657.984375,690323.1875,206174.5625,0.0439453125,1.01220703125,-0.019775390625,-1.7700194120407104,0.0610351525247097,-0.1525878757238388,93.33334350585938,55387.0,1.0
15:31:53.215225,167350.46875,194501.9375,183739.9375,220412.171875,201403.171875,196659.328125,690688.5,206179.109375,0.044189453125,1.012939453125,-0.02001953125,-1.7395018339157104,0.0915527269244194,0.03051757626235485,93.33334350585938,55388.0,1.0
15:31:53.215239,167306.21875,194501.9375,183731.890625,220369.53125,201404.0625,196660.84375,691340.9375,206172.328125,0.043701171875,1.01220703125,-0.0185546875,-1.7089842557907104,0.1525878757238388,0.0,93.33334350585938,55389.0,1.0
15:31:53.215250,167189.09375,194479.046875,183718.828125,220381.78125,201391.015625,196656.5625,690898.0625,206177.234375,0.041259765625,1.01318359375,-0.017822265625,-1.8005369901657104,0.1831054538488388,0.1831054538488388,93.33334350585938,55390.0,1.0
15:31:53.218987,167209.296875,194482.453125,183729.65625,220383.5625,201395.75,196658.609375,690323.1875,206181.4375,0.04150390625,1.01318359375,-0.01904296875,-1.7395018339157104,0.1525878757238388,0.2136230319738388,93.33334350585938,55391.0,1.0
15:31:53.221509,167341.890625,194501.40625,183748.15625,220417.796875,201414.078125,196657.984375,690560.5625,206190.296875,0.0400390625,1.01220703125,-0.018798828125,-1.8005369901657104,0.1831054538488388,0.2441406100988388,93.33334350585938,55392.0,1.0
15:31:53.221538,167325.875,194506.40625,183740.5625,220375.421875,201414.53125,196655.84375,691273.75,206182.328125,0.038818359375,1.01220703125,-0.018798828125,-1.8615721464157104,0.2441406100988388,0.3051757514476776,93.33334350585938,55393.0,1.0
15:31:53.223551,167204.375,194482.359375,183723.296875,220379.8125,201397.625,196649.140625,691038.4375,206189.84375,0.038330078125,1.01416015625,-0.015380859375,-1.8615721464157104,0.2136230319738388,0.3051757514476776,93.33334350585938,55394.0,1.0
15:31:53.229608,167191.140625,194479.234375,183727.765625,220378.640625,201396.296875,196651.546875,690365.5625,206191.09375,0.037841796875,1.013427734375,-0.015380859375,-1.8615721464157104,0.1220703050494194,0.3051757514476776,93.33334350585938,55395.0,1.0
15:31:53.237821,167322.84375,194499.875,183749.59375,220408.421875,201413.71875,196656.296875,690464.125,206195.03125,0.038330078125,1.013916015625,-0.01611328125,-1.9531248807907104,-0.03051757626235485,0.4272460639476776,93.33334350585938,55396.0,1.0
15:31:53.237832,167343.3125,194511.234375,183747.078125,220381.328125,201419.984375,196660.578125,691173.5625,206188.953125,0.03662109375,1.012939453125,-0.019287109375,-1.9531248807907104,-0.0610351525247097,0.4272460639476776,93.33334350585938,55397.0,1.0
15:31:53.241553,167223.0625,194489.78125,183727.6875,220369.703125,201403.625,196659.515625,691164.1875,206186.1875,0.03759765625,1.013671875,-0.016357421875,-1.9531248807907104,0.0,0.3967284858226776,93.33334350585938,55398.0,1.0
15:31:53.241569,167182.5625,194481.90625,183728.9375,220375.25,201397.984375,196663.984375,690426.8125,206188.5,0.037109375,1.013427734375,-0.0166015625,-1.9531248807907104,-0.0610351525247097,0.3967284858226776,93.33334350585938,55399.0,1.0
15:31:53.247219,167301.109375,194498.0,183746.375,220395.0,201409.34375,196666.484375,690403.6875,206186.8125,0.03759765625,1.01416015625,-0.0166015625,-1.8920897245407104,-0.03051757626235485,0.3356933295726776,93.33334350585938,55400.0,1.0
15:31:53.257815,167351.359375,194508.640625,183746.90625,220383.5625,201414.078125,196667.28125,691061.6875,206181.890625,0.037841796875,1.012451171875,-0.01708984375,-1.9531248807907104,-0.1220703050494194,0.4577636420726776,93.33334350585938,55401.0,1.0
15:31:53.257827,167237.1875,194488.796875,183725.8125,220355.75,201396.921875,196662.640625,691269.375,206175.984375,0.03857421875,1.013916015625,-0.017578125,-1.9836424589157104,-0.1525878757238388,0.3662109076976776,93.33334350585938,55402.0,1.0
15:31:53.260338,167167.0,194471.625,183716.328125,220364.78125,201383.234375,196658.703125,690508.5625,206178.3125,0.0390625,1.013427734375,-0.0185546875,-2.105712652206421,-0.1525878757238388,0.3967284858226776,93.33334350585938,55403.0,1.0
15:31:53.260347,167264.8125,194485.75,183730.984375,220375.515625,201392.453125,196658.96875,690337.9375,206178.140625,0.0390625,1.01171875,-0.019775390625,-1.9836424589157104,-0.2441406100988388,0.3662109076976776,93.33334350585938,55404.0,1.0
15:31:53.269710,167354.5,194507.21875,183744.046875,220387.765625,201410.0625,196664.15625,690918.5,206183.140625,0.039306640625,1.01220703125,-0.016845703125,-1.9836424589157104,-0.2441406100988388,0.3051757514476776,93.33334350585938,55405.0,1.0
15:31:53.272229,167267.59375,194504.796875,183736.171875,220359.953125,201407.46875,196671.40625,691332.0625,206184.296875,0.039794921875,1.012939453125,-0.019287109375,-1.8920897245407104,-0.3051757514476776,0.3356933295726776,93.33334350585938,55406.0,1.0
15:31:53.276156,167179.796875,194488.625,183728.578125,220373.09375,201395.3125,196671.21875,690623.5,206183.5,0.039794921875,1.01220703125,-0.019287109375,-1.8920897245407104,-0.2441406100988388,0.3051757514476776,93.33334350585938,55407.0,1.0
15:31:53.286505,167256.140625,194501.140625,183745.828125,220380.515625,201403.796875,196674.265625,690321.875,206186.0,0.03955078125,1.013916015625,-0.021728515625,-1.8920897245407104,-0.3051757514476776,0.3356933295726776,93.33334350585938,55408.0,1.0
15:31:53.286512,167367.640625,194520.984375,183761.5625,220405.015625,201421.765625,196675.78125,690800.375,206191.1875,0.037841796875,1.010498046875,-0.021240234375,-1.8005369901657104,-0.3356933295726776,0.3356933295726776,93.33334350585938,55409.0,1.0
15:31:53.289060,167298.4375,194517.40625,183748.875,220361.296875,201417.75,196677.75,691360.875,206180.90625,0.041015625,1.011474609375,-0.01806640625,-1.8920897245407104,-0.3356933295726776,0.3662109076976776,93.33334350585938,55410.0,1.0
15:31:53.289071,167192.671875,194493.09375,183734.203125,220377.75,201399.59375,196671.578125,690758.5,206182.6875,0.04296875,1.010498046875,-0.017578125,-1.9226073026657104,-0.1525878757238388,0.5187987685203552,93.33334350585938,55411.0,1.0
15:31:53.298579,167242.46875,194503.015625,183748.6875,220381.328125,201405.40625,196675.15625,690308.0,206185.375,0.042236328125,1.01123046875,-0.01953125,-1.8005369901657104,-0.0915527269244194,0.5187987685203552,93.33334350585938,55412.0,1.0
15:31:53.302714,167367.640625,194523.046875,183765.046875,220405.734375,201420.4375,196675.515625,690659.625,206186.890625,0.0419921875,1.010986328125,-0.021240234375,-1.7089842557907104,-0.0915527269244194,0.4882812201976776,93.33334350585938,55413.0,1.0
15:31:53.302724,167321.765625,194521.78125,183752.265625,220361.03125,201417.75,196674.890625,691323.9375,206179.390625,0.0458984375,1.011474609375,-0.01953125,-1.7395018339157104,-0.1220703050494194,0.5493163466453552,93.33334350585938,55414.0,1.0
15:31:53.309637,167201.609375,194493.359375,183733.671875,220370.234375,201399.78125,196666.75,690889.25,206183.5,0.04296875,1.013427734375,-0.02099609375,-1.8005369901657104,-0.03051757626235485,0.4272460639476776,93.33334350585938,55415.0,1.0
15:31:53.355327,167215.109375,194492.734375,183738.59375,220365.59375,201398.4375,196665.5,690315.875,206186.453125,0.04296875,1.013671875,-0.01806640625,-1.8005369901657104,0.0,0.4882812201976776,93.33334350585938,55416.0,1.0
15:31:53.355341,167343.140625,194507.296875,183752.8125,220397.515625,201411.125,196659.0625,690555.5625,206194.859375,0.04296875,1.011962890625,-0.0185546875,-1.6784666776657104,0.03051757626235485,0.5798339247703552,93.33334350585938,55417.0,1.0
15:31:53.357243,167329.09375,194509.453125,183744.84375,220359.15625,201413.359375,196655.9375,691257.5,206186.890625,0.04345703125,1.01416015625,-0.018798828125,-1.6784666776657104,0.0915527269244194,0.6713866591453552,93.33334350585938,55418.0,1.0
15:31:53.359693,167206.078125,194485.75,183726.34375,220359.6875,201396.015625,196651.375,691031.8125,206187.796875,0.04345703125,1.011962890625,-0.0205078125,-1.6784666776657104,0.1220703050494194,0.6713866591453552,93.33334350585938,55419.0,1.0
15:31:53.362204,167190.703125,194481.28125,183727.6875,220358.078125,201391.90625,196653.78125,690356.8125,206186.625,0.041015625,1.01123046875,-0.019287109375,-1.7700194120407104,0.1831054538488388,0.6103515028953552,93.33334350585938,55420.0,1.0
15:31:53.365054,167321.6875,194500.421875,183747.359375,220385.4375,201408.71875,196657.359375,690463.9375,206188.6875,0.043701171875,1.013671875,-0.020751953125,-1.6174315214157104,0.1831054538488388,0.7019042372703552,93.33334350585938,55421.0,1.0
15:31:53.367243,167346.625,194513.65625,183748.6875,220363.265625,201417.5625,196663.984375,691167.125,206185.828125,0.04248046875,1.01171875,-0.019775390625,-1.6174315214157104,0.1220703050494194,0.6408690810203552,93.33334350585938,55422.0,1.0
15:31:53.369678,167228.15625,194495.5,183732.0625,220357.90625,201403.890625,196665.40625,691169.4375,206188.328125,0.04052734375,1.0126953125,-0.02099609375,-1.5563963651657104,0.1831054538488388,0.6408690810203552,93.33334350585938,55423.0,1.0
15:31:53.372209,167182.828125,194484.0625,183727.5,220358.53125,201394.859375,196666.484375,690431.5,206188.421875,0.040283203125,1.011962890625,-0.022705078125,-1.5563963651657104,0.2136230319738388,0.4882812201976776,93.33334350585938,55424.0,1.0
15:31:53.374757,167299.6875,194499.171875,183743.6875,220377.84375,201404.25,196666.03125,690398.5625,206187.703125,0.04052734375,1.013427734375,-0.019287109375,-1.5258787870407104,0.2441406100988388,0.4882812201976776,93.33334350585938,55425.0,1.0
15:31:53.377187,167352.703125,194509.8125,183742.53125,220365.046875,201409.4375,196664.78125,691051.4375,206180.90625,0.039306640625,1.01416015625,-0.019287109375,-1.4953612089157104,0.1831054538488388,0.4272460639476776,93.33334350585938,55426.0,1.0
15:31:53.379721,167243.453125,194496.75,183726.25,220345.5625,201399.78125,196666.390625,691272.0625,206182.78125,0.03857421875,1.013671875,-0.0205078125,-1.3732908964157104,0.1220703050494194,0.4577636420726776,93.33334350585938,55427.0,1.0
15:31:53.382197,167174.78125,194483.703125,183721.421875,220358.078125,201389.046875,196666.296875,690518.375,206187.34375,0.040283203125,1.011474609375,-0.0205078125,-1.4038084745407104,0.2136230319738388,0.4577636420726776,93.33334350585938,55428.0,1.0
15:31:53.385403,167277.875,194501.140625,183741.984375,220373.734375,201401.5625,196669.515625,690355.1875,206190.921875,0.04150390625,1.013427734375,-0.017822265625,-1.4648436307907104,0.1831054538488388,0.4577636420726776,93.33334350585938,55429.0,1.0
15:31:53.385420,167371.125,194524.921875,183759.15625,220385.4375,201421.5,196676.5,690931.625,206193.59375,0.03857421875,1.01220703125,-0.0205078125,-1.4648436307907104,0.2441406100988388,0.5187987685203552,93.33334350585938,55430.0,1.0
15:31:53.387812,167280.828125,194517.859375,183747.078125,220351.640625,201414.625,196678.546875,691339.9375,206187.078125,0.0390625,1.013427734375,-0.01904296875,-1.4648436307907104,0.2441406100988388,0.4272460639476776,93.33334350585938,55431.0,1.0
15:31:53.387825,167197.21875,194501.3125,183743.6875,220376.765625,201405.40625,196679.09375,690629.9375,206195.75,0.038818359375,1.0146484375,-0.01953125,-1.4953612089157104,0.3051757514476776,0.4272460639476776,93.33334350585938,55432.0,1.0
15:31:53.389843,167275.640625,194514.1875,183762.015625,220386.25,201414.078125,196681.234375,690315.0,206198.078125,0.037841796875,1.011474609375,-0.01904296875,-1.4343260526657104,0.2136230319738388,0.3662109076976776,93.33334350585938,55433.0,1.0
15:31:53.392243,167383.546875,194529.828125,183773.09375,220404.390625,201425.265625,196678.28125,690780.625,206196.546875,0.03857421875,1.012451171875,-0.01806640625,-1.4648436307907104,0.2136230319738388,0.4882812201976776,93.33334350585938,55434.0,1.0
15:31:53.395376,167310.0625,194521.078125,183755.84375,220363.09375,201416.234375,196675.609375,691349.9375,206191.28125,0.04052734375,1.01220703125,-0.02294921875,-1.5563963651657104,0.0915527269244194,0.4577636420726776,93.33334350585938,55435.0,1.0
15:31:53.395395,167200.53125,194496.65625,183739.3125,220377.125,201398.078125,196669.078125,690755.5,206196.546875,0.03955078125,1.011962890625,-0.020263671875,-1.4038084745407104,0.0915527269244194,0.6713866591453552,93.33334350585938,55436.0,1.0
15:31:53.397228,167244.96875,194502.5625,183749.046875,220375.96875,201400.3125,196667.734375,690296.75,206198.515625,0.040283203125,1.012451171875,-0.02294921875,-1.3427733182907104,0.1525878757238388,0.6713866591453552,93.33334350585938,55437.0,1.0
15:31:53.401554,167368.96875,194519.640625,183763.4375,220405.203125,201415.15625,196663.171875,690637.625,206203.34375,0.040771484375,1.011474609375,-0.021484375,-1.3732908964157104,0.0915527269244194,0.7019042372703552,93.33334350585938,55438.0,1.0
15:31:53.401569,167323.640625,194519.375,183750.578125,220359.59375,201411.9375,196661.75,691308.625,206193.875,0.042724609375,1.012451171875,-0.021240234375,-1.3122557401657104,0.0,0.7019042372703552,93.33334350585938,55439.0,1.0
15:31:53.412802,167206.171875,194497.640625,183735.640625,220370.859375,201395.3125,196658.796875,690885.5625,206200.03125,0.042236328125,1.01025390625,-0.021240234375,-1.2512205839157104,0.0610351525247097,0.7934569716453552,93.33334350585938,55440.0,1.0
15:31:53.412815,167215.015625,194495.234375,183736.171875,220357.1875,201389.578125,196657.90625,690305.25,206190.296875,0.041748046875,1.009521484375,-0.02294921875,-1.2817381620407104,0.2136230319738388,0.7934569716453552,93.33334350585938,55441.0,1.0
15:31:53.427737,167345.375,194511.953125,183750.390625,220386.78125,201401.03125,196657.546875,690536.1875,206191.1875,0.0439453125,1.010498046875,-0.020751953125,-1.1901854276657104,0.1220703050494194,0.9460448622703552,93.33334350585938,55442.0,1.0
15:31:53.427745,167332.671875,194515.34375,183741.890625,220346.015625,201401.125,196660.046875,691241.75,206178.3125,0.043701171875,1.01025390625,-0.023193359375,-1.2512205839157104,0.1831054538488388,0.8850097060203552,93.33334350585938,55443.0,1.0
15:31:53.427747,167211.890625,194493.984375,183725.625,220349.3125,201386.90625,196660.40625,691030.5625,206179.390625,0.044677734375,1.01123046875,-0.02294921875,-1.1901854276657104,0.0915527269244194,0.9155272841453552,93.33334350585938,55444.0,1.0
15:31:53.435204,167197.3125,194492.640625,183730.8125,220350.03125,201384.9375,196665.3125,690352.875,206180.28125,0.044189453125,1.010498046875,-0.02197265625,-1.2207030057907104,0.1525878757238388,0.7934569716453552,93.33334350585938,55445.0,1.0
15:31:53.435211,167329.90625,194512.9375,183751.28125,220377.84375,201401.203125,196668.265625,690449.5625,206183.9375,0.04150390625,1.011962890625,-0.023681640625,-1.2512205839157104,0.2441406100988388,0.9155272841453552,93.33334350585938,55446.0,1.0
15:31:53.445318,167357.53125,194525.984375,183754.5,220357.546875,201412.109375,196673.8125,691153.3125,206184.296875,0.0400390625,1.01123046875,-0.02099609375,-1.2207030057907104,0.2441406100988388,0.8850097060203552,93.33334350585938,55447.0,1.0
15:31:53.445343,167236.5625,194504.984375,183735.90625,220342.4375,201400.3125,196672.109375,691163.875,206182.875,0.037353515625,1.01220703125,-0.021728515625,-1.2207030057907104,0.2136230319738388,0.7324218153953552,93.33334350585938,55448.0,1.0
15:31:53.472931,167186.765625,194490.859375,183730.8125,220343.5,201391.640625,196669.875,690421.875,206183.40625,0.03857421875,1.01318359375,-0.021728515625,-1.3122557401657104,0.1220703050494194,0.6103515028953552,93.33334350585938,55449.0,1.0
15:31:53.473011,167307.015625,194509.1875,183752.71875,220364.96875,201407.46875,196673.546875,690378.75,206186.359375,0.0380859375,1.0126953125,-0.0205078125,-1.4343260526657104,0.03051757626235485,0.6103515028953552,93.33334350585938,55450.0,1.0
15:31:53.475312,167370.5,194527.328125,183762.734375,220364.15625,201422.671875,196677.484375,691028.625,206191.359375,0.037841796875,1.012451171875,-0.021484375,-1.4038084745407104,-0.0610351525247097,0.5187987685203552,93.33334350585938,55451.0,1.0
15:31:53.475381,167263.828125,194514.453125,183747.0,220342.4375,201413.453125,196678.46875,691258.0625,206192.4375,0.041259765625,1.012939453125,-0.023193359375,-1.4648436307907104,-0.1220703050494194,0.4272460639476776,93.33334350585938,55452.0,1.0
15:31:53.477768,167190.515625,194498.546875,183738.140625,220346.546875,201400.046875,196675.953125,690505.5,206188.59375,0.041748046875,1.014892578125,-0.020751953125,-1.4648436307907104,-0.0915527269244194,0.4577636420726776,93.33334350585938,55453.0,1.0
15:31:53.477829,167292.53125,194517.9375,183758.890625,220358.4375,201411.3125,196681.0625,690331.9375,206186.0,0.04248046875,1.016845703125,-0.021484375,-1.5869139432907104,-0.0915527269244194,0.3662109076976776,93.33334350585938,55454.0,1.0
15:31:53.477858,167384.4375,194538.5,183772.390625,220373.375,201425.703125,196683.640625,690898.5625,206187.609375,0.042724609375,1.0185546875,-0.020263671875,-1.6784666776657104,-0.0915527269244194,0.3051757514476776,93.33334350585938,55455.0,1.0
15:31:53.480277,167289.671875,194526.171875,183753.25,220332.421875,201411.9375,196680.421875,691317.375,206175.265625,0.0439453125,1.019775390625,-0.0185546875,-1.7700194120407104,-0.0915527269244194,0.3356933295726776,93.33334350585938,55456.0,1.0
15:31:53.480310,167199.640625,194508.734375,183743.59375,220347.796875,201398.4375,196679.984375,690627.75,206178.84375,0.04541015625,1.0205078125,-0.020751953125,-1.9531248807907104,-0.0915527269244194,0.3662109076976776,93.33334350585938,55457.0,1.0
15:31:53.480323,167272.328125,194519.640625,183756.921875,220349.765625,201404.25,196680.96875,690304.6875,206175.890625,0.04736328125,1.021728515625,-0.022216796875,-2.044677495956421,-0.0915527269244194,0.4577636420726776,93.33334350585938,55458.0,1.0
15:31:53.487227,167381.578125,194534.84375,183767.921875,220372.03125,201416.40625,196678.546875,690765.75,206180.546875,0.045166015625,1.018310546875,-0.022705078125,-2.227782964706421,-0.1220703050494194,0.4272460639476776,93.33334350585938,55459.0,1.0
15:31:53.491613,167301.75,194520.09375,183746.453125,220326.609375,201403.71875,196669.515625,691334.0625,206173.578125,0.044189453125,1.01806640625,-0.020751953125,-2.258300542831421,-0.0915527269244194,0.5187987685203552,93.33334350585938,55460.0,1.0
15:31:53.491727,167184.0,194487.359375,183721.78125,220332.78125,201378.140625,196654.859375,690743.6875,206172.59375,0.042236328125,1.01953125,-0.019775390625,-2.288818120956421,-0.03051757626235485,0.4272460639476776,93.33334350585938,55461.0,1.0
15:31:53.497814,167225.484375,194490.046875,183728.578125,220328.578125,201375.28125,196652.265625,690288.625,206172.859375,0.04248046875,1.016845703125,-0.019287109375,-2.349853277206421,0.0610351525247097,0.3967284858226776,93.33334350585938,55462.0,1.0
15:31:53.497871,167344.75,194501.21875,183736.53125,220353.875,201381.0,196645.375,690637.5625,206173.75,0.04345703125,1.014892578125,-0.01708984375,-2.441406011581421,0.0915527269244194,0.3967284858226776,93.33334350585938,55463.0,1.0
15:31:53.503582,167298.078125,194498.453125,183721.25,220308.734375,201377.421875,196645.921875,691299.1875,206165.171875,0.044189453125,1.015625,-0.015380859375,-2.410888433456421,0.1525878757238388,0.4577636420726776,93.33334350585938,55464.0,1.0
15:31:53.510303,167182.5625,194477.984375,183707.03125,220319.28125,201364.015625,196647.890625,690890.5,206168.125,0.041748046875,1.01220703125,-0.01513671875,-2.441406011581421,0.1220703050494194,0.4882812201976776,93.33334350585938,55465.0,1.0
15:31:53.510371,167197.84375,194483.4375,183718.203125,220318.296875,201369.015625,196656.109375,690306.5625,206170.984375,0.041015625,1.012451171875,-0.01806640625,-2.502441167831421,0.1831054538488388,0.3967284858226776,93.33334350585938,55466.0,1.0
15:31:53.514794,167335.53125,194507.21875,183743.234375,220355.671875,201392.09375,196663.0,690527.0625,206181.359375,0.0390625,1.011962890625,-0.01806640625,-2.502441167831421,0.1525878757238388,0.4882812201976776,93.33334350585938,55467.0,1.0
15:31:53.518499,167335.09375,194521.078125,183745.828125,220328.21875,201403.984375,196672.65625,691237.8125,206180.1875,0.03955078125,1.011474609375,-0.014892578125,-2.563476324081421,0.1220703050494194,0.5798339247703552,93.33334350585938,55468.0,1.0
15:31:53.529117,167217.34375,194503.640625,183733.21875,220333.046875,201394.0625,196674.265625,691036.6875,206183.9375,0.0390625,1.01123046875,-0.017333984375,-2.593993902206421,0.1525878757238388,0.5493163466453552,93.33334350585938,55469.0,1.0
15:31:53.529272,167204.28125,194503.8125,183741.1875,220331.796875,201395.03125,196681.328125,690359.3125,206184.03125,0.039794921875,1.010009765625,-0.018798828125,-2.532958745956421,0.1525878757238388,0.4882812201976776,93.33334350585938,55470.0,1.0
15:31:53.532680,167343.140625,194529.828125,183769.53125,220368.453125,201417.484375,196688.390625,690447.3125,206193.78125,0.0390625,1.011474609375,-0.017578125,-2.593993902206421,0.0915527269244194,0.4272460639476776,93.33334350585938,55471.0,1.0
15:31:53.532767,167370.40625,194540.390625,183770.953125,220345.390625,201425.703125,196688.46875,691142.375,206188.6875,0.036865234375,1.01171875,-0.018310546875,-2.532958745956421,0.0610351525247097,0.4577636420726776,93.33334350585938,55472.0,1.0
15:31:53.541090,167245.140625,194515.796875,183748.15625,220334.484375,201407.375,196681.6875,691158.375,206187.609375,0.037353515625,1.01220703125,-0.019775390625,-2.502441167831421,-0.0915527269244194,0.5187987685203552,93.33334350585938,55473.0,1.0
15:31:53.545271,167194.0,194500.78125,183740.46875,220337.515625,201395.125,196676.859375,690411.5625,206188.421875,0.039306640625,1.010498046875,-0.0185546875,-2.502441167831421,-0.0610351525247097,0.4272460639476776,93.33334350585938,55474.0,1.0
15:31:53.545282,167314.53125,194518.84375,183760.671875,220358.703125,201408.8125,196678.28125,690372.4375,206193.15625,0.03955078125,1.00927734375,-0.014892578125,-2.471923589706421,-0.1220703050494194,0.4577636420726776,93.33334350585938,55475.0,1.0
15:31:53.554769,167373.796875,194534.125,183766.9375,220348.0625,201420.34375,196679.890625,691015.75,206187.796875,0.039794921875,1.01171875,-0.0146484375,-2.380370855331421,-0.0610351525247097,0.3662109076976776,93.33334350585938,55476.0,1.0
15:31:53.557776,167265.625,194519.734375,183751.828125,220326.34375,201412.109375,196679.625,691249.25,206186.625,0.0419921875,1.013671875,-0.013671875,-2.441406011581421,-0.1525878757238388,0.3356933295726776,93.33334350585938,55477.0,1.0
15:31:53.557803,167194.90625,194504.0,183746.015625,220335.28125,201401.5625,196677.390625,690504.25,206186.1875,0.038330078125,1.01123046875,-0.0146484375,-2.502441167831421,-0.1220703050494194,0.2746581733226776,93.33334350585938,55478.0,1.0
15:31:53.567241,167293.421875,194517.9375,183763.265625,220343.859375,201411.40625,196676.671875,690320.5,206182.96875,0.039306640625,1.013671875,-0.013916015625,-2.471923589706421,-0.0915527269244194,0.2746581733226776,93.33334350585938,55479.0,1.0
15:31:53.570249,167385.421875,194534.65625,183773.90625,220355.671875,201424.453125,196676.234375,690882.625,206184.296875,0.038330078125,1.0126953125,-0.015869140625,-2.380370855331421,-0.1831054538488388,0.2441406100988388,93.33334350585938,55480.0,1.0
15:31:53.570284,167294.953125,194525.453125,183757.8125,220322.40625,201414.625,196674.265625,691311.6875,206182.78125,0.0400390625,1.011962890625,-0.014892578125,-2.471923589706421,-0.1220703050494194,0.2136230319738388,93.33334350585938,55481.0,1.0
15:31:53.572211,167192.578125,194497.109375,183738.234375,220328.9375,201390.75,196661.75,690612.25,206177.328125,0.04150390625,1.01123046875,-0.0146484375,-2.471923589706421,-0.1525878757238388,0.2136230319738388,93.33334350585938,55482.0,1.0
15:31:53.582157,167263.125,194507.75,183751.828125,220330.90625,201397.359375,196663.796875,690291.375,206178.671875,0.04296875,1.009521484375,-0.014892578125,-2.349853277206421,-0.1525878757238388,0.2441406100988388,93.33334350585938,55483.0,1.0
15:31:53.587415,167374.4375,194526.171875,183763.71875,220352.359375,201412.109375,196666.125,690752.0,206183.859375,0.040283203125,1.01025390625,-0.012939453125,-2.349853277206421,-0.2136230319738388,0.3662109076976776,93.33334350585938,55484.0,1.0
15:31:53.587442,167301.203125,194518.390625,183744.84375,220305.859375,201404.34375,196666.75,691322.5625,206178.140625,0.039794921875,1.011474609375,-0.01513671875,-2.258300542831421,-0.2441406100988388,0.3356933295726776,93.33334350585938,55485.0,1.0
15:31:53.593590,167187.390625,194490.765625,183726.25,220320.53125,201385.109375,196661.125,690748.875,206183.3125,0.038818359375,1.01123046875,-0.012939453125,-2.227782964706421,-0.2746581733226776,0.3967284858226776,93.33334350585938,55486.0,1.0
15:31:53.604008,167225.390625,194492.1875,183732.953125,220318.5625,201383.953125,196660.40625,690282.8125,206181.625,0.039306640625,1.009765625,-0.011962890625,-2.136230230331421,-0.1525878757238388,0.2136230319738388,93.33334350585938,55487.0,1.0
15:31:53.604031,167348.234375,194507.21875,183745.109375,220349.671875,201395.75,196658.25,690620.1875,206182.78125,0.038330078125,1.01025390625,-0.016357421875,-2.166747808456421,-0.2136230319738388,0.3051757514476776,93.33334350585938,55488.0,1.0
15:31:53.606489,167305.765625,194506.59375,183732.328125,220302.296875,201391.546875,196659.421875,691284.9375,206172.140625,0.0390625,1.009765625,-0.01513671875,-2.105712652206421,-0.2441406100988388,0.2441406100988388,93.33334350585938,55489.0,1.0
15:31:53.606513,167187.390625,194485.046875,183715.796875,220312.484375,201376.078125,196658.25,690886.5625,206176.609375,0.0400390625,1.010498046875,-0.014892578125,-2.044677495956421,-0.1831054538488388,0.2746581733226776,93.33334350585938,55490.0,1.0
15:31:53.618528,167206.703125,194493.890625,183729.203125,220318.734375,201381.53125,196666.578125,690301.8125,206184.484375,0.040771484375,1.010009765625,-0.01318359375,-1.9836424589157104,-0.2136230319738388,0.3051757514476776,93.33334350585938,55491.0,1.0
15:31:53.621550,167342.6875,194517.140625,183751.109375,220350.75,201401.46875,196671.3125,690511.6875,206189.21875,0.040283203125,1.011474609375,-0.0146484375,-1.9226073026657104,-0.1831054538488388,0.3356933295726776,93.33334350585938,55492.0,1.0
15:31:53.621573,167333.03125,194520.359375,183742.609375,220311.765625,201403.0,196672.5625,691214.5625,206181.171875,0.040771484375,1.009765625,-0.017578125,-1.8615721464157104,-0.2441406100988388,0.3662109076976776,93.33334350585938,55493.0,1.0
15:31:53.624005,167212.875,194497.828125,183725.625,220317.125,201386.8125,196668.890625,691022.125,206186.0,0.0390625,1.00927734375,-0.014404296875,-1.7700194120407104,-0.1831054538488388,0.3662109076976776,93.33334350585938,55494.0,1.0
15:31:53.624021,167199.1875,194497.015625,183732.59375,220322.40625,201386.453125,196672.203125,690342.0,206191.640625,0.038818359375,1.0107421875,-0.017578125,-1.8005369901657104,-0.3051757514476776,0.3051757514476776,93.33334350585938,55495.0,1.0
15:31:53.633450,167337.421875,194523.9375,183761.390625,220360.5,201410.328125,196679.71875,690439.4375,206204.421875,0.039306640625,1.01220703125,-0.01611328125,-1.7395018339157104,-0.2746581733226776,0.2136230319738388,93.33334350585938,55496.0,1.0
15:31:53.636511,167367.8125,194538.59375,183764.609375,220338.5,201420.4375,196684.90625,691130.1875,206202.90625,0.040771484375,1.01318359375,-0.016845703125,-1.7395018339157104,-0.2746581733226776,0.3051757514476776,93.33334350585938,55497.0,1.0
15:31:53.636535,167243.71875,194514.546875,183740.828125,220321.0625,201399.0625,196675.328125,691149.25,206195.390625,0.040283203125,1.013427734375,-0.014892578125,-1.6479490995407104,-0.3356933295726776,0.3356933295726776,93.33334350585938,55498.0,1.0
15:31:53.642315,167191.859375,194500.6875,183735.109375,220323.921875,201386.1875,196669.796875,690403.9375,206190.921875,0.040283203125,1.012451171875,-0.015625,-1.5563963651657104,-0.3662109076976776,0.3051757514476776,93.33334350585938,55499.0,1.0
15:31:53.657753,167314.796875,194524.5625,183761.5625,220350.296875,201403.625,196676.3125,690358.0625,206195.484375,0.03955078125,1.012939453125,-0.01416015625,-1.5258787870407104,-0.2441406100988388,0.3051757514476776,93.33334350585938,55500.0,1.0
15:31:53.657786,167386.328125,194548.15625,183777.03125,220348.25,201423.65625,196684.1875,691003.5625,206194.671875,0.041015625,1.01318359375,-0.0146484375,-1.5563963651657104,-0.2136230319738388,0.3662109076976776,93.33334350585938,55501.0,1.0
15:31:53.657795,167286.1875,194537.875,183766.75,220329.65625,201418.1875,196684.984375,691251.3125,206193.6875,0.0419921875,1.0126953125,-0.012451171875,-1.6174315214157104,-0.2746581733226776,0.3051757514476776,93.33334350585938,55502.0,1.0
15:31:53.662188,167215.734375,194521.78125,183760.3125,220343.953125,201405.859375,196681.328125,690510.6875,206195.125,0.042236328125,1.0126953125,-0.013427734375,-1.4953612089157104,-0.2441406100988388,0.4272460639476776,93.33334350585938,55503.0,1.0
15:31:53.664668,167315.78125,194538.5,183780.703125,220359.25,201416.765625,196683.734375,690317.1875,206198.34375,0.041015625,1.0126953125,-0.015380859375,-1.6174315214157104,-0.2441406100988388,0.3967284858226776,93.33334350585938,55504.0,1.0
15:31:53.667155,167403.484375,194553.890625,183785.265625,220363.984375,201425.53125,196683.921875,690870.25,206194.046875,0.0400390625,1.013427734375,-0.015869140625,-1.5869139432907104,-0.1220703050494194,0.3662109076976776,93.33334350585938,55505.0,1.0
15:31:53.670907,167306.65625,194539.671875,183762.734375,220321.25,201410.78125,196682.03125,691304.0625,206185.828125,0.039306640625,1.013671875,-0.01220703125,-1.5563963651657104,-0.2136230319738388,0.3356933295726776,93.33334350585938,55506.0,1.0
15:31:53.696498,167209.46875,194515.890625,183747.703125,220333.140625,201393.96875,196679.359375,690616.5625,206191.1875,0.04052734375,1.01220703125,-0.011962890625,-1.5563963651657104,-0.1525878757238388,0.4272460639476776,93.33334350585938,55507.0,1.0
15:31:53.696524,167277.0625,194524.5625,183759.15625,220332.953125,201399.15625,196683.375,690288.3125,206193.59375,0.040771484375,1.01171875,-0.015869140625,-1.5869139432907104,-0.1525878757238388,0.3967284858226776,93.33334350585938,55508.0,1.0
15:31:53.729046,167383.546875,194536.890625,183766.484375,220351.109375,201408.8125,196680.15625,690741.875,206195.125,0.04052734375,1.01171875,-0.016357421875,-1.4648436307907104,-0.1831054538488388,0.4272460639476776,93.33334350585938,55509.0,1.0
15:31:53.729058,167310.765625,194528.84375,183747.359375,220305.234375,201401.203125,196678.734375,691320.8125,206188.6875,0.03955078125,1.011474609375,-0.01513671875,-1.4648436307907104,-0.0915527269244194,0.3967284858226776,93.33334350585938,55510.0,1.0
15:31:53.742753,167195.4375,194501.484375,183726.78125,220318.296875,201380.828125,196672.65625,690757.375,206191.453125,0.039794921875,1.01318359375,-0.015625,-1.4648436307907104,-0.0915527269244194,0.3967284858226776,93.33334350585938,55511.0,1.0
15:31:53.742790,167232.546875,194503.640625,183734.5625,220312.390625,201381.984375,196672.65625,690286.125,206188.421875,0.0400390625,1.012939453125,-0.015380859375,-1.3732908964157104,-0.1525878757238388,0.4577636420726776,93.33334350585938,55512.0,1.0
15:31:53.742792,167361.203125,194522.6875,183752.453125,220343.328125,201398.890625,196673.359375,690620.9375,206191.015625,0.039794921875,1.0126953125,-0.0166015625,-1.4343260526657104,-0.1525878757238388,0.5798339247703552,93.33334350585938,55513.0,1.0
15:31:53.742793,167322.3125,194525.28125,183743.5,220301.21875,201401.921875,196676.9375,691294.5,206186.1875,0.039794921875,1.01123046875,-0.01513671875,-1.4343260526657104,-0.0610351525247097,0.6103515028953552,93.33334350585938,55514.0,1.0
15:31:53.749001,167203.21875,194499.875,183725.625,220310.515625,201384.75,196672.390625,690901.3125,206190.734375,0.039794921875,1.009033203125,-0.014892578125,-1.4953612089157104,-0.1220703050494194,0.7019042372703552,93.33334350585938,55515.0,1.0
15:31:53.749009,167215.203125,194501.21875,183734.75,220310.0625,201384.9375,196674.34375,690312.5,206192.890625,0.0400390625,1.009521484375,-0.014404296875,-1.4953612089157104,0.0,0.5187987685203552,93.33334350585938,55516.0,1.0
15:31:53.751499,167351.984375,194523.3125,183757.90625,220346.09375,201403.171875,196677.203125,690534.75,206200.3125,0.041015625,1.012939453125,-0.013427734375,-1.4038084745407104,0.0915527269244194,0.5187987685203552,93.33334350585938,55517.0,1.0
15:31:53.751506,167345.546875,194530.640625,183753.703125,220311.140625,201408.09375,196680.78125,691231.9375,206194.9375,0.040771484375,1.01220703125,-0.01318359375,-1.3427733182907104,-0.0610351525247097,0.5493163466453552,93.33334350585938,55518.0,1.0
15:31:53.751507,167226.546875,194511.234375,183739.3125,220318.828125,201395.3125,196680.96875,691043.375,206201.921875,0.04248046875,1.01220703125,-0.01171875,-1.3122557401657104,0.0,0.5493163466453552,93.33334350585938,55519.0,1.0
15:31:53.753452,167207.6875,194506.5,183741.984375,220318.390625,201390.921875,196681.859375,690353.125,206201.203125,0.042724609375,1.01318359375,-0.013671875,-1.4038084745407104,0.0,0.5187987685203552,93.33334350585938,55520.0,1.0
15:31:53.755861,167334.28125,194522.765625,183759.875,220345.828125,201403.0,196677.921875,690437.3125,206202.546875,0.041748046875,1.01318359375,-0.015380859375,-1.3427733182907104,0.0610351525247097,0.6103515028953552,93.33334350585938,55521.0,1.0
15:31:53.758435,167361.46875,194533.328125,183759.78125,220321.6875,201409.171875,196677.125,691128.9375,206195.5625,0.040771484375,1.01220703125,-0.01806640625,-1.2512205839157104,0.0610351525247097,0.6408690810203552,93.33334350585938,55522.0,1.0
15:31:53.760865,167248.1875,194517.5,183746.375,220312.125,201397.1875,196673.90625,691170.625,206191.984375,0.0400390625,1.013427734375,-0.01904296875,-1.3427733182907104,0.0610351525247097,0.6103515028953552,93.33334350585938,55523.0,1.0
15:31:53.763469,167205.1875,194510.703125,183747.53125,220319.1875,201390.484375,196673.28125,690433.6875,206190.65625,0.0390625,1.014404296875,-0.01611328125,-1.3122557401657104,0.0915527269244194,0.4882812201976776,93.33334350585938,55524.0,1.0
15:31:53.765853,167324.71875,194529.46875,183768.1875,220339.484375,201404.15625,196676.046875,690377.3125,206191.640625,0.039794921875,1.014404296875,-0.0185546875,-1.3732908964157104,0.1220703050494194,0.5493163466453552,93.33334350585938,55525.0,1.0
15:31:53.773408,167380.6875,194540.5625,183767.734375,220327.953125,201410.140625,196674.96875,691013.6875,206185.109375,0.038818359375,1.014892578125,-0.0185546875,-1.3427733182907104,0.0610351525247097,0.5798339247703552,93.33334350585938,55526.0,1.0
15:31:53.775861,167263.125,194516.78125,183740.015625,220292.09375,201389.9375,196666.75,691262.125,206175.71875,0.037841796875,1.01416015625,-0.018310546875,-1.3732908964157104,0.1220703050494194,0.5493163466453552,93.33334350585938,55527.0,1.0
15:31:53.778590,167184.265625,194495.140625,183725.71875,220297.28125,201373.21875,196661.75,690516.4375,206175.71875,0.041015625,1.013916015625,-0.019775390625,-1.3122557401657104,0.1525878757238388,0.6103515028953552,93.33334350585938,55528.0,1.0
15:31:53.781561,167276.796875,194507.65625,183741.359375,220306.9375,201383.421875,196665.765625,690328.0,206177.421875,0.04052734375,1.013916015625,-0.017333984375,-1.3732908964157104,0.1525878757238388,0.5493163466453552,93.33334350585938,55529.0,1.0
15:31:53.781566,167364.421875,194522.5,183749.59375,220319.640625,201396.015625,196667.109375,690880.1875,206183.046875,0.0390625,1.01611328125,-0.012451171875,-1.3732908964157104,0.0915527269244194,0.6408690810203552,93.33334350585938,55530.0,1.0
15:31:53.783452,167270.71875,194508.90625,183730.8125,220281.453125,201383.953125,196665.671875,691320.8125,206179.46875,0.03955078125,1.01416015625,-0.01513671875,-1.4953612089157104,0.1220703050494194,0.6713866591453552,93.33334350585938,55531.0,1.0
15:31:53.785919,167173.4375,194483.609375,183715.703125,220289.140625,201365.796875,196660.84375,690640.3125,206177.6875,0.03955078125,1.013671875,-0.015625,-1.4343260526657104,0.0915527269244194,0.5493163466453552,93.33334350585938,55532.0,1.0
15:31:53.788471,167240.140625,194492.109375,183727.234375,220289.0625,201369.828125,196661.296875,690300.5,206176.171875,0.03955078125,1.013916015625,-0.017333984375,-1.4038084745407104,0.0610351525247097,0.4272460639476776,93.33334350585938,55533.0,1.0
15:31:53.791547,167352.078125,194508.828125,183738.671875,220308.375,201381.359375,196658.875,690744.8125,206178.578125,0.04052734375,1.014404296875,-0.017578125,-1.4038084745407104,0.0915527269244194,0.6103515028953552,93.33334350585938,55534.0,1.0
15:31:53.791561,167285.921875,194503.90625,183725.625,220265.90625,201375.640625,196657.71875,691324.8125,206171.515625,0.041015625,1.015869140625,-0.01708984375,-1.4343260526657104,0.0,0.6408690810203552,93.33334350585938,55535.0,1.0
15:31:53.793425,167174.34375,194477.984375,183708.375,220281.015625,201358.828125,196650.5625,690767.125,206173.03125,0.0390625,1.0146484375,-0.015625,-1.5258787870407104,-0.03051757626235485,0.5798339247703552,93.33334350585938,55536.0,1.0
15:31:53.799675,167217.515625,194488.34375,183722.3125,220281.015625,201366.34375,196656.109375,690294.25,206174.109375,0.0380859375,1.013671875,-0.013916015625,-1.4648436307907104,-0.03051757626235485,0.6103515028953552,93.33334350585938,55537.0,1.0
15:31:53.803992,167350.921875,194512.671875,183744.84375,220317.484375,201386.640625,196661.46875,690622.375,206183.765625,0.03955078125,1.015380859375,-0.015869140625,-1.4953612089157104,0.0610351525247097,0.6713866591453552,93.33334350585938,55538.0,1.0
15:31:53.804017,167311.125,194513.109375,183732.953125,220271.796875,201383.859375,196663.171875,691296.9375,206173.75,0.040283203125,1.013671875,-0.01953125,-1.5563963651657104,-0.03051757626235485,0.7019042372703552,93.33334350585938,55539.0,1.0
15:31:53.810329,167194.71875,194490.859375,183717.765625,220285.578125,201368.65625,196661.203125,690910.4375,206178.9375,0.040771484375,1.01513671875,-0.0205078125,-1.5258787870407104,-0.1220703050494194,0.7019042372703552,93.33334350585938,55540.0,1.0
15:31:53.810352,167204.109375,194489.953125,183723.5625,220282.359375,201367.046875,196660.84375,690313.4375,206176.875,0.03759765625,1.014404296875,-0.01513671875,-1.6174315214157104,-0.0610351525247097,0.6103515028953552,93.33334350585938,55541.0,1.0
15:31:53.815898,167335.359375,194508.640625,183741.71875,220313.28125,201380.90625,196660.21875,690523.9375,206179.828125,0.04052734375,1.014892578125,-0.01513671875,-1.6174315214157104,0.0,0.7019042372703552,93.33334350585938,55542.0,1.0
15:31:53.828989,167328.390625,194512.21875,183733.671875,220276.984375,201381.09375,196658.4375,691225.5,206172.328125,0.0400390625,1.014404296875,-0.015380859375,-1.6479490995407104,-0.1220703050494194,0.6713866591453552,93.33334350585938,55543.0,1.0
15:31:53.829000,167207.5,194486.203125,183713.5625,220276.984375,201362.046875,196649.40625,691046.125,206171.875,0.03955078125,1.015625,-0.01416015625,-1.5869139432907104,-0.0610351525247097,0.7324218153953552,93.33334350585938,55544.0,1.0
15:31:53.830875,167193.375,194486.296875,183720.984375,220276.546875,201360.890625,196653.609375,690358.1875,206171.96875,0.03857421875,1.0146484375,-0.016357421875,-1.5869139432907104,0.0,0.6408690810203552,93.33334350585938,55545.0,1.0
15:31:53.833425,167332.859375,194515.078125,183751.46875,220316.78125,201384.671875,196662.1875,690438.0625,206183.3125,0.03955078125,1.0146484375,-0.01611328125,-1.6479490995407104,-0.0610351525247097,0.7324218153953552,93.33334350585938,55546.0,1.0
15:31:53.835860,167367.28125,194530.375,183756.734375,220299.25,201395.671875,196666.390625,691128.6875,206177.59375,0.040771484375,1.014404296875,-0.015380859375,-1.7089842557907104,-0.0915527269244194,0.8239745497703552,93.33334350585938,55547.0,1.0
15:31:53.846498,167259.359375,194521.703125,183750.03125,220297.546875,201390.03125,196671.125,691175.0625,206182.328125,0.03857421875,1.016845703125,-0.014892578125,-1.7395018339157104,-0.1220703050494194,0.8239745497703552,93.33334350585938,55548.0,1.0
15:31:53.849196,167222.53125,194520.984375,183755.578125,220310.6875,201389.671875,196676.765625,690426.3125,206186.1875,0.037841796875,1.014892578125,-0.01806640625,-1.7700194120407104,-0.1220703050494194,0.8239745497703552,93.33334350585938,55549.0,1.0
15:31:53.849244,167347.78125,194545.03125,183782.9375,220338.671875,201408.984375,196684.546875,690371.9375,206194.21875,0.040283203125,1.015380859375,-0.016357421875,-1.7700194120407104,-0.2136230319738388,0.7324218153953552,93.33334350585938,55550.0,1.0
15:31:53.849253,167412.703125,194561.75,183788.84375,220333.578125,201420.875,196689.90625,691005.8125,206195.203125,0.0390625,1.01416015625,-0.017333984375,-1.7089842557907104,-0.1525878757238388,0.7019042372703552,93.33334350585938,55551.0,1.0
15:31:53.854845,167302.90625,194544.765625,183767.828125,220303.1875,201407.203125,196688.5625,691263.9375,206193.25,0.039306640625,1.014404296875,-0.017333984375,-1.6479490995407104,-0.1220703050494194,0.6713866591453552,93.33334350585938,55552.0,1.0
15:31:53.866215,167225.75,194525.8125,183756.734375,220312.578125,201391.1875,196685.34375,690518.1875,206197.4375,0.039306640625,1.013671875,-0.017333984375,-1.7089842557907104,-0.03051757626235485,0.7019042372703552,93.33334350585938,55553.0,1.0
15:31:53.866288,167324.09375,194544.046875,183773.640625,220324.828125,201401.03125,196691.6875,690323.625,206202.546875,0.038330078125,1.013427734375,-0.01611328125,-1.7089842557907104,-0.1220703050494194,0.6408690810203552,93.33334350585938,55554.0,1.0
15:31:53.867195,167418.6875,194564.875,183780.96875,220334.390625,201409.609375,196695.0,690868.6875,206203.4375,0.0400390625,1.011962890625,-0.013916015625,-1.6784666776657104,-0.1831054538488388,0.7934569716453552,93.33334350585938,55555.0,1.0
15:31:53.872214,167334.546875,194558.984375,183766.75,220299.078125,201399.6875,196696.796875,691314.8125,206197.71875,0.039794921875,1.013916015625,-0.013916015625,-1.6174315214157104,-0.2136230319738388,0.7324218153953552,93.33334350585938,55556.0,1.0
15:31:53.876614,167245.6875,194540.109375,183757.90625,220314.546875,201384.84375,196693.578125,690638.625,206201.46875,0.0419921875,1.013427734375,-0.013671875,-1.6174315214157104,-0.3051757514476776,0.7324218153953552,93.33334350585938,55557.0,1.0
15:31:53.876626,167325.703125,194558.625,183780.34375,220327.5,201396.5625,196700.28125,690293.4375,206207.1875,0.0419921875,1.0126953125,-0.012451171875,-1.5869139432907104,-0.2441406100988388,0.7934569716453552,93.33334350585938,55558.0,1.0
15:31:53.885886,167449.359375,194584.1875,183802.25,220361.75,201419.71875,196706.796875,690731.0625,206218.015625,0.043701171875,1.013916015625,-0.0126953125,-1.5258787870407104,-0.2441406100988388,0.7019042372703552,93.33334350585938,55559.0,1.0
15:31:53.889085,167393.921875,194589.015625,183797.859375,220324.28125,201424.28125,196715.65625,691323.1875,206215.953125,0.04248046875,1.01025390625,-0.01513671875,-1.5869139432907104,-0.2746581733226776,0.6713866591453552,93.33334350585938,55560.0,1.0
15:31:53.889095,167293.703125,194572.65625,183788.125,220344.9375,201410.5,196714.84375,690767.125,206224.265625,0.042724609375,1.00927734375,-0.015625,-1.6479490995407104,-0.1525878757238388,0.6103515028953552,93.33334350585938,55561.0,1.0
15:31:53.896011,167338.21875,194581.59375,183803.140625,220349.234375,201415.515625,196719.046875,690291.0,206226.40625,0.042724609375,1.011474609375,-0.01806640625,-1.6174315214157104,-0.1220703050494194,0.5798339247703552,93.33334350585938,55562.0,1.0
15:31:53.909028,167468.484375,194603.5,183823.265625,220380.703125,201433.3125,196721.203125,690624.0625,206229.984375,0.042236328125,1.010498046875,-0.019287109375,-1.5563963651657104,-0.1525878757238388,0.7019042372703552,93.33334350585938,55563.0,1.0
15:31:53.909051,167433.625,194607.171875,183815.75,220339.65625,201434.203125,196722.546875,691294.25,206225.15625,0.039794921875,1.010986328125,-0.017822265625,-1.4648436307907104,-0.1525878757238388,0.6408690810203552,93.33334350585938,55564.0,1.0
15:31:53.909055,167319.265625,194585.0,183800.28125,220354.5,201417.65625,196717.625,690917.5,206231.328125,0.040771484375,1.01025390625,-0.017822265625,-1.4648436307907104,-0.0915527269244194,0.6408690810203552,93.33334350585938,55565.0,1.0
15:31:53.911706,167323.640625,194580.34375,183802.78125,220348.78125,201411.21875,196713.15625,690313.5625,206227.578125,0.040771484375,1.01171875,-0.0146484375,-1.3732908964157104,-0.0610351525247097,0.5798339247703552,93.33334350585938,55566.0,1.0
15:31:53.911736,167457.84375,194601.890625,183823.078125,220381.953125,201427.140625,196714.9375,690514.0,206231.953125,0.041748046875,1.011474609375,-0.014892578125,-1.4038084745407104,-0.0610351525247097,0.5798339247703552,93.33334350585938,55567.0,1.0
15:31:53.925874,167451.046875,194606.09375,183815.5625,220339.484375,201428.921875,196715.125,691218.875,206220.6875,0.042724609375,1.01318359375,-0.01318359375,-1.3732908964157104,0.0,0.4882812201976776,93.33334350585938,55568.0,1.0
15:31:53.929035,167320.34375,194577.21875,183790.265625,220333.5,201409.25,196706.0,691052.3125,206216.84375,0.04248046875,1.01513671875,-0.014892578125,-1.4038084745407104,-0.1220703050494194,0.4577636420726776,93.33334350585938,55569.0,1.0
15:31:53.929056,167292.71875,194567.828125,183787.046875,220325.625,201400.140625,196704.21875,690358.5,206208.796875,0.041748046875,1.014404296875,-0.01513671875,-1.3427733182907104,-0.1220703050494194,0.4882812201976776,93.33334350585938,55570.0,1.0
15:31:53.930936,167416.1875,194583.203125,183802.96875,220350.03125,201410.59375,196702.421875,690418.5,206207.28125,0.042236328125,1.014404296875,-0.013916015625,-1.3427733182907104,0.03051757626235485,0.4272460639476776,93.33334350585938,55571.0,1.0
15:31:53.935891,167437.734375,194588.125,183796.53125,220321.0625,201413.71875,196701.796875,691107.6875,206197.359375,0.039794921875,1.013671875,-0.01513671875,-1.3732908964157104,-0.0610351525247097,0.5187987685203552,93.33334350585938,55572.0,1.0
15:31:53.939752,167313.90625,194565.421875,183773.28125,220304.34375,201396.734375,196698.765625,691167.5625,206194.578125,0.039794921875,1.0146484375,-0.01513671875,-1.4953612089157104,-0.0915527269244194,0.5187987685203552,93.33334350585938,55573.0,1.0
15:31:53.947728,167262.140625,194554.515625,183770.234375,220315.171875,201387.53125,196699.03125,690422.1875,206201.203125,0.041748046875,1.015380859375,-0.01708984375,-1.4648436307907104,-0.1220703050494194,0.4882812201976776,93.33334350585938,55574.0,1.0
15:31:53.947735,167369.875,194565.953125,183783.921875,220327.953125,201397.359375,196698.21875,690359.4375,206197.09375,0.042236328125,1.01513671875,-0.0166015625,-1.4648436307907104,0.0915527269244194,0.4882812201976776,93.33334350585938,55575.0,1.0
15:31:53.953952,167428.078125,194576.5,183783.921875,220314.984375,201406.390625,196698.3125,690990.1875,206192.4375,0.041748046875,1.014892578125,-0.01708984375,-1.5563963651657104,0.03051757626235485,0.4577636420726776,93.33334350585938,55576.0,1.0
15:31:53.953961,167316.9375,194557.28125,183764.078125,220283.6875,201394.0625,196695.453125,691259.625,206190.375,0.040771484375,1.014404296875,-0.0166015625,-1.4953612089157104,0.0,0.4577636420726776,93.33334350585938,55577.0,1.0
15:31:53.960934,167237.546875,194536.0,183752.890625,220294.515625,201381.71875,196690.796875,690519.0,206195.390625,0.04052734375,1.015380859375,-0.015625,-1.4648436307907104,-0.0610351525247097,0.4272460639476776,93.33334350585938,55578.0,1.0
15:31:53.967784,167329.90625,194548.96875,183770.78125,220307.203125,201394.140625,196692.59375,690311.875,206200.578125,0.042236328125,1.012939453125,-0.0166015625,-1.4343260526657104,0.0610351525247097,0.4577636420726776,93.33334350585938,55579.0,1.0
15:31:53.967793,167419.3125,194564.609375,183779.265625,220315.796875,201406.84375,196692.40625,690854.875,206198.875,0.040283203125,1.012939453125,-0.01318359375,-1.5258787870407104,0.0,0.5493163466453552,93.33334350585938,55580.0,1.0
15:31:53.969631,167328.03125,194552.625,183761.5625,220276.453125,201396.375,196690.796875,691310.0,206193.59375,0.040283203125,1.011474609375,-0.015869140625,-1.5563963651657104,-0.03051757626235485,0.3967284858226776,93.33334350585938,55581.0,1.0
15:31:53.977141,167230.9375,194531.078125,183749.9375,220287.265625,201381.984375,196687.9375,690635.25,206193.515625,0.040283203125,1.011962890625,-0.014892578125,-1.4953612089157104,0.0,0.3051757514476776,93.33334350585938,55582.0,1.0
15:31:53.987775,167297.09375,194540.65625,183763.625,220289.78125,201389.859375,196690.265625,690294.875,206192.53125,0.039794921875,1.01025390625,-0.011962890625,-1.4953612089157104,0.0,0.4577636420726776,93.33334350585938,55583.0,1.0
15:31:53.987788,167407.25,194555.578125,183772.75,220309.53125,201402.109375,196688.125,690738.3125,206194.21875,0.038818359375,1.012939453125,-0.013916015625,-1.4343260526657104,-0.0610351525247097,0.4272460639476776,93.33334350585938,55584.0,1.0
15:31:53.990227,167340.1875,194549.6875,183757.984375,220265.90625,201396.296875,196687.21875,691326.625,206188.328125,0.04052734375,1.013427734375,-0.01611328125,-1.4648436307907104,-0.03051757626235485,0.4272460639476776,93.33334350585938,55585.0,1.0
15:31:53.990236,167228.515625,194525.28125,183743.6875,220283.875,201380.203125,196682.671875,690777.125,206194.140625,0.040283203125,1.012939453125,-0.01611328125,-1.4343260526657104,-0.03051757626235485,0.5493163466453552,93.33334350585938,55586.0,1.0
15:31:53.995879,167264.90625,194529.390625,183754.234375,220283.15625,201381.53125,196683.46875,690293.8125,206193.421875,0.039306640625,1.01318359375,-0.01611328125,-1.4038084745407104,0.0,0.5493163466453552,93.33334350585938,55587.0,1.0
15:31:54.005253,167392.484375,194547.890625,183771.046875,220315.515625,201396.5625,196682.125,690614.75,206199.6875,0.041015625,1.011962890625,-0.01220703125,-1.3427733182907104,0.0610351525247097,0.5493163466453552,93.33334350585938,55588.0,1.0
15:31:54.005259,167356.375,194548.609375,183760.9375,220274.484375,201395.84375,196682.578125,691290.9375,206193.875,0.040771484375,1.012451171875,-0.01318359375,-1.3122557401657104,-0.03051757626235485,0.5187987685203552,93.33334350585938,55589.0,1.0
15:31:54.007754,167235.84375,194524.109375,183742.078125,220282.265625,201377.421875,196677.75,690924.9375,206192.53125,0.03857421875,1.012451171875,-0.014892578125,-1.3732908964157104,0.0,0.5493163466453552,93.33334350585938,55590.0,1.0
15:31:54.007761,167238.265625,194520.71875,183744.140625,220275.203125,201372.515625,196676.578125,690318.5625,206188.59375,0.0390625,1.014892578125,-0.01611328125,-1.4038084745407104,-0.1220703050494194,0.4577636420726776,93.33334350585938,55591.0,1.0
15:31:54.017259,167372.015625,194541.375,183764.78125,220308.453125,201388.953125,196678.90625,690511.6875,206192.53125,0.0390625,1.013427734375,-0.01611328125,-1.3427733182907104,-0.0915527269244194,0.4882812201976776,93.33334350585938,55592.0,1.0
15:31:54.021538,167371.21875,194549.6875,183761.65625,220274.484375,201393.78125,196682.9375,691222.125,206186.71875,0.0390625,1.012939453125,-0.019775390625,-1.3732908964157104,-0.0915527269244194,0.5493163466453552,93.33334350585938,55593.0,1.0
15:31:54.021543,167249.078125,194526.4375,183742.25,220272.25,201375.015625,196679.09375,691063.5,206182.421875,0.038330078125,1.013427734375,-0.017578125,-1.3427733182907104,-0.0610351525247097,0.6103515028953552,93.33334350585938,55594.0,1.0
15:31:54.027140,167223.15625,194519.015625,183742.34375,220269.03125,201366.703125,196678.8125,690362.1875,206178.3125,0.0390625,1.013916015625,-0.015869140625,-1.4343260526657104,-0.03051757626235485,0.5493163466453552,93.33334350585938,55595.0,1.0
15:31:54.034001,167348.234375,194535.375,183763.890625,220296.03125,201381.265625,196680.078125,690431.1875,206183.046875,0.0390625,1.01513671875,-0.01513671875,-1.5258787870407104,-0.0915527269244194,0.6103515028953552,93.33334350585938,55596.0,1.0
15:31:54.034192,167376.484375,194544.3125,183764.78125,220267.78125,201386.90625,196680.96875,691118.375,206173.75,0.039306640625,1.01513671875,-0.017578125,-1.6174315214157104,-0.0915527269244194,0.5798339247703552,93.33334350585938,55597.0,1.0
15:31:54.035897,167255.421875,194521.96875,183742.25,220250.796875,201369.015625,196674.890625,691185.4375,206172.234375,0.039306640625,1.013427734375,-0.0146484375,-1.6174315214157104,-0.1220703050494194,0.5493163466453552,93.33334350585938,55598.0,1.0
15:31:54.043506,167196.953125,194504.078125,183732.6875,220254.015625,201355.15625,196668.359375,690441.3125,206173.9375,0.03857421875,1.0146484375,-0.01513671875,-1.5869139432907104,-0.0610351525247097,0.5187987685203552,93.33334350585938,55599.0,1.0
15:31:54.045881,167306.5625,194516.875,183748.96875,220273.6875,201367.140625,196666.921875,690371.5625,206179.03125,0.038330078125,1.013671875,-0.01171875,-1.6479490995407104,-0.0610351525247097,0.5798339247703552,93.33334350585938,55600.0,1.0
15:31:54.078618,167368.4375,194527.59375,183750.84375,220266.796875,201376.4375,196664.15625,690999.5,206176.34375,0.039306640625,1.013427734375,-0.01416015625,-1.6174315214157104,-0.0610351525247097,0.5493163466453552,93.33334350585938,55601.0,1.0
15:31:54.080925,167261.953125,194513.46875,183732.6875,220238.640625,201363.296875,196661.828125,691281.3125,206172.765625,0.039794921875,1.013916015625,-0.015380859375,-1.7395018339157104,0.0,0.6103515028953552,93.33334350585938,55602.0,1.0
15:31:54.083431,167183.015625,194494.875,183723.125,220250.875,201348.375,196657.71875,690537.4375,206175.09375,0.040771484375,1.014404296875,-0.016357421875,-1.7395018339157104,-0.0915527269244194,0.5187987685203552,93.33334350585938,55603.0,1.0
15:31:54.111016,167271.515625,194504.984375,183735.734375,220257.765625,201352.921875,196656.640625,690329.0,206172.40625,0.041259765625,1.0126953125,-0.0166015625,-1.7395018339157104,-0.0915527269244194,0.6103515028953552,93.33334350585938,55604.0,1.0
15:31:54.124906,167360.390625,194517.671875,183740.640625,220262.140625,201362.046875,196652.625,690863.5625,206165.796875,0.0419921875,1.013916015625,-0.014404296875,-1.7089842557907104,-0.0610351525247097,0.6408690810203552,93.33334350585938,55605.0,1.0
15:31:54.127284,167273.125,194509.984375,183727.0625,220221.109375,201356.234375,196653.15625,691323.3125,206160.34375,0.042724609375,1.01416015625,-0.0146484375,-1.7700194120407104,0.0,0.7324218153953552,93.33334350585938,55606.0,1.0
15:31:54.129948,167178.546875,194490.859375,183717.046875,220240.875,201342.921875,196650.5625,690652.1875,206165.609375,0.03955078125,1.011474609375,-0.014892578125,-1.7089842557907104,-0.1831054538488388,0.7324218153953552,93.33334350585938,55607.0,1.0
15:31:54.132220,167250.78125,194505.421875,183735.8125,220252.140625,201353.46875,196657.625,690301.1875,206172.140625,0.039306640625,1.011474609375,-0.014892578125,-1.7395018339157104,-0.1220703050494194,0.8239745497703552,93.33334350585938,55608.0,1.0
15:31:54.134816,167371.125,194529.5625,183755.84375,220281.375,201373.671875,196662.546875,690739.375,206179.296875,0.039306640625,1.009765625,-0.01513671875,-1.7089842557907104,-0.03051757626235485,0.7629393935203552,93.33334350585938,55609.0,1.0
15:31:54.137155,167307.015625,194524.828125,183742.609375,220235.953125,201370.625,196663.0,691334.0625,206170.984375,0.03857421875,1.009033203125,-0.01513671875,-1.7089842557907104,0.0,0.8239745497703552,93.33334350585938,55610.0,1.0
15:31:54.139901,167191.140625,194496.21875,183723.296875,220250.4375,201348.453125,196655.125,690791.8125,206173.125,0.041259765625,1.00830078125,-0.015625,-1.7089842557907104,0.1220703050494194,0.7934569716453552,93.33334350585938,55611.0,1.0
15:31:54.142144,167227.09375,194502.5625,183732.0625,220250.34375,201349.359375,196658.171875,690303.1875,206173.3125,0.041259765625,1.010009765625,-0.016357421875,-1.5869139432907104,0.0,0.7934569716453552,93.33334350585938,55612.0,1.0
15:31:54.144672,167354.9375,194521.078125,183746.1875,220278.234375,201362.046875,196657.8125,690618.875,206173.9375,0.040283203125,1.0126953125,-0.016845703125,-1.4953612089157104,-0.03051757626235485,0.7934569716453552,93.33334350585938,55613.0,1.0
15:31:54.149667,167320.078125,194523.484375,183736.796875,220234.703125,201360.703125,196661.203125,691303.125,206163.375,0.040283203125,1.01123046875,-0.015380859375,-1.3732908964157104,-0.0915527269244194,0.9155272841453552,93.33334350585938,55614.0,1.0
15:31:54.152786,167203.3125,194503.375,183722.9375,220245.703125,201346.3125,196661.125,690945.625,206167.84375,0.0419921875,1.01318359375,-0.013916015625,-1.4648436307907104,0.0610351525247097,0.8850097060203552,93.33334350585938,55615.0,1.0
15:31:54.152793,167206.875,194503.09375,183726.703125,220237.65625,201343.71875,196662.734375,690332.4375,206163.65625,0.0419921875,1.0126953125,-0.014892578125,-1.4343260526657104,0.0,0.8850097060203552,93.33334350585938,55616.0,1.0
15:31:54.154690,167335.265625,194517.234375,183741.890625,220264.734375,201357.84375,196660.046875,690528.375,206166.515625,0.03955078125,1.01318359375,-0.0166015625,-1.4343260526657104,-0.03051757626235485,0.7324218153953552,93.33334350585938,55617.0,1.0
15:31:54.157157,167335.8125,194524.109375,183736.796875,220235.140625,201361.78125,196662.90625,691234.5,206163.03125,0.0380859375,1.013671875,-0.01904296875,-1.4343260526657104,0.0,0.9155272841453552,93.33334350585938,55618.0,1.0
15:31:54.159674,167211.265625,194499.171875,183715.078125,220229.78125,201341.21875,196658.171875,691086.3125,206163.203125,0.041748046875,1.01513671875,-0.0166015625,-1.3732908964157104,0.03051757626235485,0.8239745497703552,93.33334350585938,55619.0,1.0
15:31:54.162151,167181.3125,194490.671875,183711.859375,220226.921875,201330.75,196654.5,690382.5,206161.421875,0.044677734375,1.01416015625,-0.0146484375,-1.4648436307907104,-0.03051757626235485,0.8239745497703552,93.33334350585938,55620.0,1.0
15:31:54.164732,167306.484375,194506.3125,183728.125,220253.5625,201343.265625,196651.1875,690439.875,206163.03125,0.043701171875,1.013427734375,-0.016357421875,-1.5258787870407104,0.03051757626235485,0.8544921278953552,93.33334350585938,55621.0,1.0
15:31:54.167151,167334.28125,194511.234375,183722.5,220227.8125,201346.84375,196647.890625,691122.4375,206154.0,0.044921875,1.013671875,-0.019287109375,-1.4953612089157104,0.0610351525247097,0.9460448622703552,93.33334350585938,55622.0,1.0
15:31:54.176095,167215.734375,194491.203125,183701.578125,220211.984375,201331.296875,196644.578125,691203.75,206150.6875,0.043701171875,1.012939453125,-0.017822265625,-1.4953612089157104,0.0915527269244194,0.8850097060203552,93.33334350585938,55623.0,1.0
15:31:54.176110,167160.296875,194475.03125,183694.515625,220217.265625,201319.125,196639.484375,690456.25,206149.875,0.044189453125,1.0126953125,-0.016845703125,-1.4953612089157104,0.2441406100988388,0.8544921278953552,93.33334350585938,55624.0,1.0
15:31:54.176114,167272.953125,194489.515625,183712.9375,220234.78125,201330.75,196640.546875,690372.625,206151.765625,0.043701171875,1.01220703125,-0.015625,-1.5869139432907104,0.3356933295726776,0.8239745497703552,93.33334350585938,55625.0,1.0
15:31:54.176117,167339.03125,194502.75,183718.03125,220230.5,201342.828125,196640.375,690995.8125,206150.953125,0.04296875,1.011962890625,-0.01708984375,-1.4953612089157104,0.3356933295726776,0.9765624403953552,93.33334350585938,55626.0,1.0
15:31:54.176120,167233.4375,194487.71875,183700.59375,220203.765625,201332.71875,196638.40625,691289.0,206151.3125,0.042236328125,1.01318359375,-0.01953125,-1.4648436307907104,0.3356933295726776,0.9460448622703552,93.33334350585938,55627.0,1.0
15:31:54.176123,167156.015625,194472.34375,183695.9375,220219.140625,201323.421875,196638.234375,690559.0625,206157.484375,0.04150390625,1.013427734375,-0.01806640625,-1.4953612089157104,0.3662109076976776,0.9460448622703552,93.33334350585938,55628.0,1.0
15:31:54.177724,167250.328125,194490.5,183718.03125,220231.84375,201338.625,196642.609375,690333.375,206160.609375,0.04150390625,1.012451171875,-0.015625,-1.4648436307907104,0.3967284858226776,1.0375975370407104,93.33334350585938,55629.0,1.0
15:31:54.177736,167347.96875,194511.0625,183730.28125,220240.515625,201354.0,196644.484375,690864.5625,206158.734375,0.044189453125,1.0146484375,-0.021484375,-1.4648436307907104,0.3967284858226776,0.9155272841453552,93.33334350585938,55630.0,1.0
15:31:54.179674,167265.4375,194505.6875,183717.765625,220208.140625,201349.078125,196648.875,691338.25,206154.53125,0.04345703125,1.014892578125,-0.02197265625,-1.3732908964157104,0.3662109076976776,0.9765624403953552,93.33334350585938,55631.0,1.0
15:31:54.182707,167169.953125,194484.5,183705.421875,220225.84375,201333.171875,196648.25,690673.9375,206157.296875,0.043701171875,1.0126953125,-0.0205078125,-1.3427733182907104,0.4272460639476776,0.9460448622703552,93.33334350585938,55632.0,1.0
15:31:54.182712,167234.59375,194493.71875,183718.109375,220230.140625,201337.640625,196650.5625,690312.9375,206158.015625,0.044189453125,1.013427734375,-0.02001953125,-1.3427733182907104,0.3967284858226776,0.7934569716453552,93.33334350585938,55633.0,1.0
15:31:54.184610,167354.21875,194516.25,183735.109375,220258.03125,201354.71875,196654.046875,690741.5625,206161.59375,0.04248046875,1.012939453125,-0.022705078125,-1.1901854276657104,0.3662109076976776,0.7019042372703552,93.33334350585938,55634.0,1.0
15:31:54.192724,167296.015625,194516.609375,183724.828125,220213.859375,201352.484375,196659.15625,691346.75,206155.25,0.0419921875,1.01220703125,-0.018310546875,-1.1901854276657104,0.4272460639476776,0.6103515028953552,93.33334350585938,55635.0,1.0
15:31:54.192730,167178.265625,194488.53125,183704.703125,220223.703125,201332.359375,196651.1875,690807.3125,206157.21875,0.040771484375,1.013427734375,-0.01611328125,-1.1901854276657104,0.3051757514476776,0.3967284858226776,93.33334350585938,55636.0,1.0
15:31:54.202818,167209.296875,194490.9375,183710.78125,220219.953125,201330.390625,196650.921875,690309.9375,206156.765625,0.041015625,1.013916015625,-0.0146484375,-1.2207030057907104,0.1525878757238388,0.3051757514476776,93.33334350585938,55637.0,1.0
15:31:54.202832,167340.453125,194509.984375,183728.671875,220253.109375,201343.546875,196650.921875,690629.0625,206162.390625,0.04052734375,1.014892578125,-0.01416015625,-1.3427733182907104,0.1831054538488388,0.2441406100988388,93.33334350585938,55638.0,1.0
15:31:54.205211,167305.40625,194509.265625,183715.515625,220206.796875,201339.25,196650.921875,691308.125,206149.96875,0.0380859375,1.013671875,-0.015380859375,-1.4343260526657104,0.1831054538488388,0.03051757626235485,93.33334350585938,55639.0,1.0
15:31:54.205220,167176.578125,194478.609375,183690.9375,220208.234375,201316.8125,196641.359375,690949.125,206150.421875,0.03955078125,1.013427734375,-0.015869140625,-1.4648436307907104,0.1831054538488388,-0.1525878757238388,93.33334350585938,55640.0,1.0
15:31:54.210908,167182.46875,194480.578125,183699.25,220210.375,201317.96875,196644.484375,690329.875,206154.890625,0.03955078125,1.016845703125,-0.016357421875,-1.6174315214157104,0.1831054538488388,-0.0915527269244194,93.33334350585938,55641.0,1.0
15:31:54.218986,167322.3125,194504.984375,183725.171875,220249.09375,201338.359375,196649.40625,690520.0,206164.09375,0.040771484375,1.017333984375,-0.01416015625,-1.6479490995407104,0.1220703050494194,-0.1220703050494194,93.33334350585938,55642.0,1.0
15:31:54.219001,167324.625,194514.640625,183722.3125,220215.46875,201344.4375,196653.078125,691229.1875,206157.84375,0.040283203125,1.017822265625,-0.017333984375,-1.7700194120407104,0.1220703050494194,-0.1525878757238388,93.33334350585938,55643.0,1.0
15:31:54.220958,167202.140625,194493.09375,183704.890625,220214.046875,201328.703125,196648.78125,691089.4375,206158.90625,0.040283203125,1.015380859375,-0.017578125,-1.7700194120407104,0.03051757626235485,-0.2441406100988388,93.33334350585938,55644.0,1.0
15:31:54.236648,167179.515625,194489.25,183709.796875,220218.6875,201326.828125,196651.109375,690379.6875,206161.6875,0.04052734375,1.01416015625,-0.0166015625,-1.7395018339157104,-0.0610351525247097,-0.2441406100988388,93.33334350585938,55645.0,1.0
15:31:54.236655,167313.359375,194512.671875,183736.71875,220252.21875,201346.84375,196655.125,690448.625,206170.09375,0.039306640625,1.014404296875,-0.013427734375,-1.8005369901657104,-0.03051757626235485,-0.2136230319738388,93.33334350585938,55646.0,1.0
15:31:54.238411,167349.125,194525.71875,183739.3125,220231.125,201356.953125,196656.921875,691130.8125,206164.984375,0.040771484375,1.01708984375,-0.015869140625,-1.9226073026657104,0.03051757626235485,-0.0915527269244194,93.33334350585938,55647.0,1.0
15:31:54.241573,167234.859375,194508.734375,183721.328125,220215.921875,201342.828125,196653.703125,691215.9375,206163.65625,0.04248046875,1.016357421875,-0.016357421875,-1.8920897245407104,-0.03051757626235485,-0.1220703050494194,93.33334350585938,55648.0,1.0
15:31:54.241588,167180.0625,194497.203125,183718.03125,220224.421875,201334.15625,196652.984375,690460.0625,206168.03125,0.042236328125,1.015380859375,-0.015869140625,-2.044677495956421,0.03051757626235485,0.0,93.33334350585938,55649.0,1.0
15:31:54.243484,167288.78125,194511.234375,183734.65625,220241.765625,201343.890625,196652.625,690383.75,206168.03125,0.0419921875,1.0146484375,-0.015625,-2.166747808456421,0.0610351525247097,0.03051757626235485,93.33334350585938,55650.0,1.0
15:31:54.252231,167355.390625,194522.140625,183738.5,220240.328125,201353.28125,196650.5625,691004.6875,206167.21875,0.039306640625,1.015380859375,-0.01953125,-2.105712652206421,-0.03051757626235485,0.1220703050494194,93.33334350585938,55651.0,1.0
15:31:54.255971,167253.109375,194506.140625,183721.609375,220215.125,201342.28125,196650.03125,691300.0625,206166.59375,0.040283203125,1.013916015625,-0.01513671875,-2.136230230331421,-0.0915527269244194,0.2746581733226776,93.33334350585938,55652.0,1.0
15:31:54.264022,167173.0,194486.921875,183711.5,220228.984375,201328.25,196648.421875,690553.125,206166.6875,0.039306640625,1.0126953125,-0.0126953125,-2.197265386581421,-0.1525878757238388,0.1831054538488388,93.33334350585938,55653.0,1.0
15:31:54.264040,167266.609375,194505.515625,183732.15625,220238.90625,201344.4375,196656.296875,690328.75,206169.8125,0.03857421875,1.013427734375,-0.014892578125,-2.258300542831421,-0.1220703050494194,0.1831054538488388,93.33334350585938,55654.0,1.0
15:31:54.265979,167374.875,194535.28125,183755.40625,220260.890625,201371.875,196669.609375,690865.75,206177.5,0.03759765625,1.01220703125,-0.013671875,-2.349853277206421,-0.1831054538488388,0.3051757514476776,93.33334350585938,55655.0,1.0
15:31:54.276706,167294.765625,194533.59375,183746.1875,220222.359375,201370.984375,196675.875,691352.1875,206170.984375,0.036865234375,1.011474609375,-0.012939453125,-2.319335699081421,-0.2136230319738388,0.3356933295726776,93.33334350585938,55656.0,1.0
15:31:54.276715,167193.109375,194509.453125,183732.0625,220234.25,201354.265625,196670.234375,690694.25,206170.796875,0.03662109375,1.011474609375,-0.0126953125,-2.349853277206421,-0.1525878757238388,0.3356933295726776,93.33334350585938,55657.0,1.0
15:31:54.282763,167254.359375,194516.78125,183742.96875,220234.078125,201358.734375,196670.0625,690320.5,206169.375,0.03759765625,1.01318359375,-0.01123046875,-2.410888433456421,-0.1220703050494194,0.3662109076976776,93.33334350585938,55658.0,1.0
15:31:54.282772,167369.25,194532.515625,183753.078125,220254.375,201367.6875,196667.28125,690738.75,206169.28125,0.0361328125,1.009765625,-0.011962890625,-2.349853277206421,-0.1831054538488388,0.3051757514476776,93.33334350585938,55659.0,1.0
15:31:54.284652,167303.984375,194523.75,183736.53125,220206.796875,201358.65625,196665.671875,691351.9375,206161.421875,0.036376953125,1.010009765625,-0.013427734375,-2.410888433456421,-0.2441406100988388,0.2746581733226776,93.33334350585938,55660.0,1.0
15:31:54.291278,167184.265625,194494.15625,183716.0625,220217.53125,201338.625,196657.0,690823.6875,206165.609375,0.036865234375,1.01123046875,-0.0126953125,-2.349853277206421,-0.2746581733226776,0.3967284858226776,93.33334350585938,55661.0,1.0
15:31:54.297784,167217.796875,194498.984375,183725.0,220216.015625,201341.21875,196657.71875,690313.375,206168.75,0.0380859375,1.009033203125,-0.01318359375,-2.319335699081421,-0.3356933295726776,0.4272460639476776,93.33334350585938,55662.0,1.0
15:31:54.297795,167351.90625,194522.40625,183745.296875,220249.1875,201359.90625,196660.40625,690605.75,206174.640625,0.0380859375,1.009521484375,-0.013916015625,-2.227782964706421,-0.3051757514476776,0.3051757514476776,93.33334350585938,55663.0,1.0
15:31:54.303384,167320.96875,194524.921875,183735.8125,220204.390625,201359.640625,196660.578125,691299.375,206165.078125,0.038330078125,1.009521484375,-0.014404296875,-2.166747808456421,-0.4272460639476776,0.3967284858226776,93.33334350585938,55664.0,1.0
15:31:54.318992,167197.40625,194497.921875,183716.421875,220211.28125,201340.328125,196652.359375,690956.3125,206169.90625,0.0400390625,1.009033203125,-0.012451171875,-2.075195074081421,-0.3662109076976776,0.4882812201976776,93.33334350585938,55665.0,1.0
15:31:54.319002,167200.09375,194499.703125,183723.65625,220206.265625,201339.703125,196654.953125,690335.0625,206168.296875,0.03955078125,1.00927734375,-0.01123046875,-2.136230230331421,-0.3967284858226776,0.4882812201976776,93.33334350585938,55666.0,1.0
15:31:54.321544,167335.53125,194521.78125,183744.84375,220238.359375,201356.0625,196655.65625,690512.5625,206170.09375,0.04052734375,1.01025390625,-0.009521484375,-2.105712652206421,-0.3662109076976776,0.5187987685203552,93.33334350585938,55667.0,1.0
15:31:54.321553,167342.25,194530.90625,183743.59375,220207.703125,201363.203125,196657.90625,691225.875,206163.828125,0.0400390625,1.01123046875,-0.01171875,-1.9836424589157104,-0.3662109076976776,0.4882812201976776,93.33334350585938,55668.0,1.0
15:31:54.323407,167223.15625,194510.796875,183728.046875,220209.046875,201350.515625,196655.390625,691101.75,206169.375,0.040283203125,1.01318359375,-0.01123046875,-2.044677495956421,-0.2746581733226776,0.4577636420726776,93.33334350585938,55669.0,1.0
15:31:54.327137,167193.296875,194504.0,183729.46875,220212.890625,201345.78125,196655.9375,690389.1875,206171.34375,0.04150390625,1.01318359375,-0.013427734375,-2.136230230331421,-0.3662109076976776,0.3051757514476776,93.33334350585938,55670.0,1.0
15:31:54.337745,167319.171875,194524.015625,183749.234375,220236.9375,201361.59375,196660.3125,690443.625,206172.59375,0.040771484375,1.013427734375,-0.012939453125,-2.105712652206421,-0.3051757514476776,0.3967284858226776,93.33334350585938,55671.0,1.0
15:31:54.337751,167360.75,194541.375,183754.0625,220222.546875,201374.296875,196668.71875,691126.1875,206172.140625,0.04052734375,1.013916015625,-0.01171875,-2.075195074081421,-0.2746581733226776,0.4272460639476776,93.33334350585938,55672.0,1.0
15:31:54.340190,167242.203125,194521.609375,183733.578125,220202.0625,201357.9375,196667.28125,691224.5,206167.5,0.04052734375,1.014404296875,-0.012939453125,-2.014159917831421,-0.2136230319738388,0.4577636420726776,93.33334350585938,55673.0,1.0
15:31:54.340197,167182.390625,194504.171875,183726.25,220207.515625,201345.15625,196665.234375,690469.9375,206169.28125,0.039306640625,1.014404296875,-0.015625,-2.014159917831421,-0.1525878757238388,0.4882812201976776,93.33334350585938,55674.0,1.0
15:31:54.349703,167291.015625,194517.046875,183741.0,220222.09375,201353.28125,196665.3125,690379.0625,206166.953125,0.04248046875,1.013427734375,-0.011474609375,-1.9836424589157104,-0.03051757626235485,0.4577636420726776,93.33334350585938,55675.0,1.0
15:31:54.355227,167359.140625,194529.828125,183744.578125,220218.96875,201362.5,196664.78125,690996.25,206164.0,0.04345703125,1.012451171875,-0.0126953125,-1.8920897245407104,-0.0610351525247097,0.4577636420726776,93.33334350585938,55676.0,1.0
15:31:54.355233,167256.0625,194516.421875,183727.6875,220188.203125,201352.296875,196664.25,691304.6875,206160.515625,0.04296875,1.0126953125,-0.012939453125,-1.9836424589157104,0.0,0.5187987685203552,93.33334350585938,55677.0,1.0
15:31:54.357286,167180.859375,194501.84375,183723.296875,220207.078125,201342.828125,196665.59375,690577.8125,206169.1875,0.0439453125,1.013916015625,-0.010009765625,-1.9226073026657104,0.0,0.6103515028953552,93.33334350585938,55678.0,1.0
15:31:54.367802,167270.0,194516.609375,183743.328125,220218.875,201356.5,196669.34375,690340.25,206170.53125,0.04345703125,1.012939453125,-0.010986328125,-1.8615721464157104,0.1220703050494194,0.7324218153953552,93.33334350585938,55679.0,1.0
15:31:54.367823,167367.71875,194534.03125,183753.796875,220231.84375,201372.328125,196669.796875,690860.0625,206169.015625,0.041748046875,1.013916015625,-0.009033203125,-1.9531248807907104,0.2136230319738388,0.6713866591453552,93.33334350585938,55680.0,1.0
15:31:54.369810,167277.875,194520.0,183733.3125,220189.8125,201360.890625,196665.671875,691346.625,206160.78125,0.040771484375,1.014404296875,-0.01171875,-1.8615721464157104,0.3051757514476776,0.6103515028953552,93.33334350585938,55681.0,1.0
15:31:54.379167,167179.515625,194497.296875,183720.078125,220208.40625,201343.625,196661.03125,690690.6875,206167.84375,0.0419921875,1.013916015625,-0.0107421875,-1.8005369901657104,0.2441406100988388,0.6408690810203552,93.33334350585938,55682.0,1.0
15:31:54.379186,167243.0,194509.1875,183734.75,220210.375,201350.78125,196665.140625,690318.75,206169.640625,0.041259765625,1.01416015625,-0.013916015625,-1.7395018339157104,0.2136230319738388,0.7629393935203552,93.33334350585938,55683.0,1.0
15:31:54.401233,167359.234375,194526.609375,183746.375,220230.9375,201362.671875,196663.171875,690738.5625,206169.453125,0.039306640625,1.013671875,-0.013427734375,-1.7089842557907104,0.2746581733226776,0.7324218153953552,93.33334350585938,55684.0,1.0
15:31:54.401242,167295.84375,194519.28125,183728.578125,220180.15625,201351.671875,196658.25,691349.125,206158.28125,0.038818359375,1.0126953125,-0.013916015625,-1.6784666776657104,0.2441406100988388,0.6713866591453552,93.33334350585938,55685.0,1.0
15:31:54.401243,167179.96875,194493.09375,183711.59375,220189.546875,201331.828125,196650.921875,690830.0625,206160.25,0.038330078125,1.011962890625,-0.01220703125,-1.7089842557907104,0.2136230319738388,0.7019042372703552,93.33334350585938,55686.0,1.0
15:31:54.401244,167208.84375,194495.40625,183721.0625,220186.234375,201333.703125,196651.015625,690312.9375,206157.65625,0.038330078125,1.012451171875,-0.01220703125,-1.5869139432907104,0.4272460639476776,0.7934569716453552,93.33334350585938,55687.0,1.0
15:31:54.402130,167338.484375,194513.203125,183738.59375,220219.328125,201349.078125,196649.859375,690610.5625,206161.859375,0.037841796875,1.012451171875,-0.012939453125,-1.4953612089157104,0.4272460639476776,0.6408690810203552,93.33334350585938,55688.0,1.0
15:31:54.412175,167305.59375,194510.34375,183726.15625,220174.890625,201344.796875,196646.015625,691299.375,206153.015625,0.038330078125,1.0126953125,-0.012451171875,-1.4038084745407104,0.2746581733226776,0.6408690810203552,93.33334350585938,55689.0,1.0
15:31:54.437926,167178.0,194480.84375,183700.953125,220174.625,201319.40625,196635.8125,690962.0,206147.828125,0.03759765625,1.013427734375,-0.013671875,-1.3732908964157104,0.3051757514476776,0.7629393935203552,93.33334350585938,55690.0,1.0
15:31:54.437938,167181.9375,194484.328125,183709.171875,220179.0,201319.125,196640.28125,690329.75,206150.953125,0.037109375,1.011962890625,-0.009765625,-1.3732908964157104,0.1525878757238388,0.7934569716453552,93.33334350585938,55691.0,1.0
15:31:54.461548,167322.75,194510.796875,183735.015625,220220.296875,201338.984375,196645.828125,690491.8125,206162.484375,0.0380859375,1.0126953125,-0.0107421875,-1.3427733182907104,0.1525878757238388,0.7629393935203552,93.33334350585938,55692.0,1.0
15:31:54.461559,167327.21875,194518.296875,183730.1875,220180.421875,201341.21875,196645.109375,691203.25,206146.03125,0.038330078125,1.014404296875,-0.013916015625,-1.3427733182907104,0.1831054538488388,0.7934569716453552,93.33334350585938,55693.0,1.0
15:31:54.463492,167207.859375,194497.296875,183714.546875,220179.625,201326.46875,196639.921875,691090.5,206149.609375,0.03857421875,1.014404296875,-0.012451171875,-1.3427733182907104,0.1525878757238388,0.8239745497703552,93.33334350585938,55694.0,1.0
15:31:54.465917,167180.59375,194490.671875,183716.78125,220185.53125,201322.0,196640.28125,690371.8125,206154.171875,0.03857421875,1.013671875,-0.012939453125,-1.4038084745407104,0.1525878757238388,0.7934569716453552,93.33334350585938,55695.0,1.0
15:31:54.468432,167308.359375,194509.984375,183739.3125,220215.125,201340.59375,196643.140625,690411.625,206160.15625,0.0400390625,1.01318359375,-0.01123046875,-1.2817381620407104,0.1525878757238388,0.8850097060203552,93.33334350585938,55696.0,1.0
15:31:54.470990,167347.421875,194521.96875,183740.640625,220196.171875,201351.5,196647.171875,691089.0625,206154.34375,0.0390625,1.011474609375,-0.011962890625,-1.1901854276657104,0.0915527269244194,0.8850097060203552,93.33334350585938,55697.0,1.0
15:31:54.473416,167229.859375,194502.125,183721.15625,220175.59375,201339.0625,196645.828125,691197.0,206151.484375,0.0380859375,1.01025390625,-0.014404296875,-1.1596678495407104,0.0610351525247097,0.8239745497703552,93.33334350585938,55698.0,1.0
15:31:54.476046,167172.8125,194491.390625,183717.765625,220183.296875,201331.203125,196648.953125,690445.0625,206155.953125,0.03955078125,1.010986328125,-0.013427734375,-1.1596678495407104,0.0610351525247097,0.8850097060203552,93.33334350585938,55699.0,1.0
15:31:54.478425,167279.03125,194504.703125,183733.765625,220201.265625,201340.40625,196649.671875,690338.9375,206156.859375,0.041015625,1.011962890625,-0.01220703125,-1.2207030057907104,0.0610351525247097,0.9460448622703552,93.33334350585938,55700.0,1.0
15:31:54.481106,167346.0,194514.546875,183735.28125,220193.65625,201348.375,196648.25,690949.0625,206152.296875,0.04150390625,1.0126953125,-0.013671875,-1.2207030057907104,-0.03051757626235485,1.1291502714157104,93.33334350585938,55701.0,1.0
15:31:54.483511,167240.140625,194498.265625,183714.625,220162.09375,201335.5,196645.46875,691270.1875,206149.078125,0.04443359375,1.01220703125,-0.012451171875,-1.1596678495407104,0.0610351525247097,1.1596678495407104,93.33334350585938,55702.0,1.0
15:31:54.486043,167153.78125,194474.671875,183699.78125,220172.65625,201317.34375,196638.234375,690541.8125,206150.5,0.04248046875,1.01171875,-0.014404296875,-1.1291502714157104,0.1220703050494194,1.2512205839157104,93.33334350585938,55703.0,1.0
15:31:54.488526,167239.609375,194486.375,183714.09375,220180.515625,201324.140625,196638.40625,690304.9375,206151.484375,0.0419921875,1.010986328125,-0.012451171875,-1.1291502714157104,0.0610351525247097,1.2817381620407104,93.33334350585938,55704.0,1.0
15:31:54.490992,167336.078125,194500.953125,183722.765625,220192.140625,201333.609375,196635.375,690829.25,206150.953125,0.04150390625,1.01123046875,-0.014404296875,-1.0681151151657104,0.0915527269244194,1.3427733182907104,93.33334350585938,55705.0,1.0
15:31:54.493433,167249.625,194489.78125,183704.4375,220147.96875,201322.265625,196630.71875,691314.0,206139.328125,0.0419921875,1.011474609375,-0.0146484375,-1.0986326932907104,0.03051757626235485,1.3122557401657104,93.33334350585938,55706.0,1.0
15:31:54.496525,167146.703125,194467.15625,183688.171875,220160.578125,201303.84375,196625.4375,690672.0,206138.34375,0.04150390625,1.01123046875,-0.014404296875,-1.0986326932907104,0.0,1.2817381620407104,93.33334350585938,55707.0,1.0
15:31:54.496536,167209.296875,194480.390625,183704.890625,220164.6875,201313.953125,196632.421875,690290.3125,206141.65625,0.0419921875,1.01171875,-0.017822265625,-1.1291502714157104,-0.03051757626235485,1.3427733182907104,93.33334350585938,55708.0,1.0
15:31:54.498986,167334.640625,194502.5625,183725.625,220196.171875,201334.0625,196636.703125,690708.875,206150.15625,0.03955078125,1.01123046875,-0.015869140625,-1.0070799589157104,0.0,1.3122557401657104,93.33334350585938,55709.0,1.0
15:31:54.498990,167277.25,194501.21875,183713.28125,220148.25,201331.109375,196638.671875,691324.125,206140.40625,0.038818359375,1.012939453125,-0.0185546875,-1.0375975370407104,0.1220703050494194,1.2207030057907104,93.33334350585938,55710.0,1.0
15:31:54.500886,167165.3125,194477.890625,183697.90625,220166.125,201315.375,196634.5625,690814.75,206149.078125,0.038818359375,1.012939453125,-0.017822265625,-1.0681151151657104,0.03051757626235485,1.0986326932907104,93.33334350585938,55711.0,1.0
15:31:54.504010,167193.921875,194480.125,183705.515625,220165.3125,201314.65625,196634.03125,690292.375,206148.359375,0.03857421875,1.013916015625,-0.013916015625,-1.0681151151657104,0.0,1.0681151151657104,93.33334350585938,55712.0,1.0
15:31:54.504012,167323.296875,194498.984375,183723.390625,220196.25,201328.34375,196632.6875,690574.25,206150.859375,0.037109375,1.015380859375,-0.015380859375,-1.0986326932907104,-0.0915527269244194,0.8850097060203552,93.33334350585938,55713.0,1.0
15:31:54.505888,167298.796875,194503.015625,183715.703125,220157.453125,201327.796875,196634.03125,691264.3125,206145.328125,0.037841796875,1.017333984375,-0.0166015625,-1.0375975370407104,-0.2136230319738388,0.7324218153953552,93.33334350585938,55714.0,1.0
15:31:54.509006,167175.671875,194476.8125,183695.3125,220163.4375,201307.78125,196626.609375,690948.0,206144.78125,0.038818359375,1.017333984375,-0.014892578125,-1.0681151151657104,-0.3051757514476776,0.7629393935203552,93.33334350585938,55715.0,1.0
15:31:54.509008,167173.0,194476.1875,183699.078125,220159.859375,201305.8125,196627.5,690318.375,206142.28125,0.039794921875,1.015869140625,-0.01513671875,-1.1901854276657104,-0.3662109076976776,0.6408690810203552,93.33334350585938,55716.0,1.0
15:31:54.522093,167306.21875,194497.921875,183720.171875,220191.15625,201323.421875,196629.5625,690490.5625,206147.734375,0.041748046875,1.016357421875,-0.015380859375,-1.2817381620407104,-0.3051757514476776,0.6713866591453552,93.33334350585938,55717.0,1.0
15:31:54.522987,167317.484375,194508.46875,183720.53125,220164.15625,201331.375,196634.828125,691190.875,206145.765625,0.04248046875,1.017578125,-0.01806640625,-1.3732908964157104,-0.3356933295726776,0.5798339247703552,93.33334350585938,55718.0,1.0
15:31:54.523058,167197.046875,194487.28125,183703.1875,220160.578125,201316.0,196632.953125,691088.25,206143.984375,0.043701171875,1.01611328125,-0.0185546875,-1.3732908964157104,-0.3662109076976776,0.6713866591453552,93.33334350585938,55719.0,1.0
15:31:54.532442,167164.140625,194475.109375,183701.125,220158.34375,201308.84375,196630.625,690371.3125,206140.046875,0.046630859375,1.017333984375,-0.01611328125,-1.4038084745407104,-0.2136230319738388,0.6408690810203552,93.33334350585938,55720.0,1.0
15:31:54.536603,167289.21875,194492.640625,183721.78125,220187.84375,201321.8125,196631.875,690403.6875,206144.515625,0.04638671875,1.01806640625,-0.017578125,-1.4038084745407104,-0.3662109076976776,0.6408690810203552,93.33334350585938,55721.0,1.0
15:31:54.536693,167325.171875,194498.8125,183718.203125,220168.625,201324.765625,196629.828125,691078.3125,206138.96875,0.046630859375,1.017578125,-0.0166015625,-1.5258787870407104,-0.3051757514476776,0.7019042372703552,93.33334350585938,55722.0,1.0
15:31:54.536725,167203.84375,194476.1875,183695.046875,220142.25,201306.4375,196625.625,691199.5625,206130.390625,0.046142578125,1.016357421875,-0.015380859375,-1.6174315214157104,-0.2136230319738388,0.7019042372703552,93.33334350585938,55723.0,1.0
15:31:54.539925,167139.734375,194459.5625,183684.671875,220141.09375,201292.9375,196622.40625,690450.625,206128.953125,0.0458984375,1.0146484375,-0.0146484375,-1.6479490995407104,-0.2746581733226776,0.7019042372703552,93.33334350585938,55724.0,1.0
15:31:54.557772,167248.546875,194474.671875,183701.578125,220158.796875,201305.90625,196623.65625,690337.0625,206134.5,0.045166015625,1.013671875,-0.01318359375,-1.6174315214157104,-0.2136230319738388,0.7019042372703552,93.33334350585938,55725.0,1.0
15:31:54.557799,167320.875,194489.78125,183706.9375,220154.6875,201318.859375,196625.890625,690943.0625,206135.125,0.04345703125,1.013427734375,-0.01171875,-1.8005369901657104,-0.1220703050494194,0.8850097060203552,93.33334350585938,55726.0,1.0
15:31:54.563464,167219.125,194477.53125,183689.421875,220123.5625,201306.796875,196625.265625,691270.9375,206132.53125,0.042724609375,1.01318359375,-0.01171875,-1.7089842557907104,-0.1831054538488388,0.8850097060203552,93.33334350585938,55727.0,1.0
15:31:54.563491,167140.0,194460.71875,183681.8125,220139.296875,201294.09375,196622.578125,690549.0625,206136.203125,0.041748046875,1.0126953125,-0.011474609375,-1.8615721464157104,-0.1220703050494194,0.7934569716453552,93.33334350585938,55728.0,1.0
15:31:54.563498,167228.875,194477.0,183701.21875,220148.875,201306.609375,196625.796875,690304.875,206136.5625,0.0400390625,1.01171875,-0.017333984375,-1.9531248807907104,-0.2136230319738388,0.7019042372703552,93.33334350585938,55729.0,1.0
15:31:54.565896,167324.71875,194490.140625,183708.8125,220162.640625,201317.171875,196623.390625,690821.0,206136.015625,0.040771484375,1.01220703125,-0.015869140625,-1.9531248807907104,-0.2136230319738388,0.7019042372703552,93.33334350585938,55730.0,1.0
15:31:54.569627,167239.25,194479.3125,183690.578125,220118.734375,201307.6875,196621.59375,691313.8125,206127.0,0.042236328125,1.0107421875,-0.013916015625,-1.9226073026657104,-0.2136230319738388,0.7019042372703552,93.33334350585938,55731.0,1.0
15:31:54.575922,167139.46875,194459.375,183680.203125,220137.25,201295.078125,196619.984375,690670.125,206134.6875,0.0400390625,1.012939453125,-0.0126953125,-1.8615721464157104,-0.1220703050494194,0.6408690810203552,93.33334350585938,55732.0,1.0
15:31:54.584095,167200.265625,194471.0,183695.765625,220140.203125,201302.140625,196625.0,690274.9375,206135.21875,0.0400390625,1.012939453125,-0.01025390625,-1.8615721464157104,-0.2441406100988388,0.6103515028953552,93.33334350585938,55733.0,1.0
15:31:54.584110,167325.875,194493.171875,183714.1875,220170.234375,201319.484375,196628.390625,690679.1875,206141.5625,0.040283203125,1.01220703125,-0.012939453125,-1.8615721464157104,-0.3356933295726776,0.6103515028953552,93.33334350585938,55734.0,1.0
15:31:54.591535,167269.5625,194489.0625,183701.671875,220125.171875,201312.6875,196627.765625,691302.75,206134.140625,0.0400390625,1.0107421875,-0.012939453125,-1.8615721464157104,-0.4272460639476776,0.6408690810203552,93.33334350585938,55735.0,1.0
15:31:54.591543,167153.140625,194464.5625,183684.3125,220137.78125,201294.90625,196621.6875,690812.6875,206136.296875,0.040771484375,1.013916015625,-0.01220703125,-1.9226073026657104,-0.3051757514476776,0.6713866591453552,93.33334350585938,55736.0,1.0
15:31:54.597889,167178.359375,194467.609375,183690.484375,220129.734375,201294.09375,196620.96875,690288.625,206131.640625,0.0400390625,1.01416015625,-0.013916015625,-1.9836424589157104,-0.3051757514476776,0.6103515028953552,93.33334350585938,55737.0,1.0
15:31:54.597912,167311.046875,194486.5625,183708.1875,220161.828125,201308.21875,196619.359375,690568.6875,206133.609375,0.04052734375,1.013427734375,-0.0126953125,-1.9836424589157104,-0.3051757514476776,0.6103515028953552,93.33334350585938,55738.0,1.0
15:31:54.599791,167288.6875,194491.5625,183702.296875,220122.9375,201310.640625,196621.953125,691257.9375,206127.53125,0.040771484375,1.012939453125,-0.0107421875,-1.9226073026657104,-0.3967284858226776,0.5493163466453552,93.33334350585938,55739.0,1.0
15:31:54.615974,167168.078125,194467.515625,183685.21875,220131.875,201294.28125,196617.21875,690946.1875,206131.375,0.041748046875,1.0126953125,-0.010009765625,-1.8615721464157104,-0.4882812201976776,0.5798339247703552,93.33334350585938,55740.0,1.0
15:31:54.619589,167166.46875,194466.796875,183690.578125,220128.75,201292.125,196619.453125,690306.5625,206130.21875,0.04150390625,1.013916015625,-0.01025390625,-1.8615721464157104,-0.4577636420726776,0.5187987685203552,93.33334350585938,55741.0,1.0
15:31:54.619596,167302.8125,194490.578125,183714.8125,220164.421875,201313.140625,196625.71875,690464.1875,206139.15625,0.04052734375,1.013671875,-0.01123046875,-1.8310545682907104,-0.5187987685203552,0.5798339247703552,93.33334350585938,55742.0,1.0
15:31:54.619597,167317.03125,194505.421875,183718.65625,220138.234375,201325.125,196635.09375,691171.0625,206135.3125,0.04150390625,1.0126953125,-0.010498046875,-1.7395018339157104,-0.5187987685203552,0.5493163466453552,93.33334350585938,55743.0,1.0
15:31:54.622710,167197.046875,194484.765625,183703.28125,220134.828125,201313.765625,196634.203125,691082.5625,206138.4375,0.042236328125,1.013671875,-0.01416015625,-1.8005369901657104,-0.4272460639476776,0.5187987685203552,93.33334350585938,55744.0,1.0
15:31:54.622717,167165.671875,194476.546875,183704.171875,220139.390625,201310.734375,196633.765625,690369.4375,206143.0,0.043701171875,1.012939453125,-0.013427734375,-1.8005369901657104,-0.3356933295726776,0.5493163466453552,93.33334350585938,55745.0,1.0
15:31:54.634642,167288.515625,194492.1875,183721.6875,220163.4375,201322.53125,196633.3125,690395.25,206145.140625,0.04296875,1.011474609375,-0.01220703125,-1.6784666776657104,-0.3662109076976776,0.4882812201976776,93.33334350585938,55746.0,1.0
15:31:54.639044,167329.015625,194502.5625,183720.078125,220144.390625,201328.4375,196633.046875,691066.0,206141.125,0.04248046875,1.013427734375,-0.014892578125,-1.6174315214157104,-0.4882812201976776,0.4882812201976776,93.33334350585938,55747.0,1.0
15:31:54.639055,167209.296875,194478.96875,183695.671875,220121.328125,201309.46875,196625.171875,691196.375,206134.140625,0.04443359375,1.011474609375,-0.01171875,-1.5258787870407104,-0.3967284858226776,0.6103515028953552,93.33334350585938,55748.0,1.0
15:31:54.645340,167145.09375,194460.984375,183684.953125,220123.828125,201293.390625,196620.4375,690451.9375,206132.53125,0.042236328125,1.012939453125,-0.012939453125,-1.4343260526657104,-0.3967284858226776,0.5187987685203552,93.33334350585938,55749.0,1.0
15:31:54.645352,167252.65625,194477.53125,183702.203125,220143.234375,201304.015625,196623.5625,690330.8125,206136.296875,0.04150390625,1.0126953125,-0.01025390625,-1.4953612089157104,-0.3967284858226776,0.6408690810203552,93.33334350585938,55750.0,1.0
15:31:54.650945,167323.109375,194489.515625,183705.0625,220137.953125,201313.5,196621.0625,690928.3125,206129.9375,0.0400390625,1.012451171875,-0.009521484375,-1.4038084745407104,-0.4272460639476776,0.5187987685203552,93.33334350585938,55751.0,1.0
15:31:54.657908,167223.0625,194476.640625,183690.75,220109.078125,201306.4375,196621.234375,691269.1875,206128.78125,0.04248046875,1.011474609375,-0.01025390625,-1.2817381620407104,-0.3967284858226776,0.4577636420726776,93.33334350585938,55752.0,1.0
15:31:54.657924,167145.546875,194462.515625,183687.890625,220130.546875,201297.40625,196623.296875,690555.0625,206137.625,0.04248046875,1.01123046875,-0.013671875,-1.3122557401657104,-0.3356933295726776,0.5187987685203552,93.33334350585938,55753.0,1.0
15:31:54.667307,167231.828125,194475.03125,183704.703125,220140.203125,201306.25,196624.90625,690300.25,206139.15625,0.044189453125,1.010498046875,-0.012451171875,-1.2512205839157104,-0.2136230319738388,0.5187987685203552,93.33334350585938,55754.0,1.0
15:31:54.675972,167333.921875,194492.1875,183716.59375,220157.890625,201320.03125,196623.390625,690810.5625,206143.078125,0.044189453125,1.010498046875,-0.01416015625,-1.1901854276657104,-0.3051757514476776,0.4272460639476776,93.33334350585938,55755.0,1.0
15:31:54.675990,167256.0625,194487.546875,183703.453125,220116.328125,201314.75,196625.0,691312.125,206135.671875,0.0439453125,1.011474609375,-0.013427734375,-1.1596678495407104,-0.2441406100988388,0.3356933295726776,93.33334350585938,55756.0,1.0
15:31:54.675996,167151.453125,194461.609375,183686.734375,220129.203125,201293.390625,196616.5,690673.5625,206134.765625,0.043701171875,1.010986328125,-0.013671875,-1.1291502714157104,-0.1831054538488388,0.3051757514476776,93.33334350585938,55757.0,1.0
15:31:54.678802,167209.46875,194471.265625,183699.078125,220127.40625,201296.78125,196618.375,690277.25,206132.796875,0.0419921875,1.0107421875,-0.012939453125,-1.0986326932907104,-0.2136230319738388,0.4272460639476776,93.33334350585938,55758.0,1.0
15:31:54.680884,167337.59375,194496.84375,183720.984375,220161.296875,201316.453125,196624.546875,690676.375,206140.84375,0.042236328125,1.0126953125,-0.01220703125,-1.0986326932907104,-0.03051757626235485,0.3356933295726776,93.33334350585938,55759.0,1.0
15:31:54.688387,167286.8125,194498.359375,183712.03125,220119.0,201315.28125,196629.28125,691306.9375,206134.859375,0.04541015625,1.013427734375,-0.009521484375,-1.0681151151657104,-0.1220703050494194,0.3356933295726776,93.33334350585938,55760.0,1.0
15:31:54.698985,167176.65625,194477.984375,183697.734375,220137.78125,201300.625,196627.953125,690821.3125,206141.203125,0.04443359375,1.013916015625,-0.01025390625,-1.1291502714157104,-0.0610351525247097,0.2441406100988388,93.33334350585938,55761.0,1.0
15:31:54.699004,167207.6875,194486.109375,183709.984375,220137.25,201305.359375,196634.46875,690295.9375,206140.40625,0.043701171875,1.015380859375,-0.011474609375,-1.0986326932907104,-0.03051757626235485,0.3051757514476776,93.33334350585938,55762.0,1.0
15:31:54.701484,167337.328125,194503.453125,183726.875,220167.109375,201320.296875,196633.578125,690582.3125,206142.8125,0.043701171875,1.0126953125,-0.01123046875,-1.0375975370407104,-0.0610351525247097,0.3356933295726776,93.33334350585938,55763.0,1.0
15:31:54.701490,167316.578125,194509.09375,183720.078125,220127.953125,201320.65625,196635.71875,691269.8125,206134.328125,0.04345703125,1.01318359375,-0.010009765625,-1.0375975370407104,0.0,0.3356933295726776,93.33334350585938,55764.0,1.0
15:31:54.707168,167200.359375,194487.71875,183702.828125,220135.28125,201302.859375,196631.078125,690964.5,206136.5625,0.04296875,1.015380859375,-0.010009765625,-1.0375975370407104,0.0610351525247097,0.2746581733226776,93.33334350585938,55765.0,1.0
15:31:54.717735,167205.71875,194495.765625,183715.515625,220138.671875,201307.953125,196639.484375,690323.0,206142.640625,0.04248046875,1.0146484375,-0.009033203125,-1.0375975370407104,0.1220703050494194,0.2441406100988388,93.33334350585938,55766.0,1.0
15:31:54.717755,167351.28125,194528.671875,183746.1875,220178.375,201330.9375,196649.578125,690476.625,206155.15625,0.04150390625,1.0146484375,-0.01318359375,-1.0681151151657104,0.1525878757238388,0.3051757514476776,93.33334350585938,55767.0,1.0
15:31:54.724010,167371.125,194546.015625,183751.375,220155.03125,201341.84375,196657.8125,691184.625,206155.609375,0.0419921875,1.013427734375,-0.010986328125,-1.0681151151657104,0.1525878757238388,0.3662109076976776,93.33334350585938,55768.0,1.0
15:31:54.724026,167255.15625,194526.890625,183737.421875,220153.34375,201330.125,196656.375,691105.5,206158.90625,0.04150390625,1.013671875,-0.012451171875,-1.0681151151657104,0.1831054538488388,0.4272460639476776,93.33334350585938,55769.0,1.0
15:31:54.751581,167224.21875,194517.40625,183737.34375,220159.15625,201322.703125,196654.328125,690386.3125,206162.671875,0.0419921875,1.013427734375,-0.012451171875,-1.0986326932907104,0.2441406100988388,0.3356933295726776,93.33334350585938,55770.0,1.0
15:31:54.751593,167350.203125,194536.71875,183760.234375,220189.375,201340.328125,196656.5625,690395.875,206168.828125,0.04248046875,1.01220703125,-0.013671875,-1.0986326932907104,0.2746581733226776,0.3356933295726776,93.33334350585938,55771.0,1.0
15:31:54.762852,167394.71875,194549.953125,183762.375,220170.328125,201349.796875,196657.90625,691065.75,206163.375,0.04150390625,1.012451171875,-0.0107421875,-1.0375975370407104,0.2746581733226776,0.3967284858226776,93.33334350585938,55772.0,1.0
15:31:54.762864,167284.578125,194536.8125,183746.453125,220153.15625,201336.75,196657.453125,691211.0,206162.484375,0.041015625,1.01123046875,-0.0126953125,-1.0375975370407104,0.3356933295726776,0.3662109076976776,93.33334350585938,55773.0,1.0
15:31:54.764744,167226.8125,194527.0625,183744.046875,220162.28125,201326.90625,196658.96875,690460.25,206162.578125,0.041259765625,1.0107421875,-0.01416015625,-0.9765624403953552,0.3356933295726776,0.3051757514476776,93.33334350585938,55774.0,1.0
15:31:54.770992,167337.140625,194546.28125,183764.609375,220180.96875,201341.3125,196663.796875,690348.25,206166.234375,0.041748046875,1.012451171875,-0.01513671875,-0.9460448622703552,0.3662109076976776,0.3356933295726776,93.33334350585938,55775.0,1.0
15:31:54.773482,167412.421875,194559.0625,183769.703125,220180.421875,201351.046875,196662.1875,690948.875,206163.109375,0.04345703125,1.01318359375,-0.01171875,-0.9155272841453552,0.3662109076976776,0.4882812201976776,93.33334350585938,55776.0,1.0
15:31:54.775919,167316.578125,194550.390625,183755.578125,220151.28125,201341.9375,196663.890625,691296.9375,206162.046875,0.042236328125,1.011962890625,-0.01220703125,-0.8239745497703552,0.3356933295726776,0.4577636420726776,93.33334350585938,55777.0,1.0
15:31:54.778507,167238.359375,194535.203125,183748.875,220168.359375,201327.453125,196663.078125,690581.5625,206167.5,0.0419921875,1.0126953125,-0.013427734375,-0.8850097060203552,0.3662109076976776,0.5493163466453552,93.33334350585938,55778.0,1.0
15:31:54.780863,167321.234375,194546.375,183761.5625,220174.625,201331.015625,196662.015625,690316.3125,206164.28125,0.04052734375,1.01171875,-0.012451171875,-0.9460448622703552,0.4272460639476776,0.5493163466453552,93.33334350585938,55779.0,1.0
15:31:54.808853,167425.390625,194563.359375,183772.828125,220193.03125,201343.71875,196660.3125,690814.9375,206166.78125,0.04296875,1.01220703125,-0.014404296875,-1.0375975370407104,0.4272460639476776,0.5798339247703552,93.33334350585938,55780.0,1.0
15:31:54.833395,167349.84375,194556.390625,183760.671875,220155.3125,201340.59375,196660.84375,691332.0,206162.84375,0.042236328125,1.01318359375,-0.013427734375,-0.9460448622703552,0.3356933295726776,0.5798339247703552,93.33334350585938,55781.0,1.0
15:31:54.840540,167251.578125,194537.078125,183752.984375,220177.390625,201328.078125,196660.671875,690700.9375,206171.96875,0.042236328125,1.01318359375,-0.013916015625,-0.9765624403953552,0.3662109076976776,0.5493163466453552,93.33334350585938,55782.0,1.0
15:31:54.841466,167311.484375,194551.296875,183770.421875,220181.859375,201337.90625,196669.25,690305.25,206174.203125,0.040283203125,1.013427734375,-0.01611328125,-0.9765624403953552,0.3051757514476776,0.5187987685203552,93.33334350585938,55783.0,1.0
15:31:54.841472,167435.046875,194570.421875,183786.78125,220210.828125,201355.15625,196672.203125,690704.5,206178.578125,0.04052734375,1.013671875,-0.018310546875,-1.0070799589157104,0.3967284858226776,0.4882812201976776,93.33334350585938,55784.0,1.0
15:31:54.843416,167380.421875,194566.484375,183774.4375,220165.859375,201351.140625,196672.828125,691334.1875,206171.609375,0.041015625,1.0126953125,-0.014404296875,-1.0070799589157104,0.3051757514476776,0.6103515028953552,93.33334350585938,55785.0,1.0
15:31:54.846365,167263.75,194541.1875,183757.453125,220178.28125,201333.265625,196667.90625,690852.5625,206175.546875,0.040771484375,1.01416015625,-0.01611328125,-1.0375975370407104,0.3356933295726776,0.5493163466453552,93.33334350585938,55786.0,1.0
15:31:54.848383,167287.171875,194544.3125,183764.078125,220176.046875,201334.78125,196669.796875,690321.5625,206175.8125,0.040771484375,1.014404296875,-0.016357421875,-1.0375975370407104,0.4577636420726776,0.6103515028953552,93.33334350585938,55787.0,1.0
15:31:54.850879,167418.859375,194565.0625,183781.234375,220204.84375,201348.28125,196669.703125,690596.1875,206176.34375,0.04052734375,1.01416015625,-0.014404296875,-1.0681151151657104,0.4272460639476776,0.7324218153953552,93.33334350585938,55788.0,1.0
15:31:54.853509,167397.40625,194570.875,183775.609375,220164.78125,201350.25,196672.65625,691294.3125,206167.671875,0.04150390625,1.01318359375,-0.013671875,-1.0375975370407104,0.4272460639476776,0.7019042372703552,93.33334350585938,55789.0,1.0
15:31:54.856054,167275.015625,194543.953125,183756.03125,220168.625,201333.078125,196666.65625,691000.5625,206170.53125,0.04296875,1.0126953125,-0.014892578125,-0.9765624403953552,0.4272460639476776,0.5798339247703552,93.33334350585938,55790.0,1.0
15:31:54.858381,167269.203125,194539.9375,183759.78125,220165.9375,201330.578125,196665.765625,690348.25,206167.9375,0.042236328125,1.01416015625,-0.015625,-1.0375975370407104,0.4272460639476776,0.5493163466453552,93.33334350585938,55791.0,1.0
15:31:54.861032,167402.6875,194560.046875,183780.875,220199.46875,201348.015625,196666.75,690486.8125,206175.453125,0.04150390625,1.015625,-0.014892578125,-1.0681151151657104,0.4577636420726776,0.5493163466453552,93.33334350585938,55792.0,1.0
15:31:54.864068,167407.25,194562.640625,183771.671875,220164.609375,201349.359375,196663.984375,691200.125,206167.578125,0.042236328125,1.01318359375,-0.0146484375,-1.0681151151657104,0.3356933295726776,0.6103515028953552,93.33334350585938,55793.0,1.0
15:31:54.864074,167284.046875,194540.921875,183752.453125,220162.546875,201333.796875,196660.765625,691133.75,206173.3125,0.04052734375,1.012451171875,-0.015869140625,-1.1291502714157104,0.3662109076976776,0.5187987685203552,93.33334350585938,55794.0,1.0
15:31:54.866536,167247.03125,194530.109375,183750.21875,220162.546875,201326.734375,196659.0625,690408.9375,206172.40625,0.040771484375,1.013427734375,-0.015380859375,-1.1596678495407104,0.3662109076976776,0.6713866591453552,93.33334350585938,55795.0,1.0
15:31:54.866547,167363.078125,194542.703125,183763.796875,220181.59375,201337.546875,196656.46875,690407.3125,206169.734375,0.0400390625,1.01220703125,-0.017333984375,-1.1901854276657104,0.4272460639476776,0.5798339247703552,93.33334350585938,55796.0,1.0
15:31:54.868971,167403.125,194553.34375,183759.953125,220162.015625,201341.65625,196655.65625,691083.4375,206161.59375,0.039794921875,1.013671875,-0.014404296875,-1.1901854276657104,0.3967284858226776,0.5798339247703552,93.33334350585938,55797.0,1.0
15:31:54.868978,167280.109375,194530.640625,183731.609375,220128.3125,201317.796875,196648.78125,691240.5,206150.859375,0.041259765625,1.013916015625,-0.015625,-1.1596678495407104,0.3356933295726776,0.6103515028953552,93.33334350585938,55798.0,1.0
15:31:54.872646,167215.546875,194515.34375,183724.90625,220136.890625,201305.09375,196647.4375,690493.875,206153.8125,0.041015625,1.012939453125,-0.015380859375,-1.1291502714157104,0.3356933295726776,0.4882812201976776,93.33334350585938,55799.0,1.0
15:31:54.872651,167319.890625,194529.390625,183742.96875,220153.34375,201316.546875,196648.328125,690365.6875,206155.15625,0.040771484375,1.011962890625,-0.01708984375,-1.2207030057907104,0.3051757514476776,0.4882812201976776,93.33334350585938,55800.0,1.0
15:31:54.872653,167394.546875,194542.34375,183747.4375,220153.34375,201325.65625,196646.546875,690956.75,206152.734375,0.040283203125,1.014404296875,-0.015380859375,-1.1901854276657104,0.3356933295726776,0.4882812201976776,93.33334350585938,55801.0,1.0
15:31:54.872654,167295.03125,194530.109375,183731.53125,220121.328125,201316.1875,196647.171875,691314.375,206149.078125,0.04248046875,1.014404296875,-0.016845703125,-1.2207030057907104,0.1525878757238388,0.4272460639476776,93.33334350585938,55802.0,1.0
15:31:54.876053,167206.4375,194508.109375,183720.078125,220133.578125,201302.59375,196643.421875,690590.1875,206151.671875,0.04150390625,1.013671875,-0.017822265625,-1.1901854276657104,0.2441406100988388,0.5187987685203552,93.33334350585938,55803.0,1.0
15:31:54.876071,167287.96875,194518.21875,183734.828125,220140.203125,201312.25,196643.765625,690315.875,206153.640625,0.041259765625,1.015380859375,-0.019287109375,-1.2512205839157104,0.3051757514476776,0.3967284858226776,93.33334350585938,55804.0,1.0
