Timestamp,Fz,FC3,FCz,FC4,Cz,C3,C4
15:35:19.943030,164916.0,188792.046875,180658.515625,200143.609375,190216.84375,188779.625,690535.8125,199981.328125,0.054443359375,1.010986328125,0.0322265625,-1.0375975370407104,-1.2817381620407104,-1.5563963651657104,93.33334350585938,107117.0,1.0
15:35:19.948038,165001.21875,188809.125,180672.015625,200146.296875,190228.546875,188783.921875,690566.1875,199982.046875,0.053466796875,1.01171875,0.031982421875,-0.9460448622703552,-1.2207030057907104,-1.5563963651657104,93.33334350585938,107118.0,1.0
15:35:19.953587,165010.421875,188819.234375,180671.03125,200107.046875,190234.0,188787.84375,690927.4375,199975.078125,0.05322265625,1.01123046875,0.029296875,-0.8850097060203552,-1.1596678495407104,-1.5258787870407104,93.33334350585938,107119.0,1.0
15:35:19.953605,164938.09375,188805.1875,180661.921875,200112.859375,190226.40625,188785.4375,690965.25,199980.078125,0.0537109375,1.01171875,0.031982421875,-1.0070799589157104,-1.0986326932907104,-1.4648436307907104,93.33334350585938,107120.0,1.0
15:35:19.955530,164918.59375,188797.859375,180662.09375,200149.875,190222.828125,188783.46875,690575.0,199991.4375,0.055419921875,1.01220703125,0.029296875,-0.9765624403953552,-1.0986326932907104,-1.4343260526657104,93.33334350585938,107121.0,1.0
15:35:19.958074,164987.265625,188804.296875,180670.40625,200146.296875,190226.5,188779.359375,690548.75,199986.609375,0.0546875,1.0107421875,0.02783203125,-1.0070799589157104,-1.1291502714157104,-1.2512205839157104,93.33334350585938,107122.0,1.0
15:35:19.961162,165022.40625,188815.828125,180674.703125,200120.8125,190234.8125,188783.109375,690873.3125,199981.0625,0.05419921875,1.011962890625,0.0302734375,-1.0070799589157104,-1.1291502714157104,-1.3122557401657104,93.33334350585938,107123.0,1.0
15:35:19.961182,164950.609375,188805.546875,180665.9375,200104.8125,190228.828125,188781.5,691025.75,199980.0,0.0546875,1.01220703125,0.029052734375,-0.9765624403953552,-1.0375975370407104,-1.2817381620407104,93.33334350585938,107124.0,1.0
15:35:19.963059,164912.15625,188789.375,180661.46875,200149.78125,190221.578125,188774.265625,690621.8125,199991.265625,0.054443359375,1.012939453125,0.03173828125,-1.0375975370407104,-1.0070799589157104,-1.0681151151657104,93.33334350585938,107125.0,1.0
15:35:19.974967,164972.25,188800.015625,180671.9375,200145.046875,190228.546875,188778.46875,690521.9375,199986.796875,0.0537109375,1.01318359375,0.03173828125,-0.9765624403953552,-0.9765624403953552,-1.0986326932907104,93.33334350585938,107126.0,1.0
15:35:19.975002,165028.296875,188812.703125,180678.015625,200133.5,190238.203125,188779.796875,690787.3125,199983.921875,0.051025390625,1.014404296875,0.029296875,-1.0070799589157104,-0.8544921278953552,-1.1596678495407104,93.33334350585938,107127.0,1.0
15:35:19.976703,164961.15625,188804.390625,180667.015625,200098.453125,190232.390625,188776.5,691045.1875,199979.8125,0.049560546875,1.013916015625,0.03466796875,-1.0375975370407104,-0.9765624403953552,-1.0986326932907104,93.33334350585938,107128.0,1.0
15:35:19.979344,164910.640625,188784.09375,180659.859375,200147.28125,190221.21875,188767.109375,690676.625,199990.546875,0.051025390625,1.0146484375,0.030517578125,-1.0375975370407104,-0.9155272841453552,-1.1901854276657104,93.33334350585938,107129.0,1.0
15:35:19.982330,164954.453125,188794.375,180670.140625,200145.390625,190227.484375,188770.421875,690509.0625,199991.34375,0.049072265625,1.013671875,0.030029296875,-1.0681151151657104,-0.8544921278953552,-1.1291502714157104,93.33334350585938,107130.0,1.0
15:35:19.982338,165030.171875,188812.890625,180680.609375,200144.765625,190240.71875,188775.59375,690730.0,199990.09375,0.05078125,1.014892578125,0.029541015625,-1.0375975370407104,-0.8850097060203552,-1.0681151151657104,93.33334350585938,107131.0,1.0
15:35:19.984266,164979.84375,188816.015625,180676.3125,200097.828125,190241.875,188783.640625,691058.9375,199982.59375,0.051513671875,1.015869140625,0.0322265625,-1.1596678495407104,-0.8850097060203552,-1.0681151151657104,93.33334350585938,107132.0,1.0
15:35:19.988585,164918.421875,188794.640625,180667.734375,200143.078125,190229.8125,188775.515625,690756.1875,199989.828125,0.052490234375,1.0146484375,0.029052734375,-1.1596678495407104,-0.9155272841453552,-1.0375975370407104,93.33334350585938,107133.0,1.0
15:35:19.996221,164944.96875,188799.46875,180674.34375,200145.75,190231.328125,188776.859375,690510.4375,199989.203125,0.05078125,1.0146484375,0.028076171875,-1.2207030057907104,-0.9460448622703552,-0.9765624403953552,93.33334350585938,107134.0,1.0
15:35:20.002283,165030.890625,188815.5625,180686.421875,200151.203125,190242.328125,188780.515625,690660.625,199988.484375,0.05078125,1.015869140625,0.03076171875,-1.2512205839157104,-0.9460448622703552,-0.9765624403953552,93.33334350585938,107135.0,1.0
15:35:20.002302,164990.75,188811.90625,180673.984375,200091.390625,190235.171875,188780.96875,691030.5,199972.578125,0.0498046875,1.015625,0.02783203125,-1.2512205839157104,-0.8850097060203552,-0.9460448622703552,93.33334350585938,107136.0,1.0
15:35:20.005261,164916.90625,188787.765625,180658.078125,200122.515625,190217.921875,188769.875,690833.8125,199977.765625,0.052001953125,1.013916015625,0.02978515625,-1.3122557401657104,-0.9765624403953552,-0.7629393935203552,93.33334350585938,107137.0,1.0
15:35:20.005345,164914.578125,188780.703125,180652.796875,200126.4375,190210.5,188764.421875,690522.9375,199974.359375,0.052001953125,1.0146484375,0.030029296875,-1.3427733182907104,-1.0070799589157104,-0.7934569716453552,93.33334350585938,107138.0,1.0
15:35:20.011831,164999.609375,188794.90625,180663.890625,200131.0,190221.765625,188765.671875,690620.0,199975.078125,0.051513671875,1.01513671875,0.0302734375,-1.3732908964157104,-0.9765624403953552,-0.8239745497703552,93.33334350585938,107139.0,1.0
15:35:20.018178,164989.5,188804.125,180661.921875,200087.546875,190227.296875,188773.28125,690995.0625,199971.328125,0.051513671875,1.013427734375,0.029541015625,-1.3122557401657104,-1.0070799589157104,-0.9155272841453552,93.33334350585938,107140.0,1.0
15:35:20.021610,164917.703125,188787.21875,180652.171875,200110.703125,190219.171875,188769.4375,690916.875,199978.203125,0.050537109375,1.01611328125,0.030517578125,-1.4038084745407104,-1.0070799589157104,-0.7934569716453552,93.33334350585938,107141.0,1.0
15:35:20.021698,164907.15625,188781.859375,180655.390625,200137.34375,190220.421875,188768.8125,690543.3125,199986.515625,0.052490234375,1.014404296875,0.0322265625,-1.4648436307907104,-1.0375975370407104,-0.7629393935203552,93.33334350585938,107142.0,1.0
15:35:20.026912,164997.015625,188801.890625,180675.0625,200147.1875,190237.9375,188775.0625,690567.25,199992.875,0.051513671875,1.013916015625,0.034423828125,-1.5258787870407104,-1.1291502714157104,-0.7324218153953552,93.33334350585938,107143.0,1.0
15:35:20.029450,165011.40625,188811.0,180675.78125,200111.0625,190242.140625,188777.390625,690921.0,199987.5,0.052490234375,1.011474609375,0.032958984375,-1.5258787870407104,-1.0986326932907104,-0.7324218153953552,93.33334350585938,107144.0,1.0
15:35:20.039327,164935.859375,188795.890625,180663.96875,200111.6875,190230.875,188773.1875,690973.5625,199987.140625,0.05126953125,1.012451171875,0.029541015625,-1.6174315214157104,-1.1291502714157104,-0.6713866591453552,93.33334350585938,107145.0,1.0
15:35:20.043742,164907.421875,188782.9375,180659.5,200144.0625,190221.671875,188767.828125,690575.5,199991.4375,0.050048828125,1.01318359375,0.03076171875,-1.5869139432907104,-1.1596678495407104,-0.7019042372703552,93.33334350585938,107146.0,1.0
15:35:20.043836,164981.71875,188799.5625,180672.203125,200142.359375,190232.390625,188773.71875,690530.8125,199988.21875,0.047607421875,1.01220703125,0.031005859375,-1.5563963651657104,-1.1901854276657104,-0.5798339247703552,93.33334350585938,107147.0,1.0
15:35:20.051155,165025.171875,188817.265625,180680.78125,200122.59375,190244.015625,188781.40625,690849.625,199986.96875,0.0498046875,1.012451171875,0.0322265625,-1.6174315214157104,-1.2207030057907104,-0.6103515028953552,93.33334350585938,107148.0,1.0
15:35:20.051292,164953.5625,188808.328125,180672.5625,200107.21875,190237.578125,188780.96875,691029.0625,199986.96875,0.049560546875,1.01513671875,0.03076171875,-1.6479490995407104,-1.2817381620407104,-0.4882812201976776,93.33334350585938,107149.0,1.0
15:35:20.058501,164907.609375,188788.921875,180663.53125,200149.953125,190226.140625,188772.375,690622.0,199992.953125,0.048095703125,1.0146484375,0.031982421875,-1.6784666776657104,-1.2817381620407104,-0.4577636420726776,93.33334350585938,107150.0,1.0
15:35:20.062389,164963.75,188798.40625,180670.765625,200144.140625,190229.09375,188773.8125,690508.0625,199988.484375,0.049072265625,1.01416015625,0.03125,-1.6479490995407104,-1.3122557401657104,-0.4272460639476776,93.33334350585938,107151.0,1.0
15:35:20.062444,165026.421875,188814.21875,180677.03125,200132.875,190235.265625,188777.296875,690767.375,199983.84375,0.048828125,1.01513671875,0.0283203125,-1.7089842557907104,-1.2512205839157104,-0.4272460639476776,93.33334350585938,107152.0,1.0
15:35:20.068017,164958.46875,188804.921875,180663.265625,200090.140625,190225.515625,188775.78125,691040.75,199972.9375,0.0498046875,1.01513671875,0.031982421875,-1.7395018339157104,-1.3427733182907104,-0.4272460639476776,93.33334350585938,107153.0,1.0
15:35:20.074573,164899.640625,188781.59375,180651.359375,200133.59375,190211.65625,188764.515625,690692.4375,199978.75,0.04736328125,1.0146484375,0.03271484375,-1.7700194120407104,-1.4038084745407104,-0.3051757514476776,93.33334350585938,107154.0,1.0
15:35:20.077441,164938.53125,188790.4375,180660.046875,200128.046875,190216.390625,188766.84375,690505.0625,199976.5,0.04833984375,1.015625,0.03076171875,-1.7700194120407104,-1.4343260526657104,-0.2441406100988388,93.33334350585938,107155.0,1.0
15:35:20.077586,165015.96875,188805.90625,180668.796875,200127.34375,190225.421875,188768.359375,690702.0,199974.890625,0.05126953125,1.014892578125,0.030517578125,-1.7700194120407104,-1.4648436307907104,-0.2441406100988388,93.33334350585938,107156.0,1.0
15:35:20.092354,164968.75,188807.34375,180660.046875,200075.65625,190219.96875,188771.9375,691042.0625,199960.421875,0.05078125,1.013671875,0.0302734375,-1.7700194120407104,-1.4343260526657104,-0.2136230319738388,93.33334350585938,107157.0,1.0
15:35:20.092374,164906.796875,188787.40625,180651.359375,200120.453125,190208.171875,188765.046875,690761.625,199969.4375,0.0517578125,1.012939453125,0.0322265625,-1.7700194120407104,-1.4953612089157104,-0.2136230319738388,93.33334350585938,107158.0,1.0
15:35:20.104248,164923.609375,188787.578125,180655.296875,200121.609375,190209.59375,188764.6875,690503.8125,199969.53125,0.0517578125,1.012451171875,0.03466796875,-1.8615721464157104,-1.4343260526657104,-0.2441406100988388,93.33334350585938,107159.0,1.0
15:35:20.104267,165009.53125,188802.78125,180668.265625,200126.625,190223.1875,188768.984375,690647.3125,199970.15625,0.052490234375,1.012939453125,0.0302734375,-1.7700194120407104,-1.4343260526657104,-0.1831054538488388,93.33334350585938,107160.0,1.0
15:35:20.104270,164979.84375,188809.125,180663.4375,200074.140625,190225.953125,188775.875,691018.6875,199958.890625,0.050537109375,1.0126953125,0.031982421875,-1.7700194120407104,-1.4038084745407104,-0.1831054538488388,93.33334350585938,107161.0,1.0
15:35:20.107289,164913.328125,188791.609375,180654.046875,200109.71875,190215.671875,188771.21875,690838.0,199967.125,0.0517578125,1.010986328125,0.029541015625,-1.7089842557907104,-1.3122557401657104,-0.1525878757238388,93.33334350585938,107162.0,1.0
15:35:20.107321,164913.5,188788.75,180656.109375,200116.421875,190214.34375,188770.140625,690511.875,199966.40625,0.051025390625,1.011962890625,0.031005859375,-1.7089842557907104,-1.3427733182907104,-0.1525878757238388,93.33334350585938,107163.0,1.0
15:35:20.109321,165003.796875,188806.53125,180672.375,200121.078125,190227.03125,188773.8125,690583.1875,199968.640625,0.051513671875,1.010986328125,0.03076171875,-1.6174315214157104,-1.2817381620407104,-0.1525878757238388,93.33334350585938,107164.0,1.0
15:35:20.116786,164998.0,188815.390625,180670.40625,200078.609375,190231.6875,188778.90625,690960.125,199962.5625,0.051513671875,1.0107421875,0.032958984375,-1.4953612089157104,-1.3122557401657104,-0.1220703050494194,93.33334350585938,107165.0,1.0
15:35:20.123697,164921.8125,188792.765625,180655.921875,200095.59375,190218.71875,188768.890625,690905.625,199967.484375,0.052978515625,1.010986328125,0.032470703125,-1.5258787870407104,-1.1596678495407104,-0.2136230319738388,93.33334350585938,107166.0,1.0
15:35:20.123726,164904.109375,188779.53125,180651.546875,200119.109375,190210.21875,188759.5,690539.0,199971.859375,0.052734375,1.01025390625,0.03173828125,-1.5258787870407104,-1.2207030057907104,-0.0610351525247097,93.33334350585938,107167.0,1.0
15:35:20.133044,164981.625,188788.921875,180660.046875,200120.453125,190215.5,188755.84375,690560.5625,199972.03125,0.05322265625,1.0107421875,0.030517578125,-1.5563963651657104,-1.1291502714157104,-0.0915527269244194,93.33334350585938,107168.0,1.0
15:35:20.135572,164997.546875,188798.578125,180658.25,200085.671875,190217.5625,188758.796875,690909.8125,199966.140625,0.052734375,1.010009765625,0.03125,-1.4953612089157104,-1.1291502714157104,-0.1831054538488388,93.33334350585938,107169.0,1.0
15:35:20.160503,164920.203125,188780.515625,180643.046875,200079.140625,190202.171875,188751.8125,690978.8125,199964.4375,0.054443359375,1.01025390625,0.033935546875,-1.5258787870407104,-1.0375975370407104,-0.1831054538488388,93.33334350585938,107170.0,1.0
15:35:20.193784,164884.890625,188762.28125,180632.765625,200109.453125,190188.140625,188740.640625,690578.25,199961.75,0.05322265625,1.0087890625,0.032470703125,-1.4648436307907104,-0.9460448622703552,-0.1831054538488388,93.33334350585938,107171.0,1.0
15:35:20.193808,164959.8125,188778.546875,180649.046875,200113.296875,190202.09375,188747.171875,690522.5625,199965.328125,0.0537109375,1.009765625,0.03076171875,-1.4343260526657104,-0.7934569716453552,-0.2441406100988388,93.33334350585938,107172.0,1.0
15:35:20.221861,165002.1875,188792.765625,180653.6875,200090.859375,190210.3125,188751.640625,690825.6875,199957.828125,0.053955078125,1.010009765625,0.030029296875,-1.4648436307907104,-0.7934569716453552,-0.2746581733226776,93.33334350585938,107173.0,1.0
15:35:20.224308,164934.0625,188787.21875,180645.28125,200068.953125,190203.609375,188754.59375,691021.0,199954.15625,0.052734375,1.00927734375,0.027099609375,-1.4038084745407104,-0.6408690810203552,-0.3051757514476776,93.33334350585938,107174.0,1.0
15:35:20.228445,164894.734375,188773.640625,180641.359375,200118.390625,190196.015625,188752.171875,690634.5,199965.953125,0.052490234375,1.00927734375,0.029296875,-1.3427733182907104,-0.5798339247703552,-0.2746581733226776,93.33334350585938,107175.0,1.0
15:35:20.229278,164949.265625,188785.4375,180652.078125,200114.640625,190203.34375,188758.4375,690517.0625,199964.34375,0.052001953125,1.009765625,0.030517578125,-1.4038084745407104,-0.4577636420726776,-0.3662109076976776,93.33334350585938,107176.0,1.0
15:35:20.231731,165010.515625,188801.4375,180659.0625,200103.28125,190212.640625,188764.515625,690770.6875,199960.234375,0.049072265625,1.010986328125,0.03125,-1.3732908964157104,-0.4577636420726776,-0.3662109076976776,93.33334350585938,107177.0,1.0
15:35:20.238157,164949.890625,188798.125,180651.359375,200065.28125,190208.4375,188768.453125,691055.5625,199953.4375,0.0517578125,1.010986328125,0.030517578125,-1.3427733182907104,-0.4272460639476776,-0.4272460639476776,93.33334350585938,107178.0,1.0
15:35:20.240559,164895.0,188776.40625,180641.4375,200115.890625,190193.953125,188758.609375,690706.75,199964.609375,0.05224609375,1.01123046875,0.03515625,-1.4648436307907104,-0.3662109076976776,-0.3967284858226776,93.33334350585938,107179.0,1.0
15:35:20.243008,164929.59375,188780.875,180648.6875,200113.5625,190196.09375,188759.0625,690515.0625,199964.34375,0.052001953125,1.010986328125,0.03515625,-1.4953612089157104,-0.2746581733226776,-0.4577636420726776,93.33334350585938,107180.0,1.0
15:35:20.247751,165011.21875,188798.578125,180661.375,200118.390625,190209.875,188763.53125,690713.9375,199967.75,0.05126953125,1.012939453125,0.033447265625,-1.4648436307907104,-0.2441406100988388,-0.4272460639476776,93.33334350585938,107181.0,1.0
15:35:20.247787,164970.453125,188805.90625,180660.75,200074.59375,190216.84375,188774.171875,691053.125,199965.953125,0.050048828125,1.013427734375,0.033203125,-1.4343260526657104,-0.1831054538488388,-0.3662109076976776,93.33334350585938,107182.0,1.0
15:35:20.247798,164908.859375,188786.6875,180652.796875,200121.96875,190208.796875,188767.109375,690780.625,199977.484375,0.050048828125,1.013671875,0.03125,-1.4343260526657104,-0.0915527269244194,-0.3662109076976776,93.33334350585938,107183.0,1.0
15:35:20.251202,164923.0625,188786.953125,180655.75,200123.046875,190208.96875,188766.125,690504.8125,199976.0625,0.0478515625,1.0126953125,0.03271484375,-1.4038084745407104,-0.0610351525247097,-0.4577636420726776,93.33334350585938,107184.0,1.0
15:35:20.251225,165008.09375,188803.046875,180668.71875,200125.8125,190222.734375,188769.25,690638.8125,199975.609375,0.048095703125,1.013427734375,0.03076171875,-1.4343260526657104,-0.0915527269244194,-0.4272460639476776,93.33334350585938,107185.0,1.0
15:35:20.253614,164978.953125,188806.09375,180662.984375,200072.984375,190224.171875,188773.28125,691013.625,199967.203125,0.049072265625,1.013916015625,0.033203125,-1.3732908964157104,-0.03051757626235485,-0.4882812201976776,93.33334350585938,107186.0,1.0
15:35:20.253639,164908.3125,188784.984375,180649.046875,200102.03125,190211.203125,188765.40625,690853.1875,199970.15625,0.050048828125,1.0126953125,0.031005859375,-1.3732908964157104,0.0,-0.4882812201976776,93.33334350585938,107187.0,1.0
15:35:20.256165,164906.703125,188781.140625,180648.140625,200115.53125,190207.8125,188763.078125,690518.375,199972.65625,0.049072265625,1.01123046875,0.032470703125,-1.3427733182907104,-0.03051757626235485,-0.3662109076976776,93.33334350585938,107188.0,1.0
15:35:20.256241,164996.03125,188797.59375,180664.234375,200123.765625,190220.78125,188766.21875,690597.6875,199975.171875,0.0478515625,1.01123046875,0.031494140625,-1.3732908964157104,-0.0610351525247097,-0.4577636420726776,93.33334350585938,107189.0,1.0
15:35:20.258060,164995.21875,188807.78125,180666.65625,200083.796875,190229.09375,188771.9375,690966.5,199969.4375,0.0478515625,1.01123046875,0.030517578125,-1.2817381620407104,-0.03051757626235485,-0.4577636420726776,93.33334350585938,107190.0,1.0
15:35:20.263121,164925.484375,188791.875,180658.96875,200103.90625,190223.015625,188768.71875,690933.5,199976.6875,0.0458984375,1.011962890625,0.031005859375,-1.2817381620407104,-0.0610351525247097,-0.4272460639476776,93.33334350585938,107191.0,1.0
15:35:20.265473,164908.40625,188784.09375,180658.703125,200131.359375,190220.328125,188766.296875,690552.375,199982.140625,0.046630859375,1.014404296875,0.031005859375,-1.2512205839157104,-0.0915527269244194,-0.3662109076976776,93.33334350585938,107192.0,1.0
15:35:20.268006,164984.3125,188796.171875,180669.0625,200126.71875,190228.109375,188766.03125,690557.0625,199976.953125,0.046875,1.014892578125,0.028076171875,-1.2817381620407104,-0.0610351525247097,-0.2746581733226776,93.33334350585938,107193.0,1.0
15:35:20.270635,165004.703125,188808.140625,180668.984375,200090.40625,190232.671875,188770.765625,690902.125,199968.109375,0.045166015625,1.015625,0.03173828125,-1.2512205839157104,-0.03051757626235485,-0.3356933295726776,93.33334350585938,107194.0,1.0
15:35:20.275350,164932.015625,188795.453125,180656.015625,200083.34375,190220.78125,188768.890625,690996.625,199967.390625,0.044921875,1.01708984375,0.033935546875,-1.1901854276657104,-0.0915527269244194,-0.1831054538488388,93.33334350585938,107195.0,1.0
15:35:20.275434,164896.875,188778.1875,180648.0625,200120.28125,190207.359375,188759.953125,690590.1875,199970.703125,0.04638671875,1.01513671875,0.032958984375,-1.2817381620407104,-0.1220703050494194,-0.1220703050494194,93.33334350585938,107196.0,1.0
15:35:20.275464,164964.734375,188789.8125,180660.578125,200119.015625,190215.328125,188761.828125,690535.8125,199968.90625,0.0458984375,1.01416015625,0.030517578125,-1.2512205839157104,-0.2136230319738388,-0.0915527269244194,93.33334350585938,107197.0,1.0
15:35:20.278657,165011.40625,188801.4375,180664.15625,200098.8125,190222.296875,188764.609375,690835.5,199961.578125,0.045654296875,1.0146484375,0.029541015625,-1.2817381620407104,-0.2136230319738388,-0.1220703050494194,93.33334350585938,107198.0,1.0
15:35:20.278818,164938.53125,188789.28125,180650.203125,200069.84375,190211.03125,188760.765625,691043.0,199954.78125,0.047607421875,1.01416015625,0.02734375,-1.1901854276657104,-0.2441406100988388,0.2136230319738388,93.33334350585938,107199.0,1.0
15:35:20.281071,164892.671875,188770.6875,180642.15625,200116.96875,190199.3125,188751.375,690645.625,199963.984375,0.048095703125,1.012451171875,0.02783203125,-1.2817381620407104,-0.1220703050494194,0.2136230319738388,93.33334350585938,107200.0,1.0
15:35:20.283588,164942.296875,188779.359375,180649.9375,200109.1875,190204.0625,188752.71875,690508.4375,199962.109375,0.049072265625,1.0126953125,0.029541015625,-1.2817381620407104,-0.1831054538488388,0.2136230319738388,93.33334350585938,107201.0,1.0
15:35:20.283620,165008.546875,188797.140625,180658.515625,200101.40625,190216.03125,188758.34375,690750.5,199962.65625,0.04833984375,1.01123046875,0.029541015625,-1.3122557401657104,-0.2441406100988388,0.3356933295726776,93.33334350585938,107202.0,1.0
15:35:20.285646,164949.796875,188793.921875,180650.203125,200059.65625,190211.03125,188760.140625,691052.25,199957.109375,0.048828125,1.009521484375,0.029296875,-1.2817381620407104,-0.1831054538488388,0.3662109076976776,93.33334350585938,107203.0,1.0
15:35:20.288708,164892.765625,188769.515625,180639.203125,200108.375,190195.390625,188747.34375,690717.75,199966.9375,0.048828125,1.00927734375,0.02783203125,-1.2512205839157104,-0.1525878757238388,0.4882812201976776,93.33334350585938,107204.0,1.0
15:35:20.288785,164922.71875,188771.84375,180643.5,200101.59375,190196.1875,188745.375,690506.125,199961.671875,0.0478515625,1.009521484375,0.02685546875,-1.3427733182907104,-0.1831054538488388,0.3967284858226776,93.33334350585938,107205.0,1.0
15:35:20.290491,164999.953125,188785.25,180652.96875,200101.671875,190206.734375,188748.0625,690686.5625,199961.046875,0.047607421875,1.0107421875,0.02783203125,-1.3122557401657104,-0.2136230319738388,0.4577636420726776,93.33334350585938,107206.0,1.0
15:35:20.293005,164956.234375,188787.671875,180645.828125,200052.328125,190203.4375,188752.984375,691042.5,199951.46875,0.046875,1.0107421875,0.029052734375,-1.2512205839157104,-0.2136230319738388,0.5493163466453552,93.33334350585938,107207.0,1.0
15:35:20.295551,164895.4375,188769.796875,180638.21875,200098.8125,190192.171875,188747.796875,690793.375,199962.296875,0.0478515625,1.01171875,0.0302734375,-1.2207030057907104,-0.1831054538488388,0.5798339247703552,93.33334350585938,107208.0,1.0
15:35:20.298637,164909.484375,188771.125,180642.875,200104.09375,190193.234375,188749.3125,690511.0625,199964.53125,0.04833984375,1.014404296875,0.02880859375,-1.1596678495407104,-0.1831054538488388,0.6103515028953552,93.33334350585938,107209.0,1.0
15:35:20.298668,164996.921875,188788.75,180657.0,200110.34375,190206.734375,188754.046875,690636.5625,199964.96875,0.051025390625,1.0146484375,0.028564453125,-1.1596678495407104,-0.2136230319738388,0.6103515028953552,93.33334350585938,107210.0,1.0
15:35:20.300487,164974.75,188796.171875,180654.046875,200061.359375,190209.515625,188759.234375,691009.9375,199954.0625,0.04931640625,1.015869140625,0.029541015625,-1.1291502714157104,-0.2136230319738388,0.6103515028953552,93.33334350585938,107211.0,1.0
15:35:20.304235,164907.421875,188779.09375,180645.640625,200095.859375,190199.859375,188751.640625,690871.1875,199963.0,0.050537109375,1.015380859375,0.027099609375,-1.0375975370407104,-0.2746581733226776,0.5798339247703552,93.33334350585938,107212.0,1.0
15:35:20.314852,164906.625,188775.59375,180647.796875,200112.859375,190199.5,188750.296875,690530.0,199967.03125,0.05224609375,1.013916015625,0.02880859375,-1.0375975370407104,-0.1831054538488388,0.6408690810203552,93.33334350585938,107213.0,1.0
15:35:20.314895,164999.15625,188796.609375,180666.75,200121.078125,190218.0,188757.71875,690586.9375,199971.671875,0.052978515625,1.01416015625,0.028564453125,-0.9765624403953552,-0.1220703050494194,0.6408690810203552,93.33334350585938,107214.0,1.0
15:35:20.329980,165004.15625,188810.015625,180670.140625,200082.1875,190227.125,188765.3125,690957.1875,199966.84375,0.04931640625,1.01513671875,0.027587890625,-0.9155272841453552,-0.0610351525247097,0.5798339247703552,93.33334350585938,107215.0,1.0
15:35:20.330007,164934.421875,188797.234375,180662.984375,200096.21875,190218.8125,188763.53125,690946.1875,199972.390625,0.049072265625,1.013427734375,0.032958984375,-0.9460448622703552,0.0,0.4272460639476776,93.33334350585938,107216.0,1.0
15:35:20.334351,164918.515625,188792.671875,180664.328125,200127.15625,190217.015625,188765.046875,690558.8125,199979.09375,0.046875,1.014404296875,0.03173828125,-0.9765624403953552,-0.03051757626235485,0.3051757514476776,93.33334350585938,107217.0,1.0
15:35:20.334407,164996.65625,188806.625,180679.078125,200129.84375,190229.8125,188771.125,690552.0,199980.078125,0.046142578125,1.01318359375,0.032470703125,-0.9765624403953552,0.0610351525247097,0.1220703050494194,93.33334350585938,107218.0,1.0
15:35:20.334423,165019.984375,188816.28125,180679.625,200098.453125,190236.953125,188776.859375,690885.75,199972.84375,0.0458984375,1.013671875,0.0322265625,-1.0375975370407104,-0.0915527269244194,0.03051757626235485,93.33334350585938,107219.0,1.0
15:35:20.336899,164949.265625,188806.890625,180672.015625,200092.640625,190231.421875,188778.8125,691001.25,199976.328125,0.04736328125,1.013427734375,0.031982421875,-1.1596678495407104,-0.2136230319738388,-0.0915527269244194,93.33334350585938,107220.0,1.0
15:35:20.340702,164915.5625,188793.75,180666.5625,200134.84375,190222.921875,188773.546875,690594.9375,199984.015625,0.04736328125,1.013916015625,0.031494140625,-1.0986326932907104,-0.1831054538488388,-0.2136230319738388,93.33334350585938,107221.0,1.0
15:35:20.357240,164979.03125,188806.890625,180677.296875,200128.140625,190230.34375,188777.296875,690530.25,199976.5,0.046875,1.01220703125,0.03125,-1.2512205839157104,-0.3051757514476776,-0.3967284858226776,93.33334350585938,107222.0,1.0
15:35:20.357311,165028.125,188819.59375,180683.28125,200109.71875,190238.5625,188781.40625,690821.9375,199972.9375,0.047119140625,1.01220703125,0.030517578125,-1.2512205839157104,-0.2746581733226776,-0.3051757514476776,93.33334350585938,107223.0,1.0
15:35:20.358698,164956.59375,188808.40625,180668.53125,200075.296875,190228.015625,188779.09375,691045.1875,199966.046875,0.04638671875,1.0107421875,0.029541015625,-1.2817381620407104,-0.1525878757238388,-0.3356933295726776,93.33334350585938,107224.0,1.0
15:35:20.358757,164907.421875,188787.140625,180658.703125,200121.796875,190216.75,188769.078125,690663.1875,199977.40625,0.048828125,1.01220703125,0.026611328125,-1.3122557401657104,-0.2441406100988388,-0.4577636420726776,93.33334350585938,107225.0,1.0
15:35:20.360615,164956.859375,188796.875,180670.046875,200122.515625,190224.890625,188770.859375,690519.8125,199980.796875,0.0498046875,1.01318359375,0.029296875,-1.3427733182907104,-0.2441406100988388,-0.4882812201976776,93.33334350585938,107226.0,1.0
15:35:20.365858,165030.890625,188818.96875,180685.34375,200124.296875,190240.53125,188778.1875,690755.375,199984.828125,0.05126953125,1.0126953125,0.031982421875,-1.2817381620407104,-0.2136230319738388,-0.3967284858226776,93.33334350585938,107227.0,1.0
15:35:20.368225,164974.5625,188817.078125,180679.0,200081.03125,190235.171875,188779.359375,691056.5,199976.6875,0.05029296875,1.011474609375,0.03125,-1.3427733182907104,-0.2136230319738388,-0.3967284858226776,93.33334350585938,107228.0,1.0
15:35:20.374638,164919.9375,188798.84375,180673.546875,200131.625,190226.234375,188772.921875,690726.9375,199989.03125,0.049072265625,1.01171875,0.03125,-1.2207030057907104,-0.1220703050494194,-0.3356933295726776,93.33334350585938,107229.0,1.0
15:35:20.378624,164947.390625,188802.609375,180677.390625,200125.90625,190227.5625,188773.28125,690507.3125,199986.15625,0.05126953125,1.012939453125,0.0302734375,-1.2817381620407104,-0.0610351525247097,-0.3051757514476776,93.33334350585938,107230.0,1.0
15:35:20.378644,165028.390625,188817.71875,180687.046875,200126.625,190239.1875,188777.296875,690691.375,199985.8125,0.051025390625,1.012939453125,0.029052734375,-1.3732908964157104,-0.03051757626235485,-0.1525878757238388,93.33334350585938,107231.0,1.0
15:35:20.388197,164984.484375,188817.984375,180678.453125,200074.5,190238.125,188781.40625,691042.5,199977.140625,0.048583984375,1.013427734375,0.02978515625,-1.3122557401657104,0.0610351525247097,-0.1220703050494194,93.33334350585938,107232.0,1.0
15:35:20.394946,164915.5625,188791.421875,180663.265625,200113.03125,190222.109375,188768.625,690815.625,199984.28125,0.048828125,1.013916015625,0.02685546875,-1.3122557401657104,0.0610351525247097,-0.0915527269244194,93.33334350585938,107233.0,1.0
15:35:20.394966,164920.828125,188785.875,180660.578125,200114.546875,190217.203125,188763.265625,690524.0,199980.796875,0.048583984375,1.01416015625,0.0322265625,-1.3122557401657104,0.0915527269244194,0.0,93.33334350585938,107234.0,1.0
15:35:20.397408,165005.40625,188800.546875,180672.203125,200117.5,190225.78125,188764.328125,690621.625,199979.375,0.04638671875,1.0126953125,0.03271484375,-1.3732908964157104,0.0610351525247097,0.1220703050494194,93.33334350585938,107235.0,1.0
15:35:20.397427,164988.15625,188810.296875,180672.5625,200068.953125,190229.625,188771.125,691002.4375,199970.421875,0.045166015625,1.0126953125,0.03173828125,-1.5563963651657104,-0.03051757626235485,0.1220703050494194,93.33334350585938,107236.0,1.0
15:35:20.407089,164920.203125,188793.21875,180665.671875,200098.734375,190220.15625,188768.0,690888.6875,199980.0,0.045654296875,1.013427734375,0.030517578125,-1.5563963651657104,0.0610351525247097,0.1525878757238388,93.33334350585938,107237.0,1.0
15:35:20.417332,164910.640625,188784.265625,180663.703125,200111.875,190214.0625,188764.78125,690539.125,199982.859375,0.045654296875,1.013916015625,0.032470703125,-1.5258787870407104,0.0,0.2136230319738388,93.33334350585938,107238.0,1.0
15:35:20.417353,164993.078125,188799.03125,180676.40625,200113.75,190223.28125,188768.453125,690584.375,199982.140625,0.04443359375,1.014892578125,0.032470703125,-1.6479490995407104,-0.0610351525247097,0.2136230319738388,93.33334350585938,107239.0,1.0
15:35:20.423674,165000.5,188812.171875,180678.1875,200071.90625,190229.171875,188777.03125,690952.25,199970.703125,0.04443359375,1.013916015625,0.031494140625,-1.6479490995407104,0.0610351525247097,0.2746581733226776,93.33334350585938,107240.0,1.0
15:35:20.423694,164928.25,188797.953125,180668.265625,200080.390625,190218.625,188773.359375,690962.75,199971.140625,0.043212890625,1.01123046875,0.035400390625,-1.5258787870407104,-0.0915527269244194,0.2136230319738388,93.33334350585938,107241.0,1.0
15:35:20.430557,164911.09375,188791.515625,180668.984375,200116.34375,190215.40625,188772.734375,690564.75,199979.09375,0.04443359375,1.010009765625,0.033203125,-1.5258787870407104,-0.0915527269244194,0.2136230319738388,93.33334350585938,107242.0,1.0
15:35:20.433102,164991.90625,188809.03125,180686.0625,200120.28125,190228.90625,188778.015625,690553.0,199977.84375,0.046142578125,1.00927734375,0.031494140625,-1.4953612089157104,-0.1220703050494194,0.2441406100988388,93.33334350585938,107243.0,1.0
15:35:20.437292,165021.234375,188820.75,180690.703125,200092.921875,190237.765625,188781.328125,690885.5625,199971.5,0.04833984375,1.009521484375,0.031982421875,-1.4648436307907104,-0.0915527269244194,0.1525878757238388,93.33334350585938,107244.0,1.0
15:35:20.438625,164950.15625,188808.765625,180681.40625,200081.296875,190229.53125,188778.90625,691020.5,199971.328125,0.0478515625,1.010498046875,0.029541015625,-1.5563963651657104,-0.0915527269244194,0.2441406100988388,93.33334350585938,107245.0,1.0
15:35:20.438646,164909.296875,188788.75,180672.828125,200118.484375,190218.625,188768.265625,690611.0,199976.859375,0.047607421875,1.01171875,0.031005859375,-1.5258787870407104,-0.0610351525247097,0.1831054538488388,93.33334350585938,107246.0,1.0
15:35:20.444481,164964.28125,188796.171875,180678.640625,200109.015625,190223.546875,188767.109375,690520.3125,199974.265625,0.047119140625,1.010498046875,0.028564453125,-1.3732908964157104,-0.0610351525247097,0.2746581733226776,93.33334350585938,107247.0,1.0
15:35:20.453784,165017.03125,188808.59375,180679.34375,200092.46875,190225.609375,188766.65625,690799.0,199968.546875,0.04931640625,1.01220703125,0.030029296875,-1.4038084745407104,-0.0915527269244194,0.3356933295726776,93.33334350585938,107248.0,1.0
15:35:20.453812,164949.890625,188798.578125,180664.328125,200058.671875,190210.671875,188762.375,691044.25,199961.84375,0.048095703125,1.011474609375,0.0263671875,-1.4343260526657104,-0.0610351525247097,0.2441406100988388,93.33334350585938,107249.0,1.0
15:35:20.457483,164898.125,188773.984375,180653.609375,200105.703125,190195.109375,188749.5,690669.5,199969.171875,0.049072265625,1.01171875,0.029541015625,-1.4648436307907104,0.1220703050494194,0.3356933295726776,93.33334350585938,107250.0,1.0
15:35:20.457510,164940.0625,188777.828125,180660.21875,200101.140625,190198.875,188747.703125,690503.0,199966.671875,0.050048828125,1.013916015625,0.028564453125,-1.4648436307907104,0.0915527269244194,0.3051757514476776,93.33334350585938,107251.0,1.0
15:35:20.464402,165014.265625,188795.0,180672.015625,200100.6875,190211.390625,188749.9375,690716.75,199966.84375,0.048828125,1.014404296875,0.0302734375,-1.4953612089157104,0.1831054538488388,0.4577636420726776,93.33334350585938,107252.0,1.0
15:35:20.471135,164964.375,188796.609375,180668.53125,200059.125,190210.765625,188755.21875,691048.3125,199960.328125,0.049072265625,1.013671875,0.030517578125,-1.4343260526657104,0.1831054538488388,0.4272460639476776,93.33334350585938,107253.0,1.0
15:35:20.471152,164908.3125,188777.390625,180661.375,200110.96875,190199.765625,188748.328125,690741.1875,199972.84375,0.051025390625,1.012451171875,0.03125,-1.4648436307907104,0.3051757514476776,0.4577636420726776,93.33334350585938,107254.0,1.0
15:35:20.473140,164933.703125,188781.140625,180665.5,200109.90625,190202.09375,188750.484375,690509.25,199972.03125,0.049072265625,1.01416015625,0.02978515625,-1.4648436307907104,0.2746581733226776,0.6103515028953552,93.33334350585938,107255.0,1.0
15:35:20.481761,165014.359375,188795.625,180676.40625,200109.90625,190215.59375,188755.9375,690671.0625,199970.15625,0.048583984375,1.0126953125,0.030029296875,-1.4343260526657104,0.3051757514476776,0.6408690810203552,93.33334350585938,107256.0,1.0
15:35:20.492366,164977.609375,188800.90625,180671.3125,200057.421875,190217.921875,188763.359375,691035.9375,199962.828125,0.048583984375,1.013427734375,0.03173828125,-1.4038084745407104,0.3662109076976776,0.5493163466453552,93.33334350585938,107257.0,1.0
15:35:20.492400,164913.953125,188784.0,180665.3125,200099.53125,190209.78125,188760.140625,690823.6875,199973.109375,0.0478515625,1.0146484375,0.033447265625,-1.3732908964157104,0.3967284858226776,0.5798339247703552,93.33334350585938,107258.0,1.0
15:35:20.494980,164924.953125,188786.515625,180672.5625,200110.625,190214.96875,188762.640625,690524.125,199977.3125,0.051025390625,1.016357421875,0.031494140625,-1.4953612089157104,0.3662109076976776,0.6103515028953552,93.33334350585938,107259.0,1.0
15:35:20.495008,165013.453125,188803.578125,180687.84375,200116.875,190229.890625,188766.21875,690629.6875,199979.375,0.05078125,1.012451171875,0.03125,-1.4343260526657104,0.3356933295726776,0.5493163466453552,93.33334350585938,107260.0,1.0
15:35:20.501771,164998.171875,188810.828125,180684.453125,200070.203125,190232.390625,188771.75,691003.125,199972.03125,0.050537109375,1.013671875,0.03271484375,-1.4648436307907104,0.4272460639476776,0.5798339247703552,93.33334350585938,107261.0,1.0
15:35:20.546235,164929.15625,188794.375,180675.0625,200096.484375,190221.21875,188767.109375,690907.125,199978.921875,0.05078125,1.013916015625,0.03173828125,-1.4343260526657104,0.4272460639476776,0.5493163466453552,93.33334350585938,107262.0,1.0
15:35:20.546261,164919.3125,188786.859375,180674.34375,200112.140625,190216.578125,188763.984375,690545.375,199978.46875,0.049072265625,1.013916015625,0.03125,-1.4343260526657104,0.4272460639476776,0.6103515028953552,93.33334350585938,107263.0,1.0
15:35:20.548020,165003.71875,188799.65625,180688.03125,200115.53125,190228.640625,188765.5,690594.75,199977.484375,0.047607421875,1.011474609375,0.027587890625,-1.4953612089157104,0.3662109076976776,0.5798339247703552,93.33334350585938,107264.0,1.0
15:35:20.550478,165015.6875,188813.234375,180690.703125,200080.21875,190238.484375,188773.984375,690956.1875,199972.9375,0.047119140625,1.00927734375,0.0283203125,-1.3732908964157104,0.4882812201976776,0.5798339247703552,93.33334350585938,107265.0,1.0
15:35:20.553000,164942.65625,188798.125,180679.796875,200083.703125,190230.15625,188770.421875,690987.375,199975.34375,0.046142578125,1.009765625,0.0322265625,-1.2512205839157104,0.4272460639476776,0.5187987685203552,93.33334350585938,107266.0,1.0
15:35:20.555537,164918.953125,188786.953125,180676.84375,200117.0625,190224.625,188766.21875,690593.8125,199983.03125,0.04736328125,1.0087890625,0.030029296875,-1.2207030057907104,0.4272460639476776,0.4577636420726776,93.33334350585938,107267.0,1.0
15:35:20.558001,164992.453125,188801.703125,180690.078125,200116.34375,190233.734375,188769.34375,690554.75,199983.125,0.048828125,1.009765625,0.028564453125,-1.1901854276657104,0.4272460639476776,0.4272460639476776,93.33334350585938,107268.0,1.0
15:35:20.560604,165018.734375,188809.125,180685.96875,200082.90625,190234.09375,188768.1875,690877.6875,199972.3125,0.0478515625,1.010009765625,0.028076171875,-1.1901854276657104,0.4577636420726776,0.4272460639476776,93.33334350585938,107269.0,1.0
15:35:20.562999,164946.3125,188797.59375,180673.71875,200066.09375,190222.109375,188764.328125,691034.9375,199970.421875,0.04833984375,1.010986328125,0.028076171875,-1.1596678495407104,0.4577636420726776,0.3662109076976776,93.33334350585938,107270.0,1.0
15:35:20.565464,164910.46875,188782.21875,180668.265625,200112.859375,190212.453125,188756.828125,690629.6875,199980.703125,0.048828125,1.008544921875,0.02685546875,-1.1596678495407104,0.4577636420726776,0.3967284858226776,93.33334350585938,107271.0,1.0
15:35:20.568009,164968.21875,188791.78125,180677.5625,200107.21875,190216.9375,188757.0,690532.6875,199977.765625,0.04931640625,1.0078125,0.029296875,-1.0986326932907104,0.4577636420726776,0.3967284858226776,93.33334350585938,107272.0,1.0
15:35:20.573055,165019.453125,188801.265625,180679.703125,200089.078125,190220.5,188755.75,690802.0,199971.59375,0.048828125,1.00927734375,0.026611328125,-1.0681151151657104,0.3662109076976776,0.3662109076976776,93.33334350585938,107273.0,1.0
15:35:20.575464,164950.609375,188792.3125,180667.28125,200050.625,190211.5625,188755.125,691063.75,199962.109375,0.04833984375,1.0126953125,0.026123046875,-1.0986326932907104,0.3051757514476776,0.4272460639476776,93.33334350585938,107274.0,1.0
15:35:20.577981,164896.96875,188768.8125,180655.65625,200094.53125,190197.265625,188744.3125,690695.25,199964.4375,0.047119140625,1.0107421875,0.03076171875,-1.0986326932907104,0.3662109076976776,0.3967284858226776,93.33334350585938,107275.0,1.0
15:35:20.581686,164935.59375,188773.71875,180660.484375,200088.0,190198.328125,188742.875,690518.5625,199961.046875,0.048095703125,1.01318359375,0.02880859375,-1.0070799589157104,0.4272460639476776,0.4577636420726776,93.33334350585938,107276.0,1.0
15:35:20.581699,165007.734375,188786.59375,180667.28125,200084.78125,190205.046875,188741.71875,690719.875,199958.265625,0.04833984375,1.013916015625,0.030029296875,-1.0070799589157104,0.4272460639476776,0.4882812201976776,93.33334350585938,107277.0,1.0
15:35:20.581702,164955.796875,188785.53125,180658.078125,200036.328125,190200.125,188744.671875,691054.625,199948.171875,0.047119140625,1.013671875,0.02783203125,-0.9460448622703552,0.3662109076976776,0.4272460639476776,93.33334350585938,107278.0,1.0
15:35:20.584221,164899.375,188767.109375,180651.90625,200086.65625,190189.84375,188738.859375,690760.25,199959.515625,0.04736328125,1.015380859375,0.027099609375,-1.0070799589157104,0.3356933295726776,0.4882812201976776,93.33334350585938,107279.0,1.0
15:35:20.586758,164924.765625,188772.921875,180661.828125,200089.15625,190194.75,188741.171875,690515.6875,199959.078125,0.048095703125,1.014404296875,0.02685546875,-1.0986326932907104,0.2746581733226776,0.4882812201976776,93.33334350585938,107280.0,1.0
15:35:20.589827,165009.796875,188790.53125,180675.15625,200093.71875,190208.078125,188744.125,690668.0625,199956.5625,0.04736328125,1.014404296875,0.026123046875,-1.1596678495407104,0.3051757514476776,0.4577636420726776,93.33334350585938,107281.0,1.0
15:35:20.589845,164976.359375,188796.171875,180669.703125,200042.578125,190209.234375,188750.5625,691036.3125,199946.46875,0.044921875,1.01318359375,0.028564453125,-1.1901854276657104,0.3051757514476776,0.4272460639476776,93.33334350585938,107282.0,1.0
15:35:20.594336,164909.125,188775.25,180659.40625,200079.6875,190197.171875,188742.96875,690837.0,199954.25,0.044189453125,1.015380859375,0.025390625,-1.2512205839157104,0.2136230319738388,0.4882812201976776,93.33334350585938,107283.0,1.0
15:35:20.597369,164913.6875,188772.46875,180661.375,200088.09375,190197.0,188743.328125,690525.0625,199955.9375,0.04736328125,1.013916015625,0.028076171875,-1.2512205839157104,0.2441406100988388,0.4882812201976776,93.33334350585938,107284.0,1.0
15:35:20.597382,164996.921875,188784.90625,180671.03125,200089.25,190207.625,188745.46875,690605.8125,199955.140625,0.049560546875,1.01513671875,0.027099609375,-1.4038084745407104,0.2441406100988388,0.6103515028953552,93.33334350585938,107285.0,1.0
15:35:20.599265,164982.703125,188789.8125,180665.5,200040.96875,190208.53125,188747.796875,690987.5,199945.390625,0.05029296875,1.01611328125,0.02783203125,-1.4038084745407104,0.2136230319738388,0.7324218153953552,93.33334350585938,107286.0,1.0
15:35:20.601716,164911.890625,188771.84375,180655.84375,200066.546875,190198.0625,188743.140625,690912.8125,199953.171875,0.051513671875,1.0146484375,0.02880859375,-1.3427733182907104,0.1831054538488388,0.7629393935203552,93.33334350585938,107287.0,1.0
15:35:20.612362,164898.390625,188765.40625,180654.3125,200087.375,190193.328125,188741.171875,690546.625,199954.78125,0.05029296875,1.014404296875,0.02783203125,-1.3732908964157104,0.2136230319738388,0.8850097060203552,93.33334350585938,107288.0,1.0
15:35:20.612377,164982.34375,188781.859375,180668.890625,200089.78125,190206.015625,188746.09375,690574.375,199954.875,0.05078125,1.011962890625,0.0263671875,-1.3122557401657104,0.2441406100988388,0.9765624403953552,93.33334350585938,107289.0,1.0
15:35:20.614259,164998.4375,188796.703125,180674.25,200055.28125,190215.953125,188753.703125,690932.75,199950.125,0.051513671875,1.0126953125,0.027587890625,-1.3732908964157104,0.2746581733226776,0.9765624403953552,93.33334350585938,107290.0,1.0
15:35:20.620516,164923.875,188781.859375,180663.171875,200055.625,190205.484375,188748.15625,690983.125,199951.03125,0.05029296875,1.009765625,0.027099609375,-1.4648436307907104,0.3051757514476776,0.9765624403953552,93.33334350585938,107291.0,1.0
15:35:20.631130,164895.078125,188766.65625,180656.90625,200087.90625,190195.296875,188739.5625,690582.3125,199955.140625,0.048583984375,1.01220703125,0.026123046875,-1.4953612089157104,0.1525878757238388,0.8850097060203552,93.33334350585938,107292.0,1.0
15:35:20.631152,164967.140625,188779.171875,180670.328125,200088.171875,190205.671875,188743.140625,690550.75,199957.015625,0.047119140625,1.01171875,0.02392578125,-1.4343260526657104,0.2136230319738388,0.8850097060203552,93.33334350585938,107293.0,1.0
15:35:20.633552,165005.40625,188794.375,180675.78125,200066.265625,190214.78125,188748.328125,690868.6875,199955.40625,0.046630859375,1.011474609375,0.027099609375,-1.4648436307907104,0.2441406100988388,0.6713866591453552,93.33334350585938,107294.0,1.0
15:35:20.633573,164932.09375,188781.328125,180661.921875,200047.140625,190201.546875,188745.203125,691038.125,199953.53125,0.04541015625,1.013671875,0.026123046875,-1.4648436307907104,0.2441406100988388,0.5493163466453552,93.33334350585938,107295.0,1.0
15:35:20.640488,164890.796875,188762.640625,180652.4375,200090.328125,190187.96875,188736.796875,690632.5625,199958.890625,0.04345703125,1.011962890625,0.0283203125,-1.5258787870407104,0.2136230319738388,0.3356933295726776,93.33334350585938,107296.0,1.0
15:35:20.647356,164946.3125,188773.71875,180661.203125,200086.484375,190193.59375,188739.390625,690523.3125,199956.125,0.0439453125,1.014892578125,0.029052734375,-1.6174315214157104,0.0915527269244194,0.2746581733226776,93.33334350585938,107297.0,1.0
15:35:20.647383,165004.25,188788.75,180668.359375,200073.875,190202.265625,188744.390625,690782.8125,199951.46875,0.044921875,1.015380859375,0.02685546875,-1.7089842557907104,-0.03051757626235485,0.1831054538488388,93.33334350585938,107298.0,1.0
15:35:20.657627,164945.515625,188787.578125,180662.984375,200036.859375,190200.65625,188750.296875,691057.5625,199946.28125,0.047119140625,1.015625,0.029296875,-1.7700194120407104,-0.0610351525247097,0.0915527269244194,93.33334350585938,107299.0,1.0
15:35:20.657655,164898.484375,188772.65625,180658.4375,200088.890625,190195.5625,188746.453125,690696.0,199959.4375,0.04931640625,1.016357421875,0.02880859375,-1.8005369901657104,-0.0915527269244194,0.0610351525247097,93.33334350585938,107300.0,1.0
15:35:20.663581,164937.015625,188780.96875,180668.796875,200087.640625,190203.515625,188750.484375,690514.625,199961.9375,0.0498046875,1.01611328125,0.027099609375,-1.8310545682907104,-0.0915527269244194,0.1220703050494194,93.33334350585938,107301.0,1.0
15:35:20.663602,165012.5625,188794.734375,180678.015625,200086.828125,190214.15625,188751.90625,690724.75,199960.59375,0.050048828125,1.01416015625,0.029052734375,-1.8310545682907104,-0.1525878757238388,0.0915527269244194,93.33334350585938,107302.0,1.0
15:35:20.665522,164965.53125,188795.890625,180673.09375,200041.234375,190213.890625,188756.5625,691059.0,199955.234375,0.052001953125,1.0146484375,0.02880859375,-1.8615721464157104,-0.03051757626235485,0.0915527269244194,93.33334350585938,107303.0,1.0
15:35:20.682358,164906.96875,188777.65625,180667.1875,200093.1875,190205.84375,188750.125,690774.8125,199970.25,0.0517578125,1.013671875,0.028564453125,-1.9226073026657104,0.0,0.03051757626235485,93.33334350585938,107304.0,1.0
15:35:20.682388,164931.46875,188782.65625,180674.796875,200098.453125,190209.875,188751.109375,690521.5,199971.5,0.051025390625,1.014404296875,0.028076171875,-1.8920897245407104,0.0,0.03051757626235485,93.33334350585938,107305.0,1.0
15:35:20.684858,165019.625,188798.9375,180688.203125,200104.359375,190220.859375,188752.53125,690665.875,199971.046875,0.04931640625,1.014892578125,0.032470703125,-1.8005369901657104,0.0,0.0,93.33334350585938,107306.0,1.0
15:35:20.684876,164990.21875,188803.765625,180684.453125,200054.46875,190222.03125,188757.0,691034.25,199962.921875,0.049560546875,1.014892578125,0.031494140625,-1.8615721464157104,0.03051757626235485,0.2136230319738388,93.33334350585938,107307.0,1.0
15:35:20.686720,164916.625,188779.53125,180669.25,200085.578125,190206.375,188746.8125,690849.1875,199968.546875,0.0498046875,1.01416015625,0.033203125,-1.8920897245407104,0.03051757626235485,0.1525878757238388,93.33334350585938,107308.0,1.0
15:35:20.697368,164911.359375,188769.796875,180662.1875,200090.5,190198.515625,188740.90625,690521.3125,199965.875,0.048095703125,1.0126953125,0.031982421875,-1.9226073026657104,0.1220703050494194,0.2441406100988388,93.33334350585938,107309.0,1.0
15:35:20.697385,164994.421875,188782.03125,180671.65625,200093.0,190207.8125,188741.8125,690610.375,199962.828125,0.047607421875,1.01318359375,0.032470703125,-1.9531248807907104,0.0915527269244194,0.2746581733226776,93.33334350585938,107310.0,1.0
15:35:20.699815,164990.921875,188796.171875,180674.609375,200050.265625,190216.3125,188752.171875,690981.5,199958.0,0.04931640625,1.012451171875,0.034423828125,-1.9836424589157104,0.1220703050494194,0.2746581733226776,93.33334350585938,107311.0,1.0
15:35:20.699827,164923.875,188782.3125,180669.78125,200072.796875,190210.765625,188749.9375,690921.875,199968.546875,0.048828125,1.012939453125,0.034423828125,-2.044677495956421,0.0610351525247097,0.2441406100988388,93.33334350585938,107312.0,1.0
15:35:20.706764,164908.140625,188772.375,180666.296875,200093.1875,190204.234375,188743.765625,690542.0,199966.671875,0.04736328125,1.012451171875,0.033447265625,-2.105712652206421,0.03051757626235485,0.3051757514476776,93.33334350585938,107313.0,1.0
15:35:20.713592,164995.21875,188792.765625,180684.265625,200100.421875,190220.421875,188751.109375,690561.8125,199968.640625,0.046875,1.012939453125,0.03466796875,-2.044677495956421,-0.0610351525247097,0.3662109076976776,93.33334350585938,107314.0,1.0
15:35:20.713618,165015.15625,188807.875,180689.984375,200069.671875,190230.78125,188759.953125,690911.75,199964.890625,0.046142578125,1.0107421875,0.033935546875,-2.075195074081421,-0.0610351525247097,0.3662109076976776,93.33334350585938,107315.0,1.0
15:35:20.720487,164943.640625,188796.171875,180682.296875,200068.15625,190224.0,188759.5,690983.75,199967.921875,0.0458984375,1.009521484375,0.035400390625,-1.9226073026657104,-0.03051757626235485,0.3662109076976776,93.33334350585938,107316.0,1.0
15:35:20.725003,164912.25,188782.03125,180677.296875,200102.125,190215.234375,188753.515625,690588.75,199973.828125,0.046875,1.009765625,0.03173828125,-1.9531248807907104,0.0,0.3356933295726776,93.33334350585938,107317.0,1.0
15:35:20.725023,164982.078125,188793.75,180686.859375,200097.5625,190221.3125,188755.484375,690532.6875,199969.359375,0.045654296875,1.009033203125,0.03271484375,-1.9531248807907104,-0.0915527269244194,0.2441406100988388,93.33334350585938,107318.0,1.0
15:35:20.734532,165024.453125,188808.0625,180690.34375,200076.734375,190226.671875,188760.3125,690840.0625,199963.71875,0.046630859375,1.009521484375,0.031005859375,-1.9836424589157104,-0.1220703050494194,0.1220703050494194,93.33334350585938,107319.0,1.0
15:35:20.741759,164952.125,188796.703125,180677.296875,200052.5,190214.421875,188757.890625,691029.8125,199958.0,0.046630859375,1.01123046875,0.02880859375,-1.9836424589157104,-0.1220703050494194,0.2746581733226776,93.33334350585938,107320.0,1.0
15:35:20.741787,164904.203125,188774.703125,180665.046875,200092.734375,190198.515625,188745.65625,690632.625,199961.9375,0.0478515625,1.011962890625,0.03076171875,-1.9226073026657104,-0.1220703050494194,0.2441406100988388,93.33334350585938,107321.0,1.0
15:35:20.748573,164957.84375,188784.984375,180674.4375,200088.4375,190204.234375,188749.046875,690512.8125,199960.0625,0.047119140625,1.011962890625,0.033447265625,-1.8615721464157104,-0.0915527269244194,0.2746581733226776,93.33334350585938,107322.0,1.0
15:35:20.748599,165022.84375,188802.875,180685.78125,200084.59375,190216.75,188755.390625,690767.8125,199960.59375,0.047607421875,1.013671875,0.0341796875,-1.7395018339157104,-0.1831054538488388,0.1831054538488388,93.33334350585938,107323.0,1.0
15:35:20.761117,164959.640625,188796.078125,180675.328125,200045.4375,190210.578125,188754.953125,691043.1875,199953.34375,0.0478515625,1.012939453125,0.03271484375,-1.7700194120407104,-0.1525878757238388,0.2136230319738388,93.33334350585938,107324.0,1.0
15:35:20.761145,164906.078125,188774.34375,180666.203125,200094.078125,190199.578125,188745.109375,690695.25,199963.1875,0.0458984375,1.013671875,0.03271484375,-1.7395018339157104,-0.1831054538488388,0.2746581733226776,93.33334350585938,107325.0,1.0
15:35:20.763563,164936.84375,188777.828125,180669.34375,200086.484375,190200.21875,188742.875,690494.6875,199959.609375,0.048583984375,1.012939453125,0.0322265625,-1.8615721464157104,-0.1525878757238388,0.2136230319738388,93.33334350585938,107326.0,1.0
15:35:20.763589,165013.453125,188792.59375,180679.796875,200088.625,190212.109375,188745.65625,690684.5,199961.3125,0.049072265625,1.011962890625,0.03173828125,-1.9226073026657104,-0.1220703050494194,0.1525878757238388,93.33334350585938,107327.0,1.0
15:35:20.773599,164970.09375,188795.625,180674.609375,200040.34375,190214.609375,188751.90625,691029.3125,199954.421875,0.048583984375,1.01025390625,0.033935546875,-1.9531248807907104,-0.0915527269244194,0.2441406100988388,93.33334350585938,107328.0,1.0
15:35:20.773620,164912.4375,188778.546875,180668.625,200085.765625,190207.0,188747.34375,690760.0625,199962.03125,0.04736328125,1.012451171875,0.031982421875,-1.9531248807907104,-0.1220703050494194,0.2441406100988388,93.33334350585938,107329.0,1.0
15:35:20.776105,164928.96875,188780.78125,180672.109375,200087.109375,190207.453125,188748.78125,690495.125,199960.5,0.048583984375,1.012451171875,0.031982421875,-1.9836424589157104,-0.1525878757238388,0.2441406100988388,93.33334350585938,107330.0,1.0
15:35:20.776132,165014.359375,188797.5,180684.0,200091.484375,190218.984375,188752.796875,690631.8125,199960.6875,0.0458984375,1.013671875,0.0302734375,-1.8920897245407104,-0.1525878757238388,0.2136230319738388,93.33334350585938,107331.0,1.0
15:35:20.784294,164988.421875,188804.203125,180681.3125,200042.84375,190223.015625,188760.3125,691006.625,199953.53125,0.044677734375,1.01220703125,0.032958984375,-1.8920897245407104,-0.1525878757238388,0.1525878757238388,93.33334350585938,107332.0,1.0
15:35:20.794841,164919.765625,188783.109375,180670.59375,200077.625,190212.546875,188753.15625,690848.625,199962.109375,0.045654296875,1.011474609375,0.03369140625,-1.8310545682907104,-0.1831054538488388,0.1831054538488388,93.33334350585938,107333.0,1.0
15:35:20.794872,164918.78125,188780.34375,180671.9375,200090.953125,190210.5,188752.265625,690520.0,199964.703125,0.04736328125,1.013916015625,0.03369140625,-1.8615721464157104,-0.2136230319738388,0.1831054538488388,93.33334350585938,107334.0,1.0
15:35:20.797394,165006.75,188797.6875,180686.59375,200094.25,190221.84375,188756.734375,690584.625,199963.546875,0.0478515625,1.01513671875,0.029541015625,-1.9531248807907104,-0.2136230319738388,0.1525878757238388,93.33334350585938,107335.0,1.0
15:35:20.797410,165003.09375,188806.625,180683.828125,200046.953125,190224.265625,188761.75,690956.1875,199953.53125,0.044921875,1.0126953125,0.032470703125,-1.9836424589157104,-0.2746581733226776,0.1525878757238388,93.33334350585938,107336.0,1.0
15:35:20.804397,164928.703125,188787.84375,180669.421875,200061.890625,190210.671875,188756.375,690919.8125,199956.390625,0.047119140625,1.014404296875,0.033935546875,-1.8615721464157104,-0.2441406100988388,0.2136230319738388,93.33334350585938,107337.0,1.0
15:35:20.834081,164909.390625,188777.921875,180666.828125,200087.109375,190203.96875,188752.359375,690536.625,199960.59375,0.047119140625,1.01318359375,0.03564453125,-1.9836424589157104,-0.3051757514476776,0.2441406100988388,93.33334350585938,107338.0,1.0
15:35:20.834103,164987.890625,188792.40625,180679.4375,200086.65625,190214.78125,188754.40625,690546.0,199960.234375,0.048095703125,1.013671875,0.032470703125,-1.8920897245407104,-0.3356933295726776,0.2136230319738388,93.33334350585938,107339.0,1.0
15:35:20.836137,165006.75,188801.0,180678.90625,200051.515625,190219.515625,188755.65625,690887.625,199954.6875,0.046875,1.010986328125,0.03173828125,-1.8310545682907104,-0.2746581733226776,0.2746581733226776,93.33334350585938,107340.0,1.0
15:35:20.836150,164933.34375,188785.96875,180668.265625,200045.078125,190208.609375,188750.203125,690974.375,199954.6875,0.046875,1.01220703125,0.03369140625,-1.8920897245407104,-0.2746581733226776,0.1831054538488388,93.33334350585938,107341.0,1.0
15:35:20.838019,164902.953125,188772.5625,180663.890625,200085.578125,190199.578125,188742.96875,690577.125,199962.46875,0.0458984375,1.010498046875,0.033447265625,-1.8920897245407104,-0.1525878757238388,0.0,93.33334350585938,107342.0,1.0
15:35:20.840461,164975.1875,188789.1875,180679.984375,200085.3125,190212.109375,188747.96875,690516.125,199962.5625,0.04541015625,1.01318359375,0.031494140625,-1.8310545682907104,-0.2746581733226776,0.1220703050494194,93.33334350585938,107343.0,1.0
15:35:20.843073,165025.53125,188807.25,180688.734375,200069.765625,190225.0625,188754.046875,690815.625,199961.390625,0.04736328125,1.011474609375,0.033935546875,-1.8310545682907104,-0.2136230319738388,0.1525878757238388,93.33334350585938,107344.0,1.0
15:35:20.845556,164954.0,188796.609375,180678.015625,200045.078125,190216.9375,188752.625,691018.25,199956.21875,0.04541015625,1.0107421875,0.033447265625,-1.7089842557907104,-0.2746581733226776,0.0915527269244194,93.33334350585938,107345.0,1.0
15:35:20.848068,164908.40625,188776.40625,180668.890625,200089.96875,190205.671875,188745.203125,690630.125,199964.4375,0.045654296875,1.01171875,0.03125,-1.7395018339157104,-0.3051757514476776,0.3051757514476776,93.33334350585938,107346.0,1.0
15:35:20.851143,164956.78125,188783.5625,180675.5,200082.8125,190209.875,188747.703125,690501.125,199961.671875,0.04736328125,1.01171875,0.033447265625,-1.6784666776657104,-0.3051757514476776,0.2136230319738388,93.33334350585938,107347.0,1.0
15:35:20.851156,165014.078125,188791.78125,180676.125,200070.390625,190214.875,188747.171875,690743.25,199957.015625,0.046630859375,1.011962890625,0.03369140625,-1.6479490995407104,-0.2441406100988388,0.2441406100988388,93.33334350585938,107348.0,1.0
15:35:20.853542,164953.734375,188787.578125,180667.546875,200024.703125,190211.125,188750.828125,691032.4375,199947.71875,0.042236328125,1.0126953125,0.032958984375,-1.5869139432907104,-0.1831054538488388,0.1831054538488388,93.33334350585938,107349.0,1.0
15:35:20.853556,164900.53125,188768.359375,180660.75,200076.28125,190202.890625,188743.59375,690698.25,199960.859375,0.044189453125,1.012451171875,0.032958984375,-1.5869139432907104,-0.3356933295726776,0.0915527269244194,93.33334350585938,107350.0,1.0
15:35:20.860608,164932.28125,188773.015625,180666.5625,200073.875,190206.375,188744.21875,690487.375,199958.625,0.043212890625,1.01318359375,0.03369140625,-1.6174315214157104,-0.3051757514476776,0.1525878757238388,93.33334350585938,107351.0,1.0
15:35:20.871303,165015.15625,188791.421875,180681.40625,200079.6875,190221.40625,188748.15625,690670.125,199962.828125,0.043212890625,1.012451171875,0.035400390625,-1.5869139432907104,-0.4577636420726776,0.1831054538488388,93.33334350585938,107352.0,1.0
15:35:20.871335,164975.90625,188796.34375,180680.421875,200035.78125,190224.4375,188753.34375,691020.9375,199960.59375,0.0439453125,1.0107421875,0.034912109375,-1.5258787870407104,-0.4272460639476776,0.1525878757238388,93.33334350585938,107353.0,1.0
15:35:20.902173,164914.578125,188775.78125,180670.140625,200081.65625,190212.640625,188743.859375,690782.3125,199968.640625,0.044677734375,1.01171875,0.0322265625,-1.4648436307907104,-0.4272460639476776,0.2746581733226776,93.33334350585938,107354.0,1.0
15:35:20.902218,164925.390625,188774.171875,180670.859375,200084.15625,190210.046875,188741.625,690507.8125,199965.78125,0.04541015625,1.0126953125,0.0361328125,-1.4953612089157104,-0.3967284858226776,0.3356933295726776,93.33334350585938,107355.0,1.0
15:35:20.919283,165012.390625,188789.8125,180683.640625,200090.140625,190220.234375,188744.3125,690627.0,199965.328125,0.0458984375,1.01123046875,0.03466796875,-1.4343260526657104,-0.4882812201976776,0.3967284858226776,93.33334350585938,107356.0,1.0
15:35:20.927291,164989.59375,188795.71875,180682.484375,200039.546875,190223.015625,188749.578125,691000.375,199956.296875,0.046630859375,1.010498046875,0.033447265625,-1.4038084745407104,-0.4882812201976776,0.3662109076976776,93.33334350585938,107357.0,1.0
15:35:20.927303,164921.375,188777.65625,180675.15625,200070.828125,190214.515625,188744.671875,690862.0625,199963.984375,0.048583984375,1.010986328125,0.033203125,-1.4648436307907104,-0.3967284858226776,0.2746581733226776,93.33334350585938,107358.0,1.0
15:35:20.927305,164916.8125,188771.21875,180671.75,200083.796875,190207.90625,188739.5625,690522.375,199963.625,0.04833984375,1.01220703125,0.0341796875,-1.4343260526657104,-0.4882812201976776,0.3967284858226776,93.33334350585938,107359.0,1.0
15:35:20.927306,165003.53125,188787.671875,180684.625,200088.625,190218.0,188741.53125,690602.0625,199963.71875,0.049072265625,1.011474609375,0.032958984375,-1.4648436307907104,-0.4577636420726776,0.3662109076976776,93.33334350585938,107360.0,1.0
15:35:20.929807,165005.765625,188799.296875,180686.0625,200047.5,190223.90625,188748.0625,690964.5,199958.09375,0.046875,1.01025390625,0.034423828125,-1.3732908964157104,-0.4272460639476776,0.5187987685203552,93.33334350585938,107361.0,1.0
15:35:20.929814,164935.046875,188784.1875,180678.375,200062.421875,190215.234375,188745.65625,690942.8125,199963.1875,0.048583984375,1.010498046875,0.032958984375,-1.3122557401657104,-0.4577636420726776,0.5187987685203552,93.33334350585938,107362.0,1.0
15:35:20.932966,164914.390625,188773.640625,180674.171875,200090.234375,190207.625,188739.5625,690553.4375,199966.578125,0.048828125,1.0107421875,0.03173828125,-1.2817381620407104,-0.4577636420726776,0.5187987685203552,93.33334350585938,107363.0,1.0
15:35:20.932974,164992.53125,188788.75,180686.859375,200090.328125,190217.375,188742.703125,690554.5,199965.234375,0.048095703125,1.0107421875,0.032958984375,-1.2817381620407104,-0.4577636420726776,0.5493163466453552,93.33334350585938,107364.0,1.0
15:35:20.932976,165020.078125,188802.875,180692.046875,200057.59375,190225.875,188750.390625,690894.6875,199957.015625,0.047119140625,1.01171875,0.031005859375,-1.1901854276657104,-0.5493163466453552,0.6408690810203552,93.33334350585938,107365.0,1.0
15:35:20.935599,164951.6875,188794.5625,180684.890625,200052.234375,190220.59375,188752.265625,691008.0625,199960.234375,0.047119140625,1.01025390625,0.032470703125,-1.2207030057907104,-0.4272460639476776,0.7019042372703552,93.33334350585938,107366.0,1.0
15:35:20.938003,164915.46875,188778.28125,180677.03125,200092.109375,190208.34375,188743.328125,690604.9375,199964.609375,0.049072265625,1.01171875,0.031005859375,-1.1291502714157104,-0.4882812201976776,0.6713866591453552,93.33334350585938,107367.0,1.0
15:35:20.941061,164979.84375,188790.359375,180687.046875,200089.78125,190214.515625,188745.65625,690531.0625,199962.296875,0.0498046875,1.010498046875,0.031494140625,-1.1901854276657104,-0.4272460639476776,0.6103515028953552,93.33334350585938,107368.0,1.0
15:35:20.941080,165025.4375,188802.15625,180687.21875,200068.328125,190218.984375,188747.890625,690821.4375,199955.234375,0.047607421875,1.0107421875,0.03125,-1.1596678495407104,-0.4882812201976776,0.5798339247703552,93.33334350585938,107369.0,1.0
15:35:20.943020,164954.265625,188793.390625,180673.71875,200038.015625,190208.53125,188747.53125,691043.625,199950.125,0.048583984375,1.0126953125,0.03271484375,-1.2207030057907104,-0.4577636420726776,0.4882812201976776,93.33334350585938,107370.0,1.0
15:35:20.945491,164907.875,188774.4375,180664.515625,200087.28125,190196.015625,188737.609375,690658.0,199959.078125,0.04833984375,1.013427734375,0.033203125,-1.2207030057907104,-0.3662109076976776,0.3967284858226776,93.33334350585938,107371.0,1.0
15:35:20.948578,164951.6875,188779.625,180670.046875,200078.875,190197.625,188736.0,690512.9375,199954.328125,0.048095703125,1.012939453125,0.03271484375,-1.1901854276657104,-0.3662109076976776,0.3967284858226776,93.33334350585938,107372.0,1.0
15:35:20.951114,165022.40625,188797.234375,180681.765625,200077.453125,190210.3125,188743.328125,690755.125,199955.5,0.048583984375,1.0146484375,0.03076171875,-1.1901854276657104,-0.2441406100988388,0.3967284858226776,93.33334350585938,107373.0,1.0
15:35:20.954185,164968.75,188798.484375,180677.46875,200037.296875,190210.671875,188750.65625,691062.75,199952.28125,0.050537109375,1.0146484375,0.0302734375,-1.2207030057907104,-0.1831054538488388,0.3662109076976776,93.33334350585938,107374.0,1.0
15:35:20.954261,164911.09375,188777.75,180667.640625,200084.6875,190199.859375,188742.15625,690733.0625,199961.046875,0.04833984375,1.013916015625,0.02978515625,-1.2512205839157104,-0.2746581733226776,0.3356933295726776,93.33334350585938,107375.0,1.0
15:35:20.959737,164937.015625,188779.796875,180670.59375,200079.5,190200.03125,188741.625,690516.125,199956.75,0.04736328125,1.0126953125,0.031005859375,-1.2817381620407104,-0.1525878757238388,0.2441406100988388,93.33334350585938,107376.0,1.0
15:35:20.967656,165018.5625,188796.609375,180684.171875,200081.65625,190214.25,188746.1875,690702.8125,199958.265625,0.050048828125,1.015869140625,0.03173828125,-1.3427733182907104,-0.0610351525247097,0.2746581733226776,93.33334350585938,107377.0,1.0
15:35:20.967741,164980.296875,188801.796875,180682.03125,200034.0,190218.546875,188752.53125,691053.75,199953.265625,0.050048828125,1.014892578125,0.03125,-1.4648436307907104,-0.0610351525247097,0.2746581733226776,93.33334350585938,107378.0,1.0
15:35:20.977450,164914.21875,188778.1875,180671.9375,200076.734375,190206.65625,188742.96875,690814.875,199962.5625,0.051025390625,1.01416015625,0.028564453125,-1.4953612089157104,0.03051757626235485,0.2746581733226776,93.33334350585938,107379.0,1.0
15:35:20.977537,164919.140625,188770.6875,180668.171875,200075.84375,190201.1875,188737.515625,690526.0,199957.28125,0.04931640625,1.013916015625,0.030029296875,-1.4648436307907104,-0.03051757626235485,0.3051757514476776,93.33334350585938,107380.0,1.0
15:35:20.980238,164998.171875,188779.71875,180672.203125,200073.96875,190205.3125,188734.03125,690644.625,199950.84375,0.048095703125,1.014404296875,0.031494140625,-1.3732908964157104,-0.03051757626235485,0.2441406100988388,93.33334350585938,107381.0,1.0
15:35:20.980331,164973.5,188783.109375,180662.546875,200019.0625,190201.90625,188736.703125,691018.8125,199937.96875,0.049072265625,1.01220703125,0.031005859375,-1.4343260526657104,-0.03051757626235485,0.3356933295726776,93.33334350585938,107382.0,1.0
15:35:20.989517,164900.265625,188762.09375,180649.671875,200044.71875,190188.59375,188729.015625,690894.75,199943.25,0.04931640625,1.01416015625,0.030029296875,-1.5869139432907104,0.1220703050494194,0.2441406100988388,93.33334350585938,107383.0,1.0
15:35:20.993803,164897.765625,188758.875,180652.796875,200066.8125,190187.78125,188728.125,690542.9375,199950.046875,0.048583984375,1.013916015625,0.030029296875,-1.6174315214157104,0.1831054538488388,0.1220703050494194,93.33334350585938,107384.0,1.0
15:35:20.993892,164989.046875,188779.4375,180672.109375,200076.015625,190203.15625,188734.921875,690589.1875,199953.53125,0.048095703125,1.0126953125,0.0322265625,-1.5869139432907104,0.1831054538488388,0.0915527269244194,93.33334350585938,107385.0,1.0
15:35:20.999669,164998.34375,188792.765625,180676.671875,200039.890625,190211.65625,188741.53125,690960.75,199951.203125,0.0478515625,1.013671875,0.032470703125,-1.6479490995407104,0.2441406100988388,0.1220703050494194,93.33334350585938,107386.0,1.0
15:35:21.007646,164924.046875,188775.25,180664.78125,200047.234375,190199.3125,188735.015625,690966.375,199951.828125,0.0478515625,1.013671875,0.032470703125,-1.7395018339157104,0.2746581733226776,0.0915527269244194,93.33334350585938,107387.0,1.0
15:35:21.007737,164898.65625,188759.953125,180658.34375,200074.3125,190188.859375,188725.359375,690569.8125,199951.5625,0.04736328125,1.01318359375,0.031494140625,-1.6479490995407104,0.2746581733226776,0.0915527269244194,93.33334350585938,107388.0,1.0
15:35:21.008216,164974.125,188772.203125,180669.34375,200072.078125,190197.4375,188727.40625,690543.3125,199949.6875,0.047607421875,1.01318359375,0.029052734375,-1.5869139432907104,0.1220703050494194,0.1220703050494194,93.33334350585938,107389.0,1.0
15:35:21.015759,165001.84375,188784.0,180670.765625,200039.984375,190204.6875,188732.6875,690877.6875,199942.265625,0.0498046875,1.0107421875,0.0302734375,-1.7089842557907104,0.1831054538488388,0.1525878757238388,93.33334350585938,107390.0,1.0
15:35:21.022561,164933.34375,188776.21875,180662.90625,200029.703125,190197.96875,188735.09375,691014.375,199943.875,0.04931640625,1.012939453125,0.030029296875,-1.7089842557907104,0.2441406100988388,0.1525878757238388,93.33334350585938,107391.0,1.0
15:35:21.022652,164899.203125,188762.640625,180657.453125,200072.359375,190188.953125,188730.71875,690607.3125,199951.921875,0.046142578125,1.010986328125,0.031982421875,-1.7700194120407104,0.3662109076976776,0.1220703050494194,93.33334350585938,107392.0,1.0
15:35:21.032579,164964.203125,188778.46875,180671.21875,200070.46875,190198.421875,188735.8125,690519.625,199952.375,0.045654296875,1.013427734375,0.03125,-1.7395018339157104,0.3051757514476776,0.03051757626235485,93.33334350585938,107393.0,1.0
15:35:21.034930,165020.25,188795.71875,180679.53125,200056.890625,190209.875,188741.265625,690799.5,199950.84375,0.045654296875,1.0126953125,0.031494140625,-1.7395018339157104,0.2441406100988388,0.03051757626235485,93.33334350585938,107394.0,1.0
15:35:21.034979,164956.59375,188791.25,180672.015625,200027.375,190206.921875,188743.140625,691043.125,199949.328125,0.044921875,1.013427734375,0.03125,-1.7700194120407104,0.2746581733226776,0.03051757626235485,93.33334350585938,107395.0,1.0
15:35:21.041886,164907.953125,188771.046875,180664.6875,200076.203125,190196.640625,188734.203125,690674.125,199958.71875,0.045166015625,1.012451171875,0.031982421875,-1.7700194120407104,0.2746581733226776,0.0,93.33334350585938,107396.0,1.0
15:35:21.058229,164954.546875,188780.25,180676.125,200074.5,190202.71875,188737.0625,690512.5625,199958.8125,0.044677734375,1.011474609375,0.031005859375,-1.8310545682907104,0.2441406100988388,0.0,93.33334350585938,107397.0,1.0
15:35:21.058339,165023.109375,188794.734375,180684.71875,200071.90625,190212.734375,188739.65625,690731.5,199957.640625,0.04443359375,1.012939453125,0.032470703125,-1.7700194120407104,0.2746581733226776,0.0610351525247097,93.33334350585938,107398.0,1.0
15:35:21.058372,164965.890625,188791.421875,180674.34375,200026.578125,190208.609375,188741.265625,691051.9375,199948.34375,0.04296875,1.01318359375,0.03076171875,-1.7700194120407104,0.1831054538488388,0.03051757626235485,93.33334350585938,107399.0,1.0
15:35:21.061442,164905.28125,188765.765625,180658.703125,200069.40625,190192.171875,188728.125,690738.125,199952.546875,0.0439453125,1.012939453125,0.03173828125,-1.8005369901657104,0.1831054538488388,-0.03051757626235485,93.33334350585938,107400.0,1.0
15:35:21.061639,164931.828125,188769.078125,180663.703125,200070.296875,190192.796875,188730.453125,690507.375,199953.4375,0.04345703125,1.013916015625,0.03125,-1.9226073026657104,0.1220703050494194,0.0610351525247097,93.33334350585938,107401.0,1.0
15:35:21.063129,165012.75,188783.734375,180672.828125,200073.25,190202.265625,188733.046875,690672.4375,199952.8125,0.043212890625,1.012939453125,0.03369140625,-1.8310545682907104,-0.03051757626235485,0.0915527269244194,93.33334350585938,107402.0,1.0
15:35:21.065990,164972.0625,188785.078125,180663.4375,200019.59375,190199.5,188736.984375,691038.4375,199941.8125,0.04345703125,1.01220703125,0.031005859375,-1.8005369901657104,0.1220703050494194,0.03051757626235485,93.33334350585938,107403.0,1.0
15:35:21.071849,164904.203125,188762.640625,180649.9375,200056.96875,190184.203125,188728.390625,690816.125,199946.203125,0.04296875,1.013671875,0.032470703125,-1.8005369901657104,0.03051757626235485,0.03051757626235485,93.33334350585938,107404.0,1.0
15:35:21.079870,164909.75,188760.21875,180650.296875,200062.25,190179.640625,188726.15625,690512.125,199944.671875,0.04296875,1.012939453125,0.03125,-1.7700194120407104,-0.03051757626235485,0.03051757626235485,93.33334350585938,107405.0,1.0
15:35:21.079904,164997.359375,188776.21875,180663.34375,200066.71875,190190.46875,188729.46875,690621.8125,199945.21875,0.044677734375,1.012939453125,0.032470703125,-1.8310545682907104,-0.0610351525247097,0.1831054538488388,93.33334350585938,107406.0,1.0
15:35:21.086202,164984.40625,188784.984375,180661.921875,200018.890625,190194.578125,188735.640625,690994.4375,199937.796875,0.04296875,1.012939453125,0.032470703125,-1.8615721464157104,-0.1220703050494194,-0.03051757626235485,93.33334350585938,107407.0,1.0
15:35:21.086234,164918.234375,188771.046875,180657.171875,200050.265625,190189.65625,188733.40625,690895.0625,199949.421875,0.04443359375,1.01171875,0.03173828125,-1.7700194120407104,-0.2441406100988388,0.03051757626235485,93.33334350585938,107408.0,1.0
15:35:21.088180,164907.6875,188764.875,180655.390625,200068.953125,190185.109375,188730.1875,690536.4375,199951.46875,0.04541015625,1.010986328125,0.03076171875,-1.7395018339157104,-0.1831054538488388,0.1220703050494194,93.33334350585938,107409.0,1.0
15:35:21.101093,164988.421875,188777.921875,180665.21875,200069.3125,190192.609375,188730.1875,690573.625,199946.375,0.042724609375,1.009521484375,0.03271484375,-1.7395018339157104,-0.2136230319738388,0.0610351525247097,93.33334350585938,107410.0,1.0
15:35:21.101115,164998.0,188790.890625,180666.75,200029.25,190199.671875,188738.140625,690936.0625,199940.46875,0.043701171875,1.008544921875,0.031494140625,-1.7395018339157104,-0.2441406100988388,0.0610351525247097,93.33334350585938,107411.0,1.0
15:35:21.102973,164924.59375,188775.0625,180656.640625,200034.171875,190189.03125,188734.03125,690961.8125,199943.15625,0.04541015625,1.01171875,0.031494140625,-1.7700194120407104,-0.2441406100988388,0.1525878757238388,93.33334350585938,107412.0,1.0
15:35:21.106720,164898.84375,188760.140625,180649.84375,200064.75,190178.578125,188725.71875,690573.1875,199945.578125,0.044921875,1.011962890625,0.03125,-1.7700194120407104,-0.2746581733226776,0.1525878757238388,93.33334350585938,107413.0,1.0
15:35:21.113028,164973.859375,188775.59375,180665.046875,200065.015625,190189.65625,188729.28125,690540.5625,199946.28125,0.043701171875,1.01220703125,0.0322265625,-1.7395018339157104,-0.3967284858226776,0.1220703050494194,93.33334350585938,107414.0,1.0
15:35:21.119905,165007.734375,188791.421875,180671.84375,200039.546875,190201.640625,188735.90625,690862.75,199941.1875,0.0439453125,1.012939453125,0.03369140625,-1.7395018339157104,-0.4272460639476776,0.0610351525247097,93.33334350585938,107415.0,1.0
15:35:21.119929,164937.546875,188782.21875,180662.625,200024.96875,190196.453125,188736.703125,691018.0,199941.546875,0.043701171875,1.013916015625,0.0322265625,-1.7700194120407104,-0.4577636420726776,0.0915527269244194,93.33334350585938,107416.0,1.0
15:35:21.126126,164896.515625,188762.546875,180654.3125,200068.0625,190184.125,188726.421875,690620.0,199949.59375,0.046875,1.013916015625,0.0302734375,-1.7395018339157104,-0.4272460639476776,0.1831054538488388,93.33334350585938,107417.0,1.0
15:35:21.126153,164952.578125,188770.59375,180661.296875,200060.546875,190189.296875,188726.96875,690521.4375,199944.234375,0.0458984375,1.013671875,0.031005859375,-1.7395018339157104,-0.3967284858226776,0.2136230319738388,93.33334350585938,107418.0,1.0
15:35:21.133001,165010.328125,188786.78125,180668.71875,200047.578125,190201.28125,188733.21875,690794.125,199942.078125,0.044189453125,1.01416015625,0.032958984375,-1.8005369901657104,-0.4272460639476776,0.1220703050494194,93.33334350585938,107419.0,1.0
15:35:21.135464,164947.296875,188783.921875,180662.546875,200015.75,190199.3125,188736.4375,691047.375,199939.671875,0.044677734375,1.01318359375,0.031982421875,-1.8005369901657104,-0.3356933295726776,0.1831054538488388,93.33334350585938,107420.0,1.0
15:35:21.139257,164902.328125,188767.109375,180657.359375,200066.71875,190189.84375,188729.375,690683.9375,199949.59375,0.046630859375,1.012939453125,0.03125,-1.8005369901657104,-0.4577636420726776,0.1831054538488388,93.33334350585938,107421.0,1.0
15:35:21.149802,164943.8125,188774.171875,180664.515625,200061.890625,190190.828125,188728.65625,690509.0625,199945.84375,0.045654296875,1.012939453125,0.0341796875,-1.7700194120407104,-0.3662109076976776,0.1831054538488388,93.33334350585938,107422.0,1.0
15:35:21.149822,165016.046875,188789.1875,180672.375,200058.9375,190201.109375,188731.4375,690724.25,199944.953125,0.045654296875,1.012939453125,0.033935546875,-1.7700194120407104,-0.4272460639476776,0.1525878757238388,93.33334350585938,107423.0,1.0
15:35:21.151706,164964.203125,188787.140625,180663.890625,200010.921875,190198.0625,188734.828125,691051.9375,199936.90625,0.0458984375,1.012451171875,0.03271484375,-1.7089842557907104,-0.3662109076976776,0.2441406100988388,93.33334350585938,107424.0,1.0
15:35:21.155452,164900.71875,188761.921875,180650.65625,200057.15625,190181.53125,188723.03125,690749.75,199944.765625,0.044921875,1.01025390625,0.032470703125,-1.7089842557907104,-0.3051757514476776,0.2136230319738388,93.33334350585938,107425.0,1.0
15:35:21.171159,164920.390625,188760.765625,180652.703125,200054.5625,190180.28125,188721.328125,690504.0625,199943.34375,0.04638671875,1.011962890625,0.034423828125,-1.7700194120407104,-0.3967284858226776,0.1220703050494194,93.33334350585938,107426.0,1.0
15:35:21.171179,165001.390625,188775.328125,180663.265625,200055.453125,190191.984375,188725.078125,690660.8125,199943.25,0.04638671875,1.01220703125,0.02978515625,-1.8310545682907104,-0.3051757514476776,0.0610351525247097,93.33334350585938,107427.0,1.0
15:35:21.174269,164966.078125,188780.25,180657.625,200003.59375,190191.359375,188732.328125,691028.375,199935.109375,0.046875,1.01123046875,0.031005859375,-1.7395018339157104,-0.3051757514476776,0.1831054538488388,93.33334350585938,107428.0,1.0
15:35:21.174289,164903.671875,188760.765625,180646.890625,200047.3125,190176.609375,188722.84375,690836.375,199943.875,0.048095703125,1.010009765625,0.030029296875,-1.7395018339157104,-0.2746581733226776,0.1831054538488388,93.33334350585938,107429.0,1.0
15:35:21.174297,164913.0625,188759.859375,180652.171875,200061.4375,190176.609375,188720.703125,690529.4375,199948.078125,0.044921875,1.010986328125,0.031982421875,-1.6784666776657104,-0.2746581733226776,0.2136230319738388,93.33334350585938,107430.0,1.0
15:35:21.176769,164999.0625,188772.46875,180665.671875,200064.65625,190189.296875,188721.59375,690620.0,199945.125,0.047607421875,1.012939453125,0.031494140625,-1.6784666776657104,-0.2441406100988388,0.2136230319738388,93.33334350585938,107431.0,1.0
15:35:21.179347,164988.875,188779.53125,180663.171875,200020.859375,190193.0625,188725.078125,690992.25,199938.234375,0.050048828125,1.01220703125,0.0302734375,-1.6784666776657104,-0.2136230319738388,0.1525878757238388,93.33334350585938,107432.0,1.0
15:35:21.186812,164917.53125,188761.03125,180653.25,200046.609375,190183.84375,188720.4375,690906.5,199946.828125,0.048095703125,1.0107421875,0.034423828125,-1.7089842557907104,-0.2136230319738388,0.1525878757238388,93.33334350585938,107433.0,1.0
15:35:21.196287,164905.453125,188752.359375,180652.34375,200065.828125,190180.984375,188718.109375,690538.25,199949.234375,0.04736328125,1.0107421875,0.032958984375,-1.6174315214157104,-0.3051757514476776,0.1220703050494194,93.33334350585938,107434.0,1.0
15:35:21.196300,164991.640625,188769.15625,180666.828125,200069.765625,190191.265625,188721.6875,690572.375,199948.515625,0.044921875,1.010986328125,0.033447265625,-1.6174315214157104,-0.3051757514476776,0.1525878757238388,93.33334350585938,107435.0,1.0
15:35:21.208139,165000.234375,188777.296875,180664.421875,200030.59375,190193.234375,188723.296875,690927.75,199938.859375,0.04443359375,1.011474609375,0.033203125,-1.7089842557907104,-0.2441406100988388,0.0915527269244194,93.33334350585938,107436.0,1.0
15:35:21.210717,164923.34375,188760.21875,180650.109375,200029.53125,190180.625,188717.75,690971.75,199938.953125,0.0419921875,1.011474609375,0.03271484375,-1.7089842557907104,-0.3051757514476776,0.1525878757238388,93.33334350585938,107437.0,1.0
15:35:21.214164,164891.515625,188744.75,180641.0,200057.6875,190167.21875,188708.90625,690572.9375,199940.03125,0.044189453125,1.01025390625,0.0322265625,-1.6174315214157104,-0.2746581733226776,0.2441406100988388,93.33334350585938,107438.0,1.0
15:35:21.216547,164961.25,188757.265625,180649.21875,200053.75,190173.390625,188710.421875,690531.4375,199936.453125,0.0439453125,1.01123046875,0.031005859375,-1.6174315214157104,-0.2746581733226776,0.1525878757238388,93.33334350585938,107439.0,1.0
15:35:21.217983,164997.1875,188768.71875,180650.390625,200027.828125,190178.84375,188712.75,690847.3125,199930.640625,0.043701171875,1.011474609375,0.034423828125,-1.5869139432907104,-0.2746581733226776,0.2136230319738388,93.33334350585938,107440.0,1.0
15:35:21.220595,164927.09375,188758.25,180641.625,200012.0,190173.390625,188711.578125,691018.0,199931.796875,0.045166015625,1.01123046875,0.032958984375,-1.5563963651657104,-0.2136230319738388,0.2136230319738388,93.33334350585938,107441.0,1.0
15:35:21.231535,164884.71875,188738.046875,180633.484375,200055.90625,190163.109375,188700.859375,690628.0625,199938.515625,0.045654296875,1.01318359375,0.03466796875,-1.6174315214157104,-0.2136230319738388,0.2746581733226776,93.33334350585938,107442.0,1.0
15:35:21.234795,164942.203125,188749.21875,180643.59375,200050.453125,190170.265625,188704.515625,690510.5,199937.25,0.04541015625,1.01318359375,0.03564453125,-1.6174315214157104,-0.2746581733226776,0.2136230319738388,93.33334350585938,107443.0,1.0
15:35:21.234962,165003.171875,188766.578125,180652.796875,200040.796875,190183.765625,188712.921875,690771.1875,199936.90625,0.047119140625,1.012451171875,0.03125,-1.5869139432907104,-0.2746581733226776,0.1831054538488388,93.33334350585938,107444.0,1.0
15:35:21.235014,164940.859375,188762.375,180646.453125,200008.421875,190180.1875,188717.046875,691041.25,199934.3125,0.045166015625,1.012939453125,0.03271484375,-1.5563963651657104,-0.2746581733226776,0.2441406100988388,93.33334350585938,107445.0,1.0
15:35:21.236771,164894.734375,188748.515625,180643.59375,200062.96875,190173.921875,188713.1875,690688.0,199948.703125,0.045166015625,1.01171875,0.031982421875,-1.6479490995407104,-0.3051757514476776,0.2136230319738388,93.33334350585938,107446.0,1.0
15:35:21.283927,164934.328125,188758.34375,180651.1875,200057.328125,190179.734375,188716.328125,690512.8125,199946.5625,0.0439453125,1.01220703125,0.031005859375,-1.6174315214157104,-0.2136230319738388,0.2746581733226776,93.33334350585938,107447.0,1.0
15:35:21.286885,165005.0625,188770.421875,180656.90625,200050.890625,190186.4375,188717.84375,690728.375,199941.28125,0.04443359375,1.01318359375,0.03173828125,-1.5258787870407104,-0.1525878757238388,0.3051757514476776,93.33334350585938,107448.0,1.0
15:35:21.286953,164955.796875,188771.046875,180649.3125,200004.578125,190184.203125,188722.9375,691054.375,199933.5,0.04638671875,1.0126953125,0.03466796875,-1.4953612089157104,-0.1831054538488388,0.3356933295726776,93.33334350585938,107449.0,1.0
15:35:21.286970,164897.046875,188750.484375,180640.453125,200054.734375,190171.59375,188713.734375,690764.4375,199943.609375,0.046875,1.010498046875,0.033447265625,-1.4953612089157104,-0.2136230319738388,0.4577636420726776,93.33334350585938,107450.0,1.0
15:35:21.291114,164915.921875,188750.484375,180643.046875,200054.5625,190170.078125,188711.140625,690509.0,199941.734375,0.046142578125,1.01171875,0.034423828125,-1.5563963651657104,-0.1831054538488388,0.3967284858226776,93.33334350585938,107451.0,1.0
15:35:21.291209,164999.0625,188765.3125,180654.40625,200058.5,190182.421875,188712.125,690657.25,199941.640625,0.043212890625,1.011474609375,0.03271484375,-1.4038084745407104,-0.1831054538488388,0.4577636420726776,93.33334350585938,107452.0,1.0
15:35:21.291239,164968.046875,188769.875,180652.34375,200010.484375,190186.4375,188717.75,691025.3125,199934.21875,0.043701171875,1.011962890625,0.035400390625,-1.4038084745407104,-0.2441406100988388,0.4272460639476776,93.33334350585938,107453.0,1.0
15:35:21.291264,164906.890625,188754.765625,180648.6875,200054.65625,190180.0,188715.4375,690842.5,199946.734375,0.04345703125,1.011962890625,0.03125,-1.4343260526657104,-0.2136230319738388,0.3356933295726776,93.33334350585938,107454.0,1.0
15:35:21.293711,164913.859375,188757.359375,180653.875,200071.1875,190181.25,188717.390625,690523.5625,199949.59375,0.045166015625,1.010498046875,0.033203125,-1.4953612089157104,-0.3662109076976776,0.3051757514476776,93.33334350585938,107455.0,1.0
15:35:21.293795,165003.0,188775.328125,180668.984375,200077.09375,190194.21875,188722.140625,690607.0,199945.390625,0.04541015625,1.009033203125,0.031982421875,-1.4343260526657104,-0.3662109076976776,0.3051757514476776,93.33334350585938,107456.0,1.0
15:35:21.299393,164993.25,188782.21875,180665.3125,200029.4375,190196.453125,188727.328125,690985.0625,199934.390625,0.044921875,1.009765625,0.0322265625,-1.4038084745407104,-0.3051757514476776,0.3356933295726776,93.33334350585938,107457.0,1.0
15:35:21.301768,164922.171875,188765.671875,180654.765625,200052.6875,190184.828125,188723.203125,690924.8125,199940.125,0.045166015625,1.01123046875,0.0302734375,-1.3732908964157104,-0.3051757514476776,0.3356933295726776,93.33334350585938,107458.0,1.0
15:35:21.304917,164904.46875,188753.875,180650.03125,200076.640625,190177.40625,188717.21875,690546.6875,199943.515625,0.04638671875,1.01171875,0.031494140625,-1.3732908964157104,-0.3051757514476776,0.1525878757238388,93.33334350585938,107459.0,1.0
15:35:21.304992,164985.03125,188767.28125,180661.5625,200079.953125,190188.328125,188719.1875,690571.8125,199943.875,0.044189453125,1.012451171875,0.034912109375,-1.4038084745407104,-0.3051757514476776,0.0915527269244194,93.33334350585938,107460.0,1.0
15:35:21.306747,165001.75,188778.90625,180664.0625,200043.828125,190194.84375,188724.734375,690924.5625,199936.625,0.04638671875,1.012451171875,0.033203125,-1.3732908964157104,-0.3356933295726776,0.2441406100988388,93.33334350585938,107461.0,1.0
15:35:21.309256,164930.671875,188765.9375,180655.921875,200043.5625,190186.984375,188722.3125,690987.375,199939.671875,0.04638671875,1.014404296875,0.032470703125,-1.4343260526657104,-0.2746581733226776,0.2136230319738388,93.33334350585938,107462.0,1.0
15:35:21.311782,164901.515625,188753.34375,180650.296875,200080.84375,190179.296875,188716.140625,690579.625,199948.515625,0.04638671875,1.014892578125,0.035400390625,-1.3122557401657104,-0.2441406100988388,0.2136230319738388,93.33334350585938,107463.0,1.0
15:35:21.314857,164968.046875,188763.359375,180656.28125,200075.296875,190183.5,188716.328125,690544.0625,199945.125,0.045654296875,1.015625,0.03076171875,-1.4343260526657104,-0.1831054538488388,0.2136230319738388,93.33334350585938,107464.0,1.0
15:35:21.314870,165003.71875,188771.484375,180656.828125,200049.640625,190187.78125,188717.390625,690852.875,199938.15625,0.045166015625,1.013916015625,0.03125,-1.4343260526657104,-0.2441406100988388,0.1220703050494194,93.33334350585938,107465.0,1.0
15:35:21.316804,164930.84375,188758.796875,180643.765625,200026.84375,190176.78125,188714.09375,691030.6875,199934.21875,0.04541015625,1.0146484375,0.031005859375,-1.4648436307907104,-0.1831054538488388,0.1220703050494194,93.33334350585938,107466.0,1.0
15:35:21.328033,164888.5625,188739.296875,180635.28125,200074.671875,190164.0,188704.4375,690632.5625,199943.875,0.04296875,1.013671875,0.030517578125,-1.5869139432907104,-0.1220703050494194,0.0915527269244194,93.33334350585938,107467.0,1.0
15:35:21.336889,164946.3125,188752.09375,180648.0625,200074.859375,190173.484375,188709.078125,690520.1875,199946.28125,0.043212890625,1.015625,0.031005859375,-1.5563963651657104,-0.1525878757238388,0.1220703050494194,93.33334350585938,107468.0,1.0
15:35:21.336981,165008.90625,188768.984375,180658.609375,200064.9375,190186.625,188714.53125,690778.8125,199944.671875,0.0419921875,1.0166015625,0.03173828125,-1.5869139432907104,-0.1525878757238388,0.1525878757238388,93.33334350585938,107469.0,1.0
15:35:21.337013,164945.6875,188765.671875,180648.6875,200022.734375,190182.0625,188716.140625,691057.6875,199936.1875,0.042724609375,1.01611328125,0.032470703125,-1.6479490995407104,-0.1220703050494194,0.0915527269244194,93.33334350585938,107470.0,1.0
15:35:21.339345,164893.390625,188744.75,180640.453125,200073.0625,190169.984375,188707.65625,690710.625,199945.296875,0.04443359375,1.016357421875,0.03173828125,-1.7089842557907104,-0.1525878757238388,0.1525878757238388,93.33334350585938,107471.0,1.0
15:35:21.341746,164928.515625,188750.5625,180646.453125,200070.296875,190173.484375,188709.96875,690516.3125,199944.328125,0.04638671875,1.014404296875,0.031005859375,-1.7700194120407104,-0.1831054538488388,0.0610351525247097,93.33334350585938,107472.0,1.0
15:35:21.345824,165002.015625,188760.765625,180651.8125,200067.796875,190180.0,188708.1875,690710.4375,199940.296875,0.0458984375,1.01416015625,0.031005859375,-1.8310545682907104,-0.1525878757238388,0.0,93.33334350585938,107473.0,1.0
15:35:21.356547,164953.46875,188761.03125,180645.015625,200019.875,190177.59375,188711.046875,691058.9375,199930.90625,0.04248046875,1.013916015625,0.033203125,-1.8005369901657104,-0.1525878757238388,-0.0610351525247097,93.33334350585938,107474.0,1.0
15:35:21.356640,164895.359375,188744.484375,180639.921875,200069.84375,190168.734375,188706.484375,690788.3125,199943.515625,0.041259765625,1.012939453125,0.03125,-1.7700194120407104,-0.1525878757238388,-0.03051757626235485,93.33334350585938,107475.0,1.0
15:35:21.358068,164915.203125,188749.21875,180646.265625,200071.640625,190171.421875,188709.890625,690524.0,199944.40625,0.04541015625,1.01220703125,0.03271484375,-1.8005369901657104,-0.1831054538488388,-0.1220703050494194,93.33334350585938,107476.0,1.0
15:35:21.364352,165000.5,188765.765625,180658.78125,200073.609375,190182.859375,188713.015625,690662.3125,199941.8125,0.0439453125,1.011962890625,0.032958984375,-1.8005369901657104,-0.2441406100988388,-0.0610351525247097,93.33334350585938,107477.0,1.0
15:35:21.372863,164973.859375,188773.09375,180655.75,200022.46875,190185.1875,188719.71875,691033.0,199931.796875,0.042724609375,1.010986328125,0.032958984375,-1.6784666776657104,-0.2746581733226776,-0.0610351525247097,93.33334350585938,107478.0,1.0
15:35:21.373029,164909.125,188756.828125,180650.296875,200061.171875,190177.40625,188716.59375,690861.9375,199942.890625,0.0419921875,1.012451171875,0.033447265625,-1.6784666776657104,-0.2441406100988388,-0.0610351525247097,93.33334350585938,107479.0,1.0
15:35:21.374909,164912.25,188755.390625,180654.765625,200076.109375,190179.734375,188717.9375,690521.5,199944.328125,0.04345703125,1.01171875,0.033203125,-1.8005369901657104,-0.2441406100988388,0.0610351525247097,93.33334350585938,107480.0,1.0
15:35:21.374985,164998.078125,188770.140625,180667.109375,200081.46875,190191.09375,188721.15625,690607.9375,199944.046875,0.042724609375,1.01025390625,0.033935546875,-1.7395018339157104,-0.3051757514476776,0.03051757626235485,93.33334350585938,107481.0,1.0
15:35:21.381799,164990.65625,188778.109375,180663.703125,200034.078125,190192.875,188726.0625,690981.6875,199934.03125,0.04248046875,1.010009765625,0.03125,-1.6174315214157104,-0.3356933295726776,0.0610351525247097,93.33334350585938,107482.0,1.0
15:35:21.388007,164916.359375,188759.78125,180651.71875,200048.21875,190179.46875,188719.453125,690941.5625,199937.34375,0.04150390625,1.010986328125,0.03271484375,-1.5563963651657104,-0.3356933295726776,-0.0610351525247097,93.33334350585938,107483.0,1.0
15:35:21.392354,164901.171875,188751.640625,180648.59375,200073.875,190171.6875,188714.09375,690562.8125,199941.453125,0.041748046875,1.011474609375,0.03076171875,-1.5869139432907104,-0.4272460639476776,0.0915527269244194,93.33334350585938,107484.0,1.0
15:35:21.392371,164979.671875,188764.421875,180659.40625,200075.65625,190179.46875,188715.15625,690564.625,199940.390625,0.042236328125,1.010986328125,0.032470703125,-1.6479490995407104,-0.4882812201976776,0.0610351525247097,93.33334350585938,107485.0,1.0
15:35:21.401852,164994.859375,188772.203125,180657.53125,200037.75,190183.140625,188715.703125,690914.0,199930.46875,0.042236328125,1.012939453125,0.032470703125,-1.5258787870407104,-0.5187987685203552,0.1220703050494194,93.33334350585938,107486.0,1.0
15:35:21.404898,164921.109375,188757.0,180646.359375,200031.9375,190174.109375,188710.953125,691002.8125,199930.828125,0.043701171875,1.012451171875,0.028076171875,-1.4953612089157104,-0.6408690810203552,0.1220703050494194,93.33334350585938,107487.0,1.0
15:35:21.404942,164889.09375,188740.46875,180640.375,200069.765625,190164.265625,188703.09375,690600.4375,199938.234375,0.040771484375,1.01220703125,0.028076171875,-1.4953612089157104,-0.4882812201976776,0.2441406100988388,93.33334350585938,107488.0,1.0
15:35:21.406764,164958.109375,188753.78125,180651.90625,200068.15625,190172.765625,188706.671875,690541.375,199937.703125,0.041259765625,1.010498046875,0.031005859375,-1.5258787870407104,-0.5187987685203552,0.2441406100988388,93.33334350585938,107489.0,1.0
15:35:21.418033,165003.890625,188769.4375,180658.25,200050.265625,190183.21875,188712.484375,690846.6875,199934.578125,0.041015625,1.010498046875,0.033447265625,-1.4953612089157104,-0.6103515028953552,0.2746581733226776,93.33334350585938,107490.0,1.0
15:35:21.421122,164931.203125,188758.171875,180646.1875,200022.90625,190173.65625,188709.625,691047.1875,199929.75,0.0400390625,1.01123046875,0.031005859375,-1.4343260526657104,-0.6408690810203552,0.2746581733226776,93.33334350585938,107491.0,1.0
15:35:21.421147,164886.40625,188739.390625,180638.578125,200070.390625,190164.265625,188702.109375,690653.625,199939.5,0.043212890625,1.01318359375,0.03173828125,-1.4953612089157104,-0.7019042372703552,0.2746581733226776,93.33334350585938,107492.0,1.0
15:35:21.426945,164935.140625,188743.140625,180642.421875,200060.546875,190165.25,188698.796875,690526.0,199933.140625,0.043701171875,1.012939453125,0.030029296875,-1.5258787870407104,-0.7934569716453552,0.3356933295726776,93.33334350585938,107493.0,1.0
15:35:21.433670,164997.015625,188755.03125,180646.984375,200048.296875,190173.125,188699.6875,690781.5,199927.421875,0.04296875,1.01416015625,0.0302734375,-1.4648436307907104,-0.7324218153953552,0.3662109076976776,93.33334350585938,107494.0,1.0
15:35:21.433697,164937.828125,188752.359375,180640.109375,200007.078125,190172.5,188703.890625,691074.1875,199921.96875,0.043212890625,1.012939453125,0.0302734375,-1.4953612089157104,-0.7324218153953552,0.2746581733226776,93.33334350585938,107495.0,1.0
15:35:21.438157,164887.3125,188735.28125,180633.390625,200059.203125,190162.03125,188698.078125,690725.4375,199932.78125,0.043701171875,1.01220703125,0.031005859375,-1.5869139432907104,-0.7019042372703552,0.3662109076976776,93.33334350585938,107496.0,1.0
15:35:21.473699,164924.140625,188745.46875,180642.15625,200059.296875,190167.3125,188703.453125,690524.375,199932.515625,0.044189453125,1.0107421875,0.033203125,-1.5563963651657104,-0.7629393935203552,0.4882812201976776,93.33334350585938,107497.0,1.0
15:35:21.473731,165006.046875,188765.3125,180655.21875,200062.703125,190180.453125,188708.453125,690713.9375,199933.140625,0.044189453125,1.0107421875,0.030517578125,-1.4953612089157104,-0.7629393935203552,0.4882812201976776,93.33334350585938,107498.0,1.0
15:35:21.475510,164961.0625,188766.21875,180649.9375,200012.0,190179.640625,188711.234375,691073.25,199924.203125,0.042724609375,1.010009765625,0.03369140625,-1.4648436307907104,-0.7629393935203552,0.4272460639476776,93.33334350585938,107499.0,1.0
15:35:21.477987,164897.5,188742.34375,180639.296875,200055.625,190165.34375,188700.953125,690815.125,199929.75,0.04345703125,1.00927734375,0.031005859375,-1.5258787870407104,-0.7324218153953552,0.5187987685203552,93.33334350585938,107500.0,1.0
15:35:21.480505,164909.75,188740.90625,180639.65625,200056.96875,190163.375,188699.875,690539.625,199927.0625,0.043212890625,1.00927734375,0.032958984375,-1.5258787870407104,-0.7019042372703552,0.5798339247703552,93.33334350585938,107501.0,1.0
15:35:21.483009,164992.890625,188755.125,180650.03125,200058.3125,190173.5625,188703.359375,690660.375,199925.90625,0.042724609375,1.010009765625,0.03125,-1.5869139432907104,-0.6103515028953552,0.5493163466453552,93.33334350585938,107502.0,1.0
15:35:21.487990,164966.25,188759.5,180644.03125,200005.828125,190173.390625,188708.28125,691048.75,199917.234375,0.042724609375,1.012939453125,0.029541015625,-1.5563963651657104,-0.6713866591453552,0.6713866591453552,93.33334350585938,107503.0,1.0
15:35:21.490584,164894.28125,188738.40625,180629.734375,200037.03125,190158.375,188700.671875,690897.625,199923.21875,0.04248046875,1.01318359375,0.0302734375,-1.5563963651657104,-0.6713866591453552,0.6103515028953552,93.33334350585938,107504.0,1.0
15:35:21.493007,164883.734375,188729.828125,180623.203125,200045.703125,190149.703125,188695.046875,690550.3125,199920.8125,0.044921875,1.015869140625,0.03125,-1.5258787870407104,-0.7324218153953552,0.5798339247703552,93.33334350585938,107505.0,1.0
15:35:21.495547,164964.109375,188740.828125,180630.890625,200044.640625,190155.78125,188694.421875,690610.3125,199916.78125,0.046142578125,1.014404296875,0.0322265625,-1.4953612089157104,-0.6713866591453552,0.6103515028953552,93.33334350585938,107506.0,1.0
15:35:21.497954,164963.578125,188752.71875,180632.5,200002.25,190163.109375,188702.015625,690988.5,199910.34375,0.047119140625,1.015380859375,0.033447265625,-1.4038084745407104,-0.7019042372703552,0.5493163466453552,93.33334350585938,107507.0,1.0
15:35:21.500529,164895.890625,188740.203125,180626.78125,200020.234375,190159.078125,188701.84375,690968.0625,199918.84375,0.044921875,1.01611328125,0.031494140625,-1.4343260526657104,-0.7629393935203552,0.5798339247703552,93.33334350585938,107508.0,1.0
15:35:21.503595,164878.28125,188730.890625,180625.890625,200048.921875,190154.96875,188698.265625,690573.0625,199925.09375,0.045166015625,1.014892578125,0.029541015625,-1.4953612089157104,-0.7629393935203552,0.4882812201976776,93.33334350585938,107509.0,1.0
15:35:21.503610,164958.46875,188747.34375,180640.109375,200050.171875,190164.71875,188702.640625,690563.1875,199924.921875,0.044189453125,1.01318359375,0.03369140625,-1.4648436307907104,-0.7629393935203552,0.3967284858226776,93.33334350585938,107510.0,1.0
15:35:21.509238,164982.4375,188759.59375,180641.4375,200016.734375,190171.6875,188707.65625,690908.875,199917.140625,0.042724609375,1.01416015625,0.031005859375,-1.4343260526657104,-0.7019042372703552,0.3356933295726776,93.33334350585938,107511.0,1.0
15:35:21.511866,164914.578125,188750.921875,180636.34375,200014.421875,190166.5,188708.453125,691018.4375,199921.515625,0.04150390625,1.013916015625,0.03271484375,-1.6784666776657104,-0.7019042372703552,0.2136230319738388,93.33334350585938,107512.0,1.0
15:35:21.514832,164883.734375,188736.171875,180632.765625,200056.890625,190158.375,188702.28125,690609.75,199930.1875,0.0400390625,1.0146484375,0.032470703125,-1.7089842557907104,-0.7934569716453552,0.0,93.33334350585938,107513.0,1.0
15:35:21.514843,164950.15625,188751.109375,180646.0,200054.296875,190169.640625,188707.03125,690540.375,199929.921875,0.0390625,1.014404296875,0.03466796875,-1.7700194120407104,-0.7934569716453552,-0.1525878757238388,93.33334350585938,107514.0,1.0
15:35:21.517374,165002.28125,188770.140625,180654.9375,200038.828125,190181.890625,188714.796875,690836.1875,199929.03125,0.039794921875,1.012939453125,0.03466796875,-1.7700194120407104,-0.8544921278953552,-0.2746581733226776,93.33334350585938,107515.0,1.0
15:35:21.517388,164939.875,188768.0,180649.3125,200013.171875,190176.078125,188717.84375,691051.0,199926.796875,0.039306640625,1.013671875,0.030029296875,-1.8920897245407104,-0.8850097060203552,-0.3967284858226776,93.33334350585938,107516.0,1.0
15:35:21.526794,164897.40625,188750.296875,180645.203125,200063.328125,190166.765625,188708.546875,690656.6875,199936.453125,0.0419921875,1.01123046875,0.0341796875,-1.9531248807907104,-0.8544921278953552,-0.4577636420726776,93.33334350585938,107517.0,1.0
15:35:21.543292,164946.40625,188759.328125,180657.171875,200058.046875,190176.421875,188711.3125,690516.75,199934.84375,0.04248046875,1.01220703125,0.033935546875,-1.9836424589157104,-0.9765624403953552,-0.6103515028953552,93.33334350585938,107518.0,1.0
15:35:21.543322,165013.015625,188775.515625,180667.734375,200051.15625,190189.03125,188715.4375,690758.4375,199933.59375,0.041259765625,1.010986328125,0.03369140625,-1.9226073026657104,-1.0070799589157104,-0.5493163466453552,93.33334350585938,107519.0,1.0
15:35:21.543329,164958.65625,188775.59375,180662.359375,200010.484375,190187.0625,188719.90625,691057.4375,199928.5,0.04345703125,1.01025390625,0.033203125,-1.8615721464157104,-1.0070799589157104,-0.6103515028953552,93.33334350585938,107520.0,1.0
15:35:21.545489,164906.53125,188757.890625,180656.90625,200063.40625,190177.40625,188714.265625,690725.8125,199939.40625,0.043701171875,1.01220703125,0.033203125,-1.8920897245407104,-0.9765624403953552,-0.5798339247703552,93.33334350585938,107521.0,1.0
15:35:21.549215,164937.015625,188765.59375,180664.328125,200062.15625,190181.25,188717.671875,690503.5625,199939.21875,0.044189453125,1.01318359375,0.032470703125,-1.8615721464157104,-0.9765624403953552,-0.5798339247703552,93.33334350585938,107522.0,1.0
15:35:21.549234,165019.71875,188780.96875,180674.609375,200063.59375,190192.34375,188721.234375,690680.0,199939.3125,0.044921875,1.0126953125,0.03369140625,-1.8310545682907104,-0.8850097060203552,-0.4577636420726776,93.33334350585938,107523.0,1.0
15:35:21.549240,164971.625,188779.0,180662.984375,200009.953125,190187.0625,188722.84375,691031.125,199927.515625,0.043701171875,1.013671875,0.033203125,-1.9226073026657104,-0.8239745497703552,-0.2136230319738388,93.33334350585938,107524.0,1.0
15:35:21.552969,164905.015625,188755.75,180650.734375,200051.609375,190170.96875,188712.84375,690788.1875,199934.03125,0.043212890625,1.013427734375,0.031982421875,-1.9226073026657104,-0.7629393935203552,-0.0915527269244194,93.33334350585938,107525.0,1.0
15:35:21.559245,164913.59375,188752.359375,180651.90625,200053.3125,190168.109375,188711.3125,690497.875,199932.4375,0.042724609375,1.012939453125,0.032958984375,-1.8615721464157104,-0.5798339247703552,-0.1220703050494194,93.33334350585938,107526.0,1.0
15:35:21.563627,164998.171875,188767.203125,180662.984375,200055.09375,190181.078125,188714.09375,690622.375,199933.765625,0.041748046875,1.013916015625,0.03515625,-1.9226073026657104,-0.6103515028953552,-0.1525878757238388,93.33334350585938,107527.0,1.0
15:35:21.563646,164975.109375,188773.359375,180658.078125,200002.796875,190183.765625,188719.28125,690986.875,199923.84375,0.042236328125,1.01220703125,0.03662109375,-1.8920897245407104,-0.7324218153953552,0.0,93.33334350585938,107528.0,1.0
15:35:21.573087,164907.875,188756.734375,180647.609375,200034.359375,190172.5,188713.90625,690860.625,199931.265625,0.04052734375,1.012939453125,0.034912109375,-1.9836424589157104,-0.7019042372703552,0.0,93.33334350585938,107529.0,1.0
15:35:21.579846,164900.625,188750.484375,180645.375,200049.640625,190165.25,188709.796875,690507.75,199931.53125,0.041259765625,1.01171875,0.0341796875,-1.9226073026657104,-0.5798339247703552,0.1525878757238388,93.33334350585938,107530.0,1.0
15:35:21.579868,164983.78125,188763.4375,180656.015625,200051.875,190173.65625,188711.40625,690558.8125,199929.65625,0.041259765625,1.0107421875,0.035888671875,-1.9836424589157104,-0.6713866591453552,0.1220703050494194,93.33334350585938,107531.0,1.0
15:35:21.582407,164988.421875,188772.734375,180654.5,200010.125,190178.3125,188716.0625,690919.1875,199922.59375,0.040283203125,1.010986328125,0.035400390625,-2.014159917831421,-0.7324218153953552,0.0915527269244194,93.33334350585938,107532.0,1.0
15:35:21.582442,164921.109375,188762.453125,180650.65625,200027.015625,190174.28125,188716.0625,690919.4375,199932.78125,0.041015625,1.010498046875,0.032958984375,-2.014159917831421,-0.7629393935203552,0.1220703050494194,93.33334350585938,107533.0,1.0
15:35:21.588003,164903.21875,188755.84375,180652.890625,200060.546875,190174.015625,188715.515625,690535.625,199940.125,0.039794921875,1.010986328125,0.03515625,-2.044677495956421,-0.8544921278953552,0.2136230319738388,93.33334350585938,107534.0,1.0
15:35:21.605405,164980.734375,188770.953125,180668.4375,200061.796875,190188.5,188720.96875,690533.8125,199939.84375,0.04052734375,1.010986328125,0.034912109375,-2.044677495956421,-0.6713866591453552,0.1525878757238388,93.33334350585938,107535.0,1.0
15:35:21.654063,165011.140625,188784.1875,180673.984375,200032.65625,190199.578125,188727.046875,690863.375,199935.828125,0.039794921875,1.011474609375,0.034912109375,-2.075195074081421,-0.7324218153953552,0.1831054538488388,93.33334350585938,107536.0,1.0
15:35:21.654189,164943.984375,188778.28125,180669.0625,200024.078125,190197.171875,188729.375,690979.0,199938.515625,0.040771484375,1.01171875,0.031982421875,-1.9836424589157104,-0.7629393935203552,0.1525878757238388,93.33334350585938,107537.0,1.0
15:35:21.654423,164911.625,188766.125,180666.75,200067.171875,190191.265625,188723.921875,690579.375,199947.984375,0.04248046875,1.010498046875,0.03564453125,-2.014159917831421,-0.7324218153953552,0.0915527269244194,93.33334350585938,107538.0,1.0
15:35:21.654910,164975.015625,188779.171875,180678.71875,200063.234375,190199.765625,188726.6875,690496.75,199946.640625,0.04345703125,1.01220703125,0.0380859375,-2.014159917831421,-0.8239745497703552,0.0915527269244194,93.33334350585938,107539.0,1.0
15:35:21.654941,165026.421875,188794.015625,180685.96875,200047.578125,190209.421875,188730.71875,690782.8125,199943.609375,0.04296875,1.011474609375,0.035400390625,-2.075195074081421,-0.6103515028953552,0.1220703050494194,93.33334350585938,107540.0,1.0
15:35:21.658229,164961.0625,188787.84375,180678.640625,200018.703125,190203.875,188731.4375,691008.5,199941.015625,0.04296875,1.011962890625,0.0322265625,-2.014159917831421,-0.6103515028953552,0.1220703050494194,93.33334350585938,107541.0,1.0
15:35:21.658324,164915.65625,188767.734375,180671.03125,200071.28125,190194.046875,188722.9375,690640.625,199950.40625,0.04345703125,1.015625,0.03564453125,-2.044677495956421,-0.5798339247703552,0.0915527269244194,93.33334350585938,107542.0,1.0
15:35:21.658353,164961.15625,188775.59375,180678.375,200065.921875,190199.234375,188724.109375,690481.25,199948.078125,0.041015625,1.01513671875,0.03662109375,-2.136230230331421,-0.4882812201976776,0.1220703050494194,93.33334350585938,107543.0,1.0
15:35:21.661101,165031.4375,188789.640625,180688.5625,200061.984375,190211.390625,188728.125,690709.4375,199948.515625,0.042236328125,1.015869140625,0.033447265625,-2.105712652206421,-0.5798339247703552,0.0915527269244194,93.33334350585938,107544.0,1.0
15:35:21.661160,164972.15625,188784.0,180676.9375,200015.671875,190204.0625,188728.03125,691014.5625,199939.3125,0.04296875,1.013916015625,0.03515625,-2.105712652206421,-0.5798339247703552,0.0610351525247097,93.33334350585938,107545.0,1.0
15:35:21.663044,164915.109375,188763.265625,180665.40625,200065.015625,190189.03125,188718.828125,690705.5625,199947.984375,0.041748046875,1.013916015625,0.033935546875,-2.166747808456421,-0.5187987685203552,0.1831054538488388,93.33334350585938,107546.0,1.0
15:35:21.665470,164939.078125,188765.765625,180666.75,200059.203125,190186.984375,188718.640625,690478.125,199943.78125,0.04443359375,1.0146484375,0.033935546875,-2.227782964706421,-0.5187987685203552,0.1220703050494194,93.33334350585938,107547.0,1.0
15:35:21.668057,165020.078125,188783.640625,180678.09375,200061.53125,190198.25,188723.921875,690653.5625,199944.59375,0.04296875,1.01416015625,0.0361328125,-2.258300542831421,-0.4577636420726776,0.1220703050494194,93.33334350585938,107548.0,1.0
15:35:21.670756,164981.0,188788.296875,180673.453125,200009.140625,190199.234375,188730.453125,691006.8125,199935.5625,0.0419921875,1.014892578125,0.036376953125,-2.166747808456421,-0.3051757514476776,0.1220703050494194,93.33334350585938,107549.0,1.0
15:35:21.673005,164915.375,188764.328125,180661.203125,200048.03125,190186.359375,188719.71875,690788.125,199942.796875,0.04296875,1.0146484375,0.036376953125,-2.258300542831421,-0.3051757514476776,0.03051757626235485,93.33334350585938,107550.0,1.0
15:35:21.675526,164921.28125,188760.578125,180660.671875,200053.125,190183.671875,188716.953125,690489.75,199944.328125,0.04345703125,1.013427734375,0.036865234375,-2.288818120956421,-0.2441406100988388,0.1220703050494194,93.33334350585938,107551.0,1.0
15:35:21.678365,165003.890625,188771.671875,180669.515625,200053.3125,190193.0625,188716.140625,690610.625,199942.0,0.0419921875,1.013427734375,0.03564453125,-2.258300542831421,-0.1831054538488388,0.1525878757238388,93.33334350585938,107552.0,1.0
15:35:21.684083,164982.25,188774.34375,180662.71875,200000.828125,190192.96875,188717.9375,690969.6875,199930.90625,0.042724609375,1.01416015625,0.03564453125,-2.227782964706421,-0.0915527269244194,0.2136230319738388,93.33334350585938,107553.0,1.0
15:35:21.684109,164911.0,188753.421875,180649.40625,200026.3125,190177.6875,188708.90625,690858.5,199936.28125,0.042724609375,1.01318359375,0.0380859375,-2.227782964706421,-0.0610351525247097,0.2746581733226776,93.33334350585938,107554.0,1.0
15:35:21.685467,164903.484375,188749.5,180648.234375,200045.34375,190171.953125,188707.5625,690505.25,199939.21875,0.04248046875,1.011962890625,0.038330078125,-2.105712652206421,-0.1525878757238388,0.3356933295726776,93.33334350585938,107555.0,1.0
15:35:21.688896,164988.6875,188769.25,180663.171875,200046.25,190184.390625,188713.90625,690555.0625,199935.828125,0.04296875,1.011962890625,0.0390625,-2.014159917831421,-0.0610351525247097,0.3967284858226776,93.33334350585938,107556.0,1.0
15:35:21.688971,164998.34375,188781.40625,180665.671875,200007.265625,190190.828125,188720.609375,690911.125,199930.546875,0.04296875,1.0107421875,0.037353515625,-2.014159917831421,0.0610351525247097,0.3967284858226776,93.33334350585938,107557.0,1.0
15:35:21.691275,164929.0625,188767.90625,180658.609375,200017.90625,190182.953125,188717.9375,690931.4375,199936.453125,0.04150390625,1.009765625,0.03564453125,-1.9531248807907104,0.03051757626235485,0.3967284858226776,93.33334350585938,107558.0,1.0
15:35:21.691356,164905.71875,188754.328125,180654.5,200050.171875,190176.15625,188710.25,690541.875,199941.546875,0.04150390625,1.010498046875,0.03564453125,-1.9226073026657104,0.0,0.4272460639476776,93.33334350585938,107559.0,1.0
15:35:21.693415,164982.25,188769.609375,180669.703125,200051.25,190188.765625,188714.265625,690514.8125,199942.890625,0.039794921875,1.00830078125,0.033203125,-1.7395018339157104,0.0,0.3356933295726776,93.33334350585938,107560.0,1.0
15:35:21.707550,165009.53125,188779.171875,180670.046875,200021.03125,190194.40625,188715.078125,690834.0,199934.84375,0.0400390625,1.009521484375,0.0341796875,-1.7089842557907104,0.03051757626235485,0.3356933295726776,93.33334350585938,107561.0,1.0
15:35:21.707647,164938.984375,188768.8125,180660.484375,200008.609375,190187.25,188714.359375,690975.0625,199933.140625,0.03857421875,1.0087890625,0.034912109375,-1.6784666776657104,0.0,0.3051757514476776,93.33334350585938,107562.0,1.0
15:35:21.710526,164902.328125,188752.890625,180655.125,200055.0,190177.40625,188708.09375,690579.0,199941.015625,0.0361328125,1.008544921875,0.035400390625,-1.5869139432907104,0.03051757626235485,0.4272460639476776,93.33334350585938,107563.0,1.0
15:35:21.710564,164962.5,188764.421875,180664.875,200050.453125,190183.140625,188710.78125,690487.0625,199937.96875,0.037109375,1.010009765625,0.037353515625,-1.4953612089157104,0.03051757626235485,0.3051757514476776,93.33334350585938,107564.0,1.0
15:35:21.711823,165018.203125,188778.640625,180670.859375,200035.0625,190192.25,188715.078125,690765.75,199933.765625,0.0380859375,1.010986328125,0.037109375,-1.4038084745407104,0.03051757626235485,0.2136230319738388,93.33334350585938,107565.0,1.0
15:35:21.722042,164947.296875,188768.625,180656.546875,199996.171875,190180.625,188711.578125,691005.4375,199923.40625,0.038818359375,1.010986328125,0.036376953125,-1.2817381620407104,0.0,0.3051757514476776,93.33334350585938,107566.0,1.0
15:35:21.725137,164895.984375,188745.203125,180644.75,200044.640625,190165.15625,188699.34375,690655.5,199930.734375,0.037841796875,1.008544921875,0.03564453125,-1.2512205839157104,-0.1220703050494194,0.3967284858226776,93.33334350585938,107567.0,1.0
15:35:21.725220,164937.640625,188752.09375,180651.546875,200039.359375,190168.03125,188700.40625,690482.6875,199928.9375,0.0390625,1.008544921875,0.036865234375,-1.2512205839157104,-0.0610351525247097,0.4272460639476776,93.33334350585938,107568.0,1.0
15:35:21.734498,165008.625,188767.109375,180660.75,200033.640625,190177.859375,188703.8125,690705.9375,199926.171875,0.03857421875,1.010009765625,0.03857421875,-1.1596678495407104,-0.03051757626235485,0.5493163466453552,93.33334350585938,107569.0,1.0
15:35:21.739468,164957.3125,188769.609375,180655.84375,199989.375,190180.09375,188711.578125,691018.0,199920.8125,0.0390625,1.010986328125,0.037109375,-1.1596678495407104,-0.0915527269244194,0.4577636420726776,93.33334350585938,107570.0,1.0
15:35:21.739561,164902.5,188751.28125,180650.65625,200042.40625,190172.671875,188706.046875,690718.4375,199934.484375,0.039306640625,1.01220703125,0.0361328125,-1.0375975370407104,-0.03051757626235485,0.5187987685203552,93.33334350585938,107571.0,1.0
15:35:21.753715,164930.671875,188757.359375,180660.578125,200045.796875,190179.015625,188709.890625,690480.8125,199938.953125,0.039794921875,1.012939453125,0.03515625,-1.1291502714157104,-0.0915527269244194,0.5493163466453552,93.33334350585938,107572.0,1.0
15:35:21.753750,165013.375,188773.359375,180672.5625,200047.765625,190191.890625,188713.546875,690648.3125,199937.53125,0.039794921875,1.0126953125,0.03515625,-1.0986326932907104,-0.03051757626235485,0.6103515028953552,93.33334350585938,107573.0,1.0
15:35:21.756232,164979.484375,188779.984375,180669.875,199999.125,190196.015625,188721.859375,691003.6875,199930.46875,0.0390625,1.013427734375,0.035888671875,-1.0681151151657104,-0.1220703050494194,0.6103515028953552,93.33334350585938,107574.0,1.0
15:35:21.756315,164917.703125,188760.40625,180661.65625,200041.0625,190185.640625,188715.4375,690802.4375,199941.546875,0.037841796875,1.01171875,0.0361328125,-1.0986326932907104,-0.03051757626235485,0.7019042372703552,93.33334350585938,107575.0,1.0
15:35:21.758142,164920.828125,188755.65625,180660.125,200047.765625,190180.0,188710.953125,690494.6875,199940.03125,0.0390625,1.008544921875,0.035400390625,-1.0070799589157104,-0.1220703050494194,0.8239745497703552,93.33334350585938,107576.0,1.0
15:35:21.767115,165006.125,188769.703125,180671.75,200051.703125,190189.75,188711.578125,690592.5625,199939.140625,0.037353515625,1.010498046875,0.031982421875,-1.0681151151657104,-0.1220703050494194,0.8239745497703552,93.33334350585938,107577.0,1.0
15:35:21.773765,164995.40625,188779.53125,180671.65625,200006.28125,190195.109375,188718.296875,690965.75,199933.140625,0.0380859375,1.012939453125,0.03076171875,-1.0681151151657104,-0.1525878757238388,0.8239745497703552,93.33334350585938,107578.0,1.0
15:35:21.773789,164923.34375,188760.140625,180661.296875,200030.78125,190182.859375,188710.78125,690876.25,199938.234375,0.0390625,1.01318359375,0.033203125,-1.0070799589157104,-0.1831054538488388,0.9460448622703552,93.33334350585938,107579.0,1.0
15:35:21.776241,164911.984375,188752.984375,180659.59375,200050.453125,190176.34375,188706.484375,690513.1875,199938.234375,0.0400390625,1.01318359375,0.033447265625,-0.9765624403953552,-0.2136230319738388,1.1291502714157104,93.33334350585938,107580.0,1.0
15:35:21.776314,164996.03125,188769.703125,180673.984375,200052.953125,190188.40625,188710.15625,690553.0625,199937.96875,0.0390625,1.014404296875,0.03125,-1.0375975370407104,-0.2746581733226776,1.1596678495407104,93.33334350585938,107581.0,1.0
15:35:21.789245,165013.453125,188784.90625,180681.140625,200018.34375,190198.421875,188718.109375,690910.5,199935.203125,0.04150390625,1.0146484375,0.0302734375,-1.0681151151657104,-0.1831054538488388,1.0681151151657104,93.33334350585938,107582.0,1.0
15:35:21.799907,164942.828125,188770.328125,180671.3125,200024.15625,190190.109375,188714.265625,690952.625,199938.859375,0.04345703125,1.011474609375,0.030029296875,-1.0681151151657104,-0.1525878757238388,1.1901854276657104,93.33334350585938,107583.0,1.0
15:35:21.799931,164910.1875,188750.125,180660.671875,200054.921875,190176.78125,188702.015625,690560.5625,199940.75,0.04345703125,1.01123046875,0.03076171875,-1.0681151151657104,-0.1525878757238388,1.2817381620407104,93.33334350585938,107584.0,1.0
15:35:21.808620,164981.546875,188761.5625,180672.46875,200051.96875,190185.734375,188703.984375,690525.0625,199939.140625,0.041748046875,1.010986328125,0.03125,-1.0681151151657104,-0.2136230319738388,1.3732908964157104,93.33334350585938,107585.0,1.0
15:35:21.808648,165016.59375,188773.09375,180674.515625,200025.859375,190192.4375,188707.109375,690843.5625,199934.484375,0.039306640625,1.011474609375,0.03173828125,-1.1291502714157104,-0.2441406100988388,1.4038084745407104,93.33334350585938,107586.0,1.0
15:35:21.808654,164942.734375,188761.65625,180661.46875,200006.8125,190181.25,188704.171875,691000.1875,199929.390625,0.039306640625,1.01171875,0.03125,-1.0070799589157104,-0.3051757514476776,1.3732908964157104,93.33334350585938,107587.0,1.0
15:35:21.808660,164900.984375,188743.5,180652.4375,200051.515625,190168.921875,188694.6875,690603.75,199933.328125,0.039306640625,1.0126953125,0.033447265625,-1.1291502714157104,-0.1831054538488388,1.2207030057907104,93.33334350585938,107588.0,1.0
15:35:21.811143,164958.828125,188757.71875,180664.78125,200048.5625,190177.765625,188699.515625,690506.9375,199931.453125,0.039794921875,1.01513671875,0.03125,-1.2207030057907104,-0.1525878757238388,1.2817381620407104,93.33334350585938,107589.0,1.0
15:35:21.811154,165016.328125,188775.421875,180672.640625,200036.40625,190187.78125,188706.40625,690779.1875,199928.5,0.03857421875,1.015625,0.03466796875,-1.2817381620407104,-0.2441406100988388,1.0986326932907104,93.33334350585938,107590.0,1.0
15:35:21.819213,164954.265625,188772.375,180665.671875,199999.75,190182.0625,188710.6875,691032.4375,199921.515625,0.038818359375,1.015869140625,0.03271484375,-1.3122557401657104,-0.3662109076976776,1.0681151151657104,93.33334350585938,107591.0,1.0
15:35:21.826185,164905.28125,188753.25,180658.25,200049.546875,190171.875,188703.359375,690682.25,199931.09375,0.041015625,1.01611328125,0.03466796875,-1.4343260526657104,-0.4882812201976776,0.9765624403953552,93.33334350585938,107592.0,1.0
15:35:21.826199,164943.453125,188759.859375,180665.765625,200045.171875,190176.96875,188705.421875,690502.125,199929.296875,0.040771484375,1.01708984375,0.0322265625,-1.4648436307907104,-0.5187987685203552,1.0070799589157104,93.33334350585938,107593.0,1.0
15:35:21.828018,165016.328125,188775.15625,180675.6875,200041.0625,190189.296875,188709.34375,690714.0625,199928.234375,0.0419921875,1.017822265625,0.035888671875,-1.5563963651657104,-0.5493163466453552,1.0375975370407104,93.33334350585938,107594.0,1.0
15:35:21.838023,164969.5625,188779.265625,180671.84375,199996.359375,190192.078125,188717.578125,691042.5625,199922.421875,0.04345703125,1.017333984375,0.03515625,-1.5869139432907104,-0.5798339247703552,0.7629393935203552,93.33334350585938,107595.0,1.0
15:35:21.841107,164914.578125,188760.140625,180665.765625,200046.6875,190182.328125,188710.0625,690757.25,199933.328125,0.042236328125,1.017333984375,0.033203125,-1.8005369901657104,-0.5798339247703552,0.7019042372703552,93.33334350585938,107596.0,1.0
