Timestamp,Fz,FC3,FCz,FC4,Cz,C3,C4
15:38:49.862835,161821.71875,183789.1875,178605.5625,190469.859375,179060.734375,182053.265625,691389.625,194842.578125,0.050048828125,1.0087890625,-0.035400390625,-2.441406011581421,0.2441406100988388,0.7934569716453552,93.33334350585938,159648.0,1.0
15:38:49.870182,161778.453125,183771.40625,178594.65625,190461.09375,179041.953125,182043.609375,690660.25,194834.53125,0.0498046875,1.0078125,-0.034912109375,-2.410888433456421,0.2441406100988388,0.7629393935203552,93.33334350585938,159649.0,1.0
15:38:49.877075,161887.25,183778.828125,178600.640625,190476.5625,179046.515625,182034.5,690680.1875,194828.359375,0.050048828125,1.008056640625,-0.03369140625,-2.441406011581421,0.3662109076976776,0.7324218153953552,93.33334350585938,159650.0,1.0
15:38:49.877133,161928.109375,183786.875,178599.125,190460.203125,179052.5,182033.0625,691360.125,194822.640625,0.050048828125,1.0078125,-0.03369140625,-2.410888433456421,0.2136230319738388,0.7324218153953552,93.33334350585938,159651.0,1.0
15:38:49.884527,161815.640625,183766.9375,178582.84375,190443.21875,179035.515625,182028.6875,691492.75,194821.484375,0.048095703125,1.0078125,-0.03271484375,-2.410888433456421,0.1525878757238388,0.7934569716453552,93.33334350585938,159652.0,1.0
15:38:49.884579,161754.9375,183752.8125,178577.296875,190449.390625,179023.359375,182026.71875,690741.625,194824.609375,0.048583984375,1.01025390625,-0.0322265625,-2.410888433456421,0.1831054538488388,0.7629393935203552,93.33334350585938,159653.0,1.0
15:38:49.886469,161859.984375,183769.53125,178597.0625,190469.859375,179040.96875,182030.015625,690614.125,194830.953125,0.05029296875,1.010986328125,-0.034912109375,-2.288818120956421,0.1831054538488388,0.9155272841453552,93.33334350585938,159654.0,1.0
15:38:49.892575,161933.203125,183783.5625,178603.59375,190474.0625,179056.609375,182030.5625,691219.3125,194832.921875,0.048828125,1.010986328125,-0.034423828125,-2.258300542831421,0.0915527269244194,1.0681151151657104,93.33334350585938,159655.0,1.0
15:38:49.908209,161840.140625,183773.640625,178589.640625,190446.890625,179043.921875,182032.890625,691565.75,194831.140625,0.052001953125,1.009765625,-0.033447265625,-2.227782964706421,0.0915527269244194,1.1596678495407104,93.33334350585938,159656.0,1.0
15:38:49.908276,161757.609375,183755.046875,178579.984375,190456.984375,179024.15625,182028.859375,690841.5625,194833.734375,0.0517578125,1.009765625,-0.032470703125,-2.258300542831421,0.1220703050494194,1.2207030057907104,93.33334350585938,159657.0,1.0
15:38:49.915118,161842.90625,183769.609375,178597.234375,190470.046875,179034.625,182030.734375,690581.125,194835.609375,0.051025390625,1.009765625,-0.032958984375,-2.197265386581421,0.2136230319738388,1.2207030057907104,93.33334350585938,159658.0,1.0
15:38:49.915164,161945.90625,183791.421875,178611.640625,190492.390625,179055.09375,182035.203125,691104.375,194840.34375,0.052490234375,1.010009765625,-0.033447265625,-2.136230230331421,0.1831054538488388,1.3427733182907104,93.33334350585938,159659.0,1.0
15:38:49.915180,161874.828125,183790.453125,178605.109375,190460.46875,179054.296875,182040.9375,691613.6875,194836.859375,0.050537109375,1.009521484375,-0.02880859375,-2.105712652206421,0.1220703050494194,1.4343260526657104,93.33334350585938,159660.0,1.0
15:38:49.918271,161777.46875,183773.640625,178597.421875,190473.625,179036.3125,182040.390625,690978.5625,194840.875,0.05078125,1.009765625,-0.03125,-2.166747808456421,0.1525878757238388,1.4648436307907104,93.33334350585938,159661.0,1.0
15:38:49.918297,161835.125,183783.03125,178611.09375,190472.71875,179042.671875,182044.15625,690566.9375,194839.8125,0.052001953125,1.010498046875,-0.031494140625,-2.075195074081421,0.1525878757238388,1.4648436307907104,93.33334350585938,159662.0,1.0
15:38:49.920380,161952.34375,183800.734375,178624.328125,190498.65625,179061.078125,182044.953125,690962.4375,194841.328125,0.0517578125,1.01171875,-0.03369140625,-2.014159917831421,0.2136230319738388,1.4648436307907104,93.33334350585938,159663.0,1.0
15:38:49.930704,161901.375,183798.40625,178612.53125,190456.453125,179055.28125,182045.9375,691598.25,194830.421875,0.05126953125,1.01123046875,-0.032470703125,-2.075195074081421,0.2441406100988388,1.4953612089157104,93.33334350585938,159664.0,1.0
15:38:49.934554,161786.9375,183776.234375,178597.875,190466.90625,179034.890625,182044.328125,691117.125,194834.171875,0.05224609375,1.013671875,-0.032470703125,-1.9531248807907104,0.2136230319738388,1.4038084745407104,93.33334350585938,159665.0,1.0
15:38:49.934601,161809.109375,183776.40625,178601.0,190460.828125,179031.671875,182044.59375,690577.125,194831.140625,0.05419921875,1.015380859375,-0.034912109375,-1.9226073026657104,0.2441406100988388,1.4648436307907104,93.33334350585938,159666.0,1.0
15:38:49.936450,161932.671875,183789.546875,178613.25,190491.234375,179047.671875,182042.546875,690860.1875,194835.0625,0.05615234375,1.014892578125,-0.034912109375,-1.9531248807907104,0.1831054538488388,1.4953612089157104,93.33334350585938,159667.0,1.0
15:38:49.947611,161913.984375,183793.578125,178607.25,190457.171875,179050.453125,182046.390625,691552.8125,194830.15625,0.054931640625,1.01318359375,-0.0361328125,-1.8920897245407104,0.2746581733226776,1.4343260526657104,93.33334350585938,159668.0,1.0
15:38:49.950744,161793.46875,183771.046875,178589.734375,190458.6875,179027.921875,182042.09375,691258.75,194830.59375,0.055908203125,1.012451171875,-0.037353515625,-1.8615721464157104,0.2746581733226776,1.4038084745407104,93.33334350585938,159669.0,1.0
15:38:49.950761,161789.359375,183769.703125,178594.734375,190454.390625,179023.796875,182044.0625,690604.9375,194830.15625,0.05615234375,1.01220703125,-0.036865234375,-1.8310545682907104,0.2746581733226776,1.2512205839157104,93.33334350585938,159670.0,1.0
15:38:49.957714,161918.375,183789.28125,178614.234375,190490.25,179044.015625,182044.59375,690746.8125,194837.75,0.055419921875,1.01220703125,-0.03515625,-1.8310545682907104,0.2441406100988388,1.1901854276657104,93.33334350585938,159671.0,1.0
15:38:49.976913,161927.578125,183791.609375,178607.34375,190461.1875,179045.703125,182039.953125,691453.8125,194829.4375,0.053466796875,1.01123046875,-0.031494140625,-1.8310545682907104,0.3051757514476776,1.1291502714157104,93.33334350585938,159672.0,1.0
15:38:49.976990,161805.8125,183767.296875,178586.25,190451.09375,179021.296875,182033.421875,691387.9375,194827.5625,0.052978515625,1.0126953125,-0.0322265625,-1.8920897245407104,0.3051757514476776,1.1291502714157104,93.33334350585938,159673.0,1.0
15:38:49.977016,161768.4375,183757.1875,178583.390625,190448.5,179009.5,182031.984375,690661.6875,194826.390625,0.0537109375,1.01171875,-0.03173828125,-1.8005369901657104,0.2441406100988388,0.9765624403953552,93.33334350585938,159674.0,1.0
15:38:49.977039,161887.25,183774.078125,178602.34375,190476.125,179030.0625,182033.953125,690676.625,194834.359375,0.052490234375,1.01025390625,-0.028076171875,-1.9226073026657104,0.2746581733226776,0.6713866591453552,93.33334350585938,159675.0,1.0
15:38:49.979551,161934.46875,183783.296875,178608.15625,190468.875,179046.515625,182035.203125,691342.25,194838.28125,0.05126953125,1.01416015625,-0.0283203125,-1.9836424589157104,0.3051757514476776,0.6713866591453552,93.33334350585938,159676.0,1.0
15:38:49.979615,161824.484375,183765.59375,178593.21875,190451.625,179033.375,182033.59375,691497.0,194840.796875,0.052490234375,1.01318359375,-0.02734375,-2.075195074081421,0.2746581733226776,0.4577636420726776,93.33334350585938,159677.0,1.0
15:38:49.981508,161763.25,183753.96875,178585.796875,190456.90625,179016.46875,182032.703125,690742.9375,194841.859375,0.0546875,1.011474609375,-0.028564453125,-2.105712652206421,0.1831054538488388,0.5187987685203552,93.33334350585938,159678.0,1.0
15:38:49.985174,161866.0625,183769.171875,178601.984375,190475.234375,179028.359375,182033.421875,690605.375,194844.71875,0.054443359375,1.011962890625,-0.030029296875,-2.105712652206421,0.2136230319738388,0.5187987685203552,93.33334350585938,159679.0,1.0
15:38:49.997627,161939.828125,183779.8125,178607.515625,190479.15625,179042.3125,182031.71875,691200.3125,194846.328125,0.054443359375,1.014404296875,-0.03076171875,-2.044677495956421,0.3051757514476776,0.4577636420726776,93.33334350585938,159680.0,1.0
15:38:50.000692,161846.671875,183768.71875,178592.328125,190448.859375,179030.234375,182029.84375,691568.4375,194842.40625,0.055419921875,1.01123046875,-0.031494140625,-2.075195074081421,0.2746581733226776,0.4882812201976776,93.33334350585938,159681.0,1.0
15:38:50.000760,161758.234375,183748.6875,178579.625,190455.734375,179007.171875,182023.046875,690853.8125,194839.625,0.054443359375,1.010986328125,-0.03271484375,-2.136230230331421,0.2746581733226776,0.4577636420726776,93.33334350585938,159682.0,1.0
15:38:50.002688,161835.484375,183760.234375,178592.0625,190460.921875,179012.09375,182022.328125,690572.125,194836.046875,0.05224609375,1.0126953125,-0.032958984375,-2.227782964706421,0.3356933295726776,0.4272460639476776,93.33334350585938,159683.0,1.0
15:38:50.013228,161938.484375,183780.078125,178604.390625,190476.921875,179029.53125,182023.5,691079.375,194837.125,0.052978515625,1.012939453125,-0.033935546875,-2.197265386581421,0.2746581733226776,0.4577636420726776,93.33334350585938,159684.0,1.0
15:38:50.013282,161866.25,183775.0625,178592.953125,190439.203125,179020.765625,182022.875,691601.25,194829.703125,0.0517578125,1.011474609375,-0.03271484375,-2.197265386581421,0.2136230319738388,0.4882812201976776,93.33334350585938,159685.0,1.0
15:38:50.015114,161767.265625,183756.109375,178583.203125,190456.265625,178999.65625,182018.578125,690986.9375,194832.203125,0.05029296875,1.011474609375,-0.03173828125,-2.258300542831421,0.2136230319738388,0.4577636420726776,93.33334350585938,159686.0,1.0
15:38:50.018832,161827.796875,183770.859375,178601.984375,190467.53125,179010.5625,182026.453125,690563.0625,194836.953125,0.0517578125,1.0126953125,-0.029541015625,-2.197265386581421,0.2136230319738388,0.5187987685203552,93.33334350585938,159687.0,1.0
15:38:50.068456,161950.015625,183790.0,178621.921875,190501.515625,179034.703125,182029.75,690951.8125,194843.46875,0.051513671875,1.0126953125,-0.029052734375,-2.227782964706421,0.1831054538488388,0.5187987685203552,93.33334350585938,159688.0,1.0
15:38:50.068555,161908.359375,183792.59375,178617.8125,190464.953125,179037.75,182036.375,691591.25,194837.390625,0.050537109375,1.01220703125,-0.030029296875,-2.288818120956421,0.2136230319738388,0.5187987685203552,93.33334350585938,159689.0,1.0
15:38:50.070734,161796.234375,183772.5625,178603.140625,190473.890625,179015.390625,182034.671875,691127.6875,194836.953125,0.048828125,1.013427734375,-0.033447265625,-2.380370855331421,0.1525878757238388,0.5798339247703552,93.33334350585938,159690.0,1.0
15:38:50.070801,161815.546875,183777.296875,178606.984375,190465.296875,179011.375,182037.0,690572.625,194828.28125,0.049072265625,1.0126953125,-0.031005859375,-2.410888433456421,0.1220703050494194,0.5187987685203552,93.33334350585938,159691.0,1.0
15:38:50.072645,161937.59375,183793.578125,178619.421875,190491.5,179028.265625,182037.171875,690829.125,194827.734375,0.048583984375,1.011962890625,-0.02978515625,-2.471923589706421,0.0610351525247097,0.5798339247703552,93.33334350585938,159692.0,1.0
15:38:50.075110,161915.6875,183793.3125,178606.8125,190445.71875,179025.234375,182037.359375,691533.5625,194813.796875,0.047119140625,1.01123046875,-0.0302734375,-2.502441167831421,-0.0915527269244194,0.5187987685203552,93.33334350585938,159693.0,1.0
15:38:50.077604,161794.984375,183771.140625,178588.65625,190445.359375,179003.78125,182035.828125,691274.0625,194816.921875,0.048095703125,1.00927734375,-0.030029296875,-2.441406011581421,-0.3051757514476776,0.5493163466453552,93.33334350585938,159694.0,1.0
15:38:50.080336,161783.0,183765.234375,178590.265625,190442.859375,178996.890625,182035.5625,690606.1875,194818.703125,0.0478515625,1.010009765625,-0.02880859375,-2.410888433456421,-0.3051757514476776,0.4882812201976776,93.33334350585938,159695.0,1.0
15:38:50.082662,161905.21875,183777.296875,178603.59375,190472.015625,179011.015625,182031.71875,690726.875,194822.734375,0.049560546875,1.00927734375,-0.0283203125,-2.532958745956421,-0.3662109076976776,0.4577636420726776,93.33334350585938,159696.0,1.0
15:38:50.085109,161919.0,183780.796875,178597.515625,190442.953125,179015.671875,182029.84375,691429.25,194816.921875,0.0498046875,1.009033203125,-0.0322265625,-2.319335699081421,-0.4272460639476776,0.4577636420726776,93.33334350585938,159697.0,1.0
15:38:50.087671,161797.84375,183755.40625,178576.046875,190430.875,178993.21875,182021.96875,691395.75,194816.296875,0.049072265625,1.008544921875,-0.0302734375,-2.288818120956421,-0.5493163466453552,0.4577636420726776,93.33334350585938,159698.0,1.0
15:38:50.117835,161761.453125,183747.4375,178578.90625,190439.015625,178985.625,182021.625,690669.3125,194820.859375,0.048095703125,1.008544921875,-0.0283203125,-2.349853277206421,-0.5493163466453552,0.5187987685203552,93.33334350585938,159699.0,1.0
15:38:50.120204,161881.359375,183767.640625,178603.046875,190469.953125,179006.90625,182025.28125,690653.625,194829.34375,0.048095703125,1.01025390625,-0.03173828125,-2.319335699081421,-0.7019042372703552,0.4882812201976776,93.33334350585938,159700.0,1.0
15:38:50.122746,161938.9375,183785.265625,178610.46875,190464.3125,179021.828125,182030.828125,691319.0,194828.984375,0.049560546875,1.00927734375,-0.02978515625,-2.166747808456421,-0.7324218153953552,0.4882812201976776,93.33334350585938,159701.0,1.0
15:38:50.125124,161835.21875,183772.125,178596.890625,190447.0625,179008.25,182031.625,691514.125,194829.96875,0.04833984375,1.010498046875,-0.03173828125,-2.227782964706421,-0.7019042372703552,0.5798339247703552,93.33334350585938,159702.0,1.0
15:38:50.128168,161768.703125,183757.09375,178590.890625,190454.84375,178992.78125,182029.125,690766.125,194832.5625,0.0498046875,1.010009765625,-0.030517578125,-2.136230230331421,-0.7324218153953552,0.4882812201976776,93.33334350585938,159703.0,1.0
15:38:50.128189,161868.921875,183773.375,178609.3125,190472.28125,179008.953125,182033.59375,690613.75,194839.265625,0.050537109375,1.010986328125,-0.032470703125,-2.105712652206421,-0.6713866591453552,0.3967284858226776,93.33334350585938,159704.0,1.0
15:38:50.130172,161948.140625,183787.40625,178617.53125,190482.828125,179027.109375,182036.28125,691200.625,194845.265625,0.052001953125,1.009521484375,-0.03173828125,-2.166747808456421,-0.8239745497703552,0.3662109076976776,93.33334350585938,159705.0,1.0
15:38:50.133243,161856.59375,183775.34375,178602.15625,190452.421875,179013.25,182034.40625,691588.5625,194843.109375,0.052734375,1.008544921875,-0.028564453125,-2.014159917831421,-0.8544921278953552,0.3662109076976776,93.33334350585938,159706.0,1.0
15:38:50.133251,161769.328125,183755.3125,178591.875,190465.296875,178993.3125,182029.125,690879.875,194845.890625,0.053466796875,1.00927734375,-0.02978515625,-2.105712652206421,-0.7934569716453552,0.3356933295726776,93.33334350585938,159707.0,1.0
15:38:50.135157,161843.265625,183762.28125,178602.703125,190472.015625,178997.96875,182025.28125,690575.875,194842.671875,0.0546875,1.0068359375,-0.031005859375,-2.075195074081421,-0.7934569716453552,0.3356933295726776,93.33334350585938,159708.0,1.0
15:38:50.137724,161945.453125,183777.21875,178610.46875,190489.4375,179009.40625,182021.703125,691067.0625,194839.984375,0.0537109375,1.0087890625,-0.03271484375,-1.9531248807907104,-0.7934569716453552,0.3051757514476776,93.33334350585938,159709.0,1.0
15:38:50.140119,161871.96875,183768.546875,178594.296875,190447.15625,178996.4375,182019.5625,691609.5625,194830.0625,0.053955078125,1.009521484375,-0.03564453125,-1.8920897245407104,-0.7324218153953552,0.3356933295726776,93.33334350585938,159710.0,1.0
15:38:50.142637,161761.453125,183742.796875,178575.25,190452.15625,178968.375,182010.53125,691008.75,194826.125,0.054931640625,1.011962890625,-0.0341796875,-1.9531248807907104,-0.7019042372703552,0.4272460639476776,93.33334350585938,159711.0,1.0
15:38:50.145681,161813.21875,183755.84375,178589.46875,190451.359375,178973.46875,182016.078125,690563.375,194824.515625,0.054931640625,1.01171875,-0.033203125,-1.8920897245407104,-0.7324218153953552,0.3967284858226776,93.33334350585938,159712.0,1.0
15:38:50.145703,161942.859375,183781.953125,178612.4375,190487.125,178999.65625,182023.5,690937.9375,194832.390625,0.0537109375,1.011474609375,-0.03173828125,-1.8310545682907104,-0.7019042372703552,0.4272460639476776,93.33334350585938,159713.0,1.0
15:38:50.148223,161906.75,183787.671875,178609.3125,190450.640625,179003.5,182030.46875,691589.75,194827.296875,0.054443359375,1.010986328125,-0.031982421875,-1.8310545682907104,-0.6103515028953552,0.4577636420726776,93.33334350585938,159714.0,1.0
15:38:50.148257,161793.5625,183768.359375,178599.484375,190462.4375,178987.953125,182030.828125,691151.8125,194832.65625,0.0546875,1.011962890625,-0.034912109375,-1.8615721464157104,-0.4882812201976776,0.3967284858226776,93.33334350585938,159715.0,1.0
15:38:50.150292,161820.734375,183779.890625,178616.90625,190468.703125,178998.5,182040.484375,690577.9375,194839.71875,0.056640625,1.01171875,-0.0322265625,-1.8310545682907104,-0.4577636420726776,0.4272460639476776,93.33334350585938,159716.0,1.0
15:38:50.153511,161951.625,183799.390625,178637.75,190506.78125,179022.8125,182041.46875,690828.0,194848.75,0.056640625,1.0107421875,-0.03173828125,-1.7395018339157104,-0.3662109076976776,0.5187987685203552,93.33334350585938,159717.0,1.0
15:38:50.153590,161944.921875,183806.546875,178637.109375,190477.90625,179033.015625,182045.9375,691524.0,194848.484375,0.055419921875,1.009033203125,-0.031494140625,-1.6784666776657104,-0.2746581733226776,0.4272460639476776,93.33334350585938,159718.0,1.0
15:38:50.155518,161830.390625,183787.5,178624.25,190482.734375,179017.0,182046.65625,691297.1875,194854.734375,0.05517578125,1.010986328125,-0.03369140625,-1.7089842557907104,-0.1220703050494194,0.4577636420726776,93.33334350585938,159719.0,1.0
15:38:50.158357,161818.859375,183786.875,178629.15625,190483.90625,179011.546875,182050.765625,690625.8125,194856.171875,0.05615234375,1.01123046875,-0.0322265625,-1.6479490995407104,-0.0610351525247097,0.5187987685203552,93.33334350585938,159720.0,1.0
15:38:50.158440,161942.59375,183804.484375,178645.96875,190514.203125,179026.21875,182052.828125,690741.0625,194859.75,0.053955078125,1.01171875,-0.031005859375,-1.7700194120407104,0.0,0.3967284858226776,93.33334350585938,159721.0,1.0
15:38:50.160702,161959.671875,183809.484375,178638.375,190483.453125,179026.484375,182052.46875,691444.4375,194849.46875,0.05419921875,1.01123046875,-0.033447265625,-1.7395018339157104,0.03051757626235485,0.3662109076976776,93.33334350585938,159722.0,1.0
15:38:50.160760,161833.703125,183780.703125,178612.890625,190463.0625,179001.359375,182043.96875,691437.5,194842.3125,0.054443359375,1.0107421875,-0.033447265625,-1.6784666776657104,0.0,0.3051757514476776,93.33334350585938,159723.0,1.0
15:38:50.176379,161781.9375,183763.796875,178603.5,190456.625,178985.265625,182038.34375,690695.875,194839.1875,0.052978515625,1.00927734375,-0.0322265625,-1.6174315214157104,-0.03051757626235485,0.2746581733226776,93.33334350585938,159724.0,1.0
15:38:50.180697,161889.84375,183774.796875,178613.515625,190474.0625,178995.375,182033.59375,690657.6875,194838.46875,0.052734375,1.01171875,-0.03466796875,-1.5869139432907104,0.0,0.1831054538488388,93.33334350585938,159725.0,1.0
15:38:50.180723,161939.921875,183781.6875,178612.4375,190462.078125,179004.9375,182030.375,691310.8125,194832.921875,0.0517578125,1.009765625,-0.036865234375,-1.5563963651657104,0.0,0.2136230319738388,93.33334350585938,159726.0,1.0
15:38:50.186910,161825.65625,183758.265625,178588.5625,190432.484375,178981.6875,182021.53125,691530.375,194822.1875,0.05078125,1.01025390625,-0.03515625,-1.4648436307907104,0.0610351525247097,0.1831054538488388,93.33334350585938,159727.0,1.0
15:38:50.186956,161754.3125,183740.828125,178578.46875,190436.328125,178960.0625,182015.53125,690783.125,194820.046875,0.0517578125,1.00830078125,-0.03466796875,-1.4343260526657104,0.03051757626235485,0.2746581733226776,93.33334350585938,159728.0,1.0
15:38:50.189453,161849.53125,183752.984375,178592.953125,190450.8125,178969.078125,182013.65625,690610.625,194820.234375,0.05078125,1.009765625,-0.033935546875,-1.4038084745407104,0.0915527269244194,0.1831054538488388,93.33334350585938,159729.0,1.0
15:38:50.189497,161931.328125,183765.234375,178600.375,190460.75,178984.1875,182011.421875,691188.5625,194822.1875,0.050048828125,1.011474609375,-0.0341796875,-1.4343260526657104,0.1831054538488388,0.2441406100988388,93.33334350585938,159730.0,1.0
15:38:50.197745,161841.75,183753.078125,178585.53125,190428.109375,178972.9375,182008.828125,691596.6875,194816.46875,0.05224609375,1.01025390625,-0.03369140625,-1.4953612089157104,0.2136230319738388,0.2441406100988388,93.33334350585938,159731.0,1.0
15:38:50.204466,161751.890625,183733.671875,178575.421875,190439.640625,178953.078125,182004.28125,690891.8125,194818.171875,0.052978515625,1.01123046875,-0.03466796875,-1.4343260526657104,0.2746581733226776,0.2136230319738388,93.33334350585938,159732.0,1.0
15:38:50.204534,161821.0,183742.96875,178587.3125,190444.203125,178958.796875,182003.46875,690560.5625,194817.015625,0.0537109375,1.008544921875,-0.0341796875,-1.4648436307907104,0.3051757514476776,0.3051757514476776,93.33334350585938,159733.0,1.0
15:38:50.207689,161930.171875,183760.765625,178598.140625,190468.796875,178974.359375,182004.28125,691028.625,194820.046875,0.05224609375,1.010009765625,-0.03369140625,-1.4343260526657104,0.2746581733226776,0.3051757514476776,93.33334350585938,159734.0,1.0
15:38:50.221959,161866.0625,183755.9375,178584.71875,190428.109375,178964.96875,182005.34375,691601.1875,194810.484375,0.0517578125,1.0126953125,-0.03466796875,-1.4343260526657104,0.3051757514476776,0.4272460639476776,93.33334350585938,159735.0,1.0
15:38:50.222028,161761.640625,183736.796875,178572.46875,190439.46875,178942.984375,182002.578125,691022.1875,194812.984375,0.05224609375,1.01171875,-0.033935546875,-1.4343260526657104,0.3051757514476776,0.4577636420726776,93.33334350585938,159736.0,1.0
15:38:50.224518,161801.875,183741.8125,178579.984375,190435.796875,178943.421875,182004.8125,690558.1875,194809.046875,0.05322265625,1.01220703125,-0.033203125,-1.3122557401657104,0.3051757514476776,0.5187987685203552,93.33334350585938,159737.0,1.0
15:38:50.224582,161919.984375,183757.1875,178590.984375,190464.671875,178959.15625,182004.8125,690918.9375,194811.90625,0.052001953125,1.011474609375,-0.03271484375,-1.3427733182907104,0.3356933295726776,0.5798339247703552,93.33334350585938,159738.0,1.0
15:38:50.231406,161879.03125,183754.859375,178578.734375,190420.953125,178953.796875,182003.109375,691579.375,194802.25,0.05126953125,1.010009765625,-0.03466796875,-1.4343260526657104,0.3356933295726776,0.7019042372703552,93.33334350585938,159739.0,1.0
15:38:50.238197,161763.421875,183732.328125,178563.625,190429.09375,178930.1875,181996.9375,691171.5625,194805.125,0.050537109375,1.010986328125,-0.033203125,-1.4038084745407104,0.1831054538488388,0.8544921278953552,93.33334350585938,159740.0,1.0
15:38:50.238213,161780.421875,183738.046875,178573.109375,190431.15625,178931.171875,182000.515625,690580.4375,194807.0,0.05126953125,1.01025390625,-0.034423828125,-1.3732908964157104,0.3356933295726776,0.7934569716453552,93.33334350585938,159741.0,1.0
15:38:50.241900,161912.828125,183760.3125,178594.734375,190469.78125,178955.046875,182004.1875,690805.1875,194816.390625,0.050048828125,1.01171875,-0.035400390625,-1.3732908964157104,0.3967284858226776,0.8850097060203552,93.33334350585938,159742.0,1.0
15:38:50.241931,161912.203125,183770.6875,178593.84375,190440.53125,178962.46875,182010.890625,691510.875,194814.953125,0.049072265625,1.0126953125,-0.033447265625,-1.3427733182907104,0.3967284858226776,0.9155272841453552,93.33334350585938,159743.0,1.0
15:38:50.251418,161802.765625,183758.265625,178587.859375,190450.90625,178953.96875,182016.703125,691312.125,194827.65625,0.049560546875,1.0126953125,-0.03369140625,-1.3427733182907104,0.3051757514476776,0.7934569716453552,93.33334350585938,159744.0,1.0
15:38:50.258245,161791.765625,183760.671875,178598.84375,190456.1875,178957.546875,182024.65625,690623.1875,194835.15625,0.049072265625,1.011962890625,-0.03515625,-1.3122557401657104,0.1525878757238388,0.7324218153953552,93.33334350585938,159745.0,1.0
15:38:50.258311,161918.734375,183780.609375,178620.9375,190487.75,178979.640625,182029.484375,690715.4375,194841.78125,0.046875,1.011474609375,-0.0341796875,-1.3732908964157104,0.1220703050494194,0.6713866591453552,93.33334350585938,159746.0,1.0
15:38:50.261235,161949.9375,183792.5,178624.0625,190469.6875,178993.5,182035.203125,691404.5625,194841.234375,0.046142578125,1.011962890625,-0.03369140625,-1.4343260526657104,0.0610351525247097,0.5798339247703552,93.33334350585938,159747.0,1.0
15:38:50.261314,161835.046875,183773.546875,178609.125,190457.53125,178978.109375,182034.21875,691432.1875,194844.28125,0.04736328125,1.012939453125,-0.03466796875,-1.5869139432907104,0.0,0.4882812201976776,93.33334350585938,159748.0,1.0
15:38:50.271999,161789.171875,183765.40625,178608.59375,190461.09375,178969.625,182036.640625,690694.125,194848.390625,0.04736328125,1.013671875,-0.034912109375,-1.6174315214157104,-0.0610351525247097,0.4577636420726776,93.33334350585938,159749.0,1.0
15:38:50.278231,161902.0,183783.734375,178626.484375,190483.625,178984.015625,182040.296875,690648.375,194852.328125,0.0478515625,1.01416015625,-0.033203125,-1.6784666776657104,-0.1220703050494194,0.3051757514476776,93.33334350585938,159750.0,1.0
15:38:50.278278,161957.265625,183792.40625,178624.25,190473.171875,178989.296875,182036.90625,691292.1875,194844.28125,0.050537109375,1.014892578125,-0.031005859375,-1.7089842557907104,-0.2136230319738388,0.3662109076976776,93.33334350585938,159751.0,1.0
15:38:50.284690,161848.1875,183771.84375,178603.59375,190445.1875,178972.9375,182031.359375,691534.75,194837.125,0.0517578125,1.016357421875,-0.029541015625,-1.7395018339157104,-0.1831054538488388,0.2136230319738388,93.33334350585938,159752.0,1.0
15:38:50.284768,161771.734375,183754.859375,178595.90625,190450.546875,178957.015625,182028.0625,690787.5625,194836.40625,0.051025390625,1.018798828125,-0.028564453125,-1.8920897245407104,-0.3051757514476776,0.3356933295726776,93.33334350585938,159753.0,1.0
15:38:50.291929,161866.421875,183770.78125,178612.703125,190462.890625,178969.078125,182030.921875,690600.0625,194835.609375,0.0517578125,1.019775390625,-0.03076171875,-1.9226073026657104,-0.3967284858226776,0.3662109076976776,93.33334350585938,159754.0,1.0
15:38:50.291980,161950.640625,183783.03125,178615.125,190469.140625,178978.296875,182026.171875,691161.1875,194829.34375,0.0546875,1.01611328125,-0.02685546875,-1.9836424589157104,-0.3356933295726776,0.3967284858226776,93.33334350585938,159755.0,1.0
15:38:50.297583,161859.1875,183765.40625,178595.1875,190430.609375,178959.703125,182018.40625,691590.5625,194818.34375,0.053466796875,1.017333984375,-0.02783203125,-2.014159917831421,-0.2746581733226776,0.3967284858226776,93.33334350585938,159756.0,1.0
15:38:50.308203,161765.21875,183742.34375,178584.359375,190444.375,178940.390625,182012.140625,690913.4375,194822.109375,0.052001953125,1.01708984375,-0.030029296875,-2.136230230331421,-0.2746581733226776,0.3662109076976776,93.33334350585938,159757.0,1.0
15:38:50.308220,161829.140625,183749.140625,178593.484375,190447.0625,178941.90625,182008.5625,690566.5,194819.515625,0.0517578125,1.016357421875,-0.0322265625,-2.227782964706421,-0.1831054538488388,0.3051757514476776,93.33334350585938,159758.0,1.0
15:38:50.310684,161932.859375,183760.765625,178599.65625,190465.75,178953.625,182003.5625,691019.5,194816.828125,0.0517578125,1.014892578125,-0.031005859375,-2.258300542831421,-0.2441406100988388,0.3662109076976776,93.33334350585938,159759.0,1.0
15:38:50.310709,161866.25,183753.515625,178584.640625,190421.765625,178943.875,182002.484375,691597.9375,194806.90625,0.05224609375,1.01416015625,-0.0302734375,-2.227782964706421,-0.3356933295726776,0.3967284858226776,93.33334350585938,159760.0,1.0
15:38:50.317663,161752.703125,183727.140625,178564.78125,190427.21875,178915.078125,181993.8125,691044.25,194804.671875,0.053955078125,1.01416015625,-0.029296875,-2.319335699081421,-0.3662109076976776,0.4577636420726776,93.33334350585938,159761.0,1.0
15:38:50.326868,161785.875,183727.59375,178566.578125,190421.3125,178909.1875,181989.703125,690555.75,194798.328125,0.052001953125,1.013916015625,-0.033203125,-2.380370855331421,-0.4272460639476776,0.3356933295726776,93.33334350585938,159762.0,1.0
15:38:50.326884,161909.78125,183746.453125,178581.859375,190453.765625,178929.75,181992.03125,690889.875,194803.15625,0.05029296875,1.013916015625,-0.032470703125,-2.380370855331421,-0.3967284858226776,0.3051757514476776,93.33334350585938,159763.0,1.0
15:38:50.334555,161881.09375,183751.828125,178577.296875,190415.5,178931.359375,181998.546875,691566.875,194797.25,0.050048828125,1.01416015625,-0.030517578125,-2.502441167831421,-0.3967284858226776,0.2441406100988388,93.33334350585938,159764.0,1.0
15:38:50.334586,161761.8125,183727.6875,178560.046875,190419.890625,178906.859375,181993.546875,691186.5,194798.0625,0.048583984375,1.01171875,-0.0302734375,-2.471923589706421,-0.5493163466453552,0.3051757514476776,93.33334350585938,159765.0,1.0
15:38:50.336952,161767.09375,183726.15625,178564.515625,190413.890625,178902.65625,181993.359375,690578.875,194796.359375,0.048583984375,1.011962890625,-0.032958984375,-2.532958745956421,-0.4577636420726776,0.2746581733226776,93.33334350585938,159766.0,1.0
15:38:50.336982,161894.671875,183743.0625,178579.09375,190447.515625,178921.78125,181992.46875,690787.375,194801.09375,0.0478515625,1.009521484375,-0.033203125,-2.532958745956421,-0.5187987685203552,0.1831054538488388,93.33334350585938,159767.0,1.0
15:38:50.346416,161894.40625,183749.9375,178573.8125,190417.65625,178924.828125,181995.421875,691492.1875,194796.890625,0.04833984375,1.00927734375,-0.02978515625,-2.563476324081421,-0.5187987685203552,0.1220703050494194,93.33334350585938,159768.0,1.0
15:38:50.350764,161775.765625,183728.75,178557.640625,190416.390625,178904.09375,181992.65625,691324.375,194799.3125,0.050048828125,1.00830078125,-0.028076171875,-2.624511480331421,-0.5493163466453552,0.03051757626235485,93.33334350585938,159769.0,1.0
15:38:50.350784,161754.21875,183723.75,178560.046875,190414.875,178896.046875,181994.53125,690625.75,194800.203125,0.0517578125,1.0087890625,-0.0302734375,-2.593993902206421,-0.6408690810203552,0.0,93.33334350585938,159770.0,1.0
15:38:50.360090,161875.359375,183740.015625,178576.859375,190442.0625,178912.9375,181995.875,690692.6875,194804.046875,0.049072265625,1.010009765625,-0.030517578125,-2.532958745956421,-0.7324218153953552,0.0610351525247097,93.33334350585938,159771.0,1.0
15:38:50.367519,161910.953125,183756.734375,178584.015625,190426.5,178930.640625,182004.546875,691385.25,194805.296875,0.048828125,1.010986328125,-0.0302734375,-2.502441167831421,-0.8239745497703552,0.0915527269244194,93.33334350585938,159772.0,1.0
15:38:50.367585,161803.390625,183744.9375,178574.171875,190419.703125,178922.140625,182008.828125,691442.5625,194810.84375,0.0498046875,1.01123046875,-0.0263671875,-2.471923589706421,-0.8239745497703552,-0.0610351525247097,93.33334350585938,159773.0,1.0
15:38:50.367599,161759.046875,183738.328125,178575.515625,190427.75,178915.984375,182010.078125,690687.375,194816.390625,0.051025390625,1.0107421875,-0.0283203125,-2.532958745956421,-0.7019042372703552,-0.03051757626235485,93.33334350585938,159774.0,1.0
15:38:50.370103,161874.921875,183760.5,178600.546875,190456.546875,178939.21875,182016.875,690619.875,194827.109375,0.05078125,1.01123046875,-0.028076171875,-2.502441167831421,-0.7934569716453552,-0.0915527269244194,93.33334350585938,159775.0,1.0
15:38:50.373815,161940.984375,183776.046875,178608.953125,190456.09375,178955.765625,182021.96875,691256.875,194828.8125,0.052001953125,1.0107421875,-0.027587890625,-2.502441167831421,-0.8544921278953552,0.0610351525247097,93.33334350585938,159776.0,1.0
15:38:50.389480,161843.0,183763.53125,178594.921875,190432.046875,178944.5,182023.046875,691533.125,194827.921875,0.0498046875,1.010986328125,-0.02880859375,-2.532958745956421,-0.7934569716453552,0.03051757626235485,93.33334350585938,159777.0,1.0
15:38:50.389513,161768.34375,183746.453125,178588.296875,190441.609375,178930.015625,182019.921875,690792.0625,194829.703125,0.050537109375,1.01025390625,-0.029052734375,-2.563476324081421,-0.8850097060203552,0.03051757626235485,93.33334350585938,159778.0,1.0
15:38:50.391936,161851.578125,183755.125,178599.484375,190449.03125,178937.96875,182017.0625,690568.4375,194826.671875,0.051025390625,1.01123046875,-0.028564453125,-2.655029058456421,-0.9155272841453552,0.03051757626235485,93.33334350585938,159779.0,1.0
15:38:50.391990,161938.03125,183765.859375,178604.75,190459.140625,178948.4375,182013.21875,691118.3125,194824.4375,0.050048828125,1.01171875,-0.031005859375,-2.624511480331421,-0.8239745497703552,0.03051757626235485,93.33334350585938,159780.0,1.0
15:38:50.393831,161850.515625,183751.734375,178585.703125,190421.9375,178931.171875,182008.390625,691585.875,194814.59375,0.04931640625,1.011474609375,-0.026611328125,-2.502441167831421,-0.9155272841453552,0.0610351525247097,93.33334350585938,159781.0,1.0
15:38:50.418908,161749.84375,183724.90625,178567.5625,190430.25,178904.53125,181998.109375,690912.375,194812.265625,0.050048828125,1.01123046875,-0.026611328125,-2.471923589706421,-0.8850097060203552,0.0915527269244194,93.33334350585938,159782.0,1.0
15:38:50.442680,161811.265625,183732.421875,178578.46875,190431.59375,178911.234375,181998.46875,690542.25,194811.5625,0.049072265625,1.01220703125,-0.028076171875,-2.471923589706421,-0.8544921278953552,0.2136230319738388,93.33334350585938,159783.0,1.0
15:38:50.445184,161922.390625,183749.5,178590.625,190455.109375,178927.875,181998.28125,690988.375,194813.515625,0.049072265625,1.011474609375,-0.027587890625,-2.471923589706421,-0.8850097060203552,0.2136230319738388,93.33334350585938,159784.0,1.0
15:38:50.448266,161863.65625,183745.46875,178578.5625,190413.359375,178917.9375,181997.75,691590.125,194804.5,0.04931640625,1.010986328125,-0.02880859375,-2.502441167831421,-0.9460448622703552,0.2441406100988388,93.33334350585938,159785.0,1.0
15:38:50.448331,161754.3125,183724.28125,178567.015625,190428.734375,178900.59375,181995.78125,691052.875,194811.28125,0.048828125,1.009521484375,-0.025634765625,-2.349853277206421,-0.9460448622703552,0.1831054538488388,93.33334350585938,159786.0,1.0
15:38:50.450664,161796.78125,183738.40625,178585.890625,190433.109375,178913.5625,182007.578125,690548.3125,194819.15625,0.047607421875,1.00927734375,-0.026611328125,-2.288818120956421,-0.9155272841453552,0.1831054538488388,93.33334350585938,159787.0,1.0
15:38:50.450687,161923.5625,183761.203125,178603.671875,190464.5,178935.296875,182011.6875,690869.75,194826.125,0.048095703125,1.0087890625,-0.030029296875,-2.319335699081421,-0.9155272841453552,0.1831054538488388,93.33334350585938,159788.0,1.0
15:38:50.454776,161896.46875,183766.484375,178595.625,190425.515625,178934.03125,182014.375,691553.375,194816.5625,0.049560546875,1.009521484375,-0.02685546875,-2.227782964706421,-0.7934569716453552,0.1525878757238388,93.33334350585938,159789.0,1.0
15:38:50.454834,161787.390625,183751.828125,178588.5625,190442.0625,178919.46875,182017.59375,691206.75,194826.125,0.049072265625,1.009765625,-0.025634765625,-2.166747808456421,-0.7934569716453552,0.1220703050494194,93.33334350585938,159790.0,1.0
15:38:50.454863,161785.59375,183746.8125,178590.171875,190436.515625,178912.9375,182014.015625,690572.9375,194821.921875,0.051025390625,1.01025390625,-0.0283203125,-2.044677495956421,-0.7629393935203552,0.2136230319738388,93.33334350585938,159791.0,1.0
15:38:50.454884,161915.6875,183766.9375,178609.21875,190474.78125,178934.03125,182016.34375,690756.9375,194830.234375,0.05126953125,1.0107421875,-0.02978515625,-2.014159917831421,-0.7019042372703552,0.1831054538488388,93.33334350585938,159792.0,1.0
15:38:50.457589,161916.671875,183768.8125,178601.53125,190440.984375,178931.796875,182014.375,691471.25,194818.34375,0.051025390625,1.00927734375,-0.029296875,-1.9836424589157104,-0.7019042372703552,0.2136230319738388,93.33334350585938,159793.0,1.0
15:38:50.457645,161798.65625,183747.703125,178584.453125,190437.59375,178910.078125,182012.140625,691340.9375,194817.640625,0.04931640625,1.010498046875,-0.027587890625,-1.8920897245407104,-0.8850097060203552,0.2136230319738388,93.33334350585938,159794.0,1.0
15:38:50.457671,161768.609375,183737.15625,178582.578125,190435.0,178900.15625,182009.1875,690628.8125,194814.59375,0.049560546875,1.009765625,-0.023681640625,-1.8310545682907104,-0.7324218153953552,0.2746581733226776,93.33334350585938,159795.0,1.0
15:38:50.460166,161889.671875,183752.453125,178600.546875,190463.609375,178918.5625,182010.890625,690682.0,194819.875,0.050537109375,1.01025390625,-0.02880859375,-1.7700194120407104,-0.6713866591453552,0.1831054538488388,93.33334350585938,159796.0,1.0
15:38:50.462582,161918.015625,183756.03125,178593.9375,190435.890625,178921.078125,182007.84375,691369.6875,194808.6875,0.05029296875,1.01123046875,-0.02587890625,-1.7395018339157104,-0.7019042372703552,0.3356933295726776,93.33334350585938,159797.0,1.0
15:38:50.465176,161799.1875,183734.75,178570.515625,190413.625,178897.5625,182002.125,691456.875,194800.921875,0.052001953125,1.0126953125,-0.02685546875,-1.8005369901657104,-0.6408690810203552,0.3051757514476776,93.33334350585938,159798.0,1.0
15:38:50.467669,161744.734375,183724.46875,178566.3125,190418.90625,178884.6875,182001.5,690699.625,194804.21875,0.052734375,1.01171875,-0.026611328125,-1.6784666776657104,-0.6103515028953552,0.3051757514476776,93.33334350585938,159799.0,1.0
15:38:50.475777,161847.203125,183735.015625,178580.078125,190435.078125,178898.984375,181998.90625,690609.9375,194807.359375,0.051513671875,1.01025390625,-0.0263671875,-1.5563963651657104,-0.5798339247703552,0.2136230319738388,93.33334350585938,159800.0,1.0
15:38:50.475827,161913.09375,183746.1875,178584.640625,190430.53125,178912.484375,181997.5625,691234.25,194806.28125,0.05126953125,1.010498046875,-0.02587890625,-1.5563963651657104,-0.6408690810203552,0.2441406100988388,93.33334350585938,159801.0,1.0
15:38:50.477870,161817.875,183737.78125,178572.46875,190405.671875,178901.671875,181999.0,691537.875,194803.859375,0.048828125,1.0107421875,-0.02880859375,-1.4953612089157104,-0.4577636420726776,0.3356933295726776,93.33334350585938,159802.0,1.0
15:38:50.488837,161746.078125,183726.875,178568.90625,190420.421875,178888.265625,181999.625,690800.1875,194808.0625,0.0498046875,1.011962890625,-0.0283203125,-1.4953612089157104,-0.3967284858226776,0.2136230319738388,93.33334350585938,159803.0,1.0
15:38:50.494899,161839.6875,183747.625,178592.140625,190435.890625,178904.984375,182007.578125,690560.75,194814.78125,0.051025390625,1.01220703125,-0.028076171875,-1.4953612089157104,-0.4272460639476776,0.3051757514476776,93.33334350585938,159804.0,1.0
15:38:50.494936,161935.09375,183764.34375,178604.9375,190451.265625,178924.375,182009.8125,691097.75,194818.796875,0.051513671875,1.011474609375,-0.02880859375,-1.4038084745407104,-0.3662109076976776,0.3051757514476776,93.33334350585938,159805.0,1.0
15:38:50.494947,161853.375,183752.09375,178588.484375,190414.34375,178912.578125,182007.21875,691581.875,194812.09375,0.05126953125,1.01220703125,-0.029052734375,-1.3732908964157104,-0.3051757514476776,0.3051757514476776,93.33334350585938,159806.0,1.0
15:38:50.496974,161760.03125,183734.75,178579.890625,190434.28125,178895.234375,182006.421875,690932.875,194819.328125,0.05126953125,1.011474609375,-0.02978515625,-1.4648436307907104,-0.1525878757238388,0.3967284858226776,93.33334350585938,159807.0,1.0
15:38:50.500700,161824.84375,183750.03125,178596.96875,190441.609375,178903.453125,182013.390625,690542.6875,194822.28125,0.050537109375,1.01123046875,-0.0302734375,-1.3427733182907104,-0.03051757626235485,0.3967284858226776,93.33334350585938,159808.0,1.0
15:38:50.515650,161940.984375,183769.96875,178611.546875,190468.515625,178921.34375,182013.921875,690966.1875,194826.671875,0.0517578125,1.01025390625,-0.028076171875,-1.4648436307907104,-0.0915527269244194,0.4272460639476776,93.33334350585938,159809.0,1.0
15:38:50.515668,161889.3125,183769.25,178603.671875,190429.1875,178919.015625,182015.984375,691586.3125,194822.109375,0.05078125,1.0107421875,-0.026611328125,-1.4038084745407104,-0.1220703050494194,0.4882812201976776,93.33334350585938,159810.0,1.0
15:38:50.517533,161787.828125,183754.234375,178598.046875,190450.1875,178907.3125,182019.46875,691077.625,194833.734375,0.052734375,1.00927734375,-0.025390625,-1.2817381620407104,0.0610351525247097,0.4882812201976776,93.33334350585938,159811.0,1.0
15:38:50.520162,161818.234375,183758.703125,178607.34375,190446.96875,178909.71875,182020.8125,690547.4375,194831.765625,0.0537109375,1.010498046875,-0.02734375,-1.2512205839157104,0.0915527269244194,0.4882812201976776,93.33334350585938,159812.0,1.0
15:38:50.524709,161942.0625,183775.515625,178622.1875,190477.109375,178925.90625,182018.3125,690847.125,194833.1875,0.05322265625,1.0107421875,-0.02783203125,-1.2817381620407104,0.0915527269244194,0.4882812201976776,93.33334350585938,159813.0,1.0
15:38:50.530716,161919.625,183780.796875,178617.453125,190440.8125,178929.5625,182021.171875,691537.0625,194827.65625,0.05078125,1.01025390625,-0.02734375,-1.2512205839157104,0.0915527269244194,0.4272460639476776,93.33334350585938,159814.0,1.0
15:38:50.530773,161805.09375,183759.78125,178604.9375,190451.890625,178911.328125,182017.328125,691215.75,194833.640625,0.0517578125,1.01123046875,-0.02880859375,-1.1901854276657104,0.1220703050494194,0.4272460639476776,93.33334350585938,159815.0,1.0
15:38:50.545815,161803.296875,183756.921875,178608.234375,190448.9375,178903.90625,182015.0,690572.4375,194830.875,0.05078125,1.009521484375,-0.02978515625,-1.1291502714157104,0.1525878757238388,0.4577636420726776,93.33334350585938,159816.0,1.0
15:38:50.545887,161932.578125,183776.59375,178626.5625,190483.90625,178922.5,182014.828125,690735.1875,194836.859375,0.051513671875,1.011474609375,-0.029541015625,-1.2207030057907104,0.1525878757238388,0.4882812201976776,93.33334350585938,159817.0,1.0
15:38:50.547672,161945.015625,183786.15625,178625.671875,190457.796875,178929.5625,182018.3125,691447.375,194834.796875,0.05078125,1.011474609375,-0.027587890625,-1.3122557401657104,0.1831054538488388,0.4882812201976776,93.33334350585938,159818.0,1.0
15:38:50.551375,161830.296875,183767.109375,178611.28125,190457.25,178911.953125,182017.859375,691346.75,194838.015625,0.048583984375,1.010986328125,-0.027587890625,-1.2207030057907104,0.1831054538488388,0.3967284858226776,93.33334350585938,159819.0,1.0
15:38:50.562610,161794.71875,183757.8125,178607.609375,190453.234375,178899.796875,182017.953125,690623.4375,194833.109375,0.04833984375,1.011962890625,-0.02783203125,-1.2207030057907104,0.1220703050494194,0.3967284858226776,93.33334350585938,159820.0,1.0
15:38:50.564456,161908.0,183772.296875,178620.046875,190472.28125,178912.484375,182017.6875,690656.5,194830.15625,0.048095703125,1.01220703125,-0.0283203125,-1.2512205839157104,0.1525878757238388,0.4577636420726776,93.33334350585938,159821.0,1.0
15:38:50.564500,161948.59375,183784.640625,178618.96875,190455.109375,178919.28125,182021.0,691345.5625,194823.796875,0.049072265625,1.010986328125,-0.02734375,-1.2817381620407104,0.1220703050494194,0.4577636420726776,93.33334350585938,159822.0,1.0
15:38:50.571945,161835.40625,183764.609375,178597.15625,190433.828125,178895.40625,182017.234375,691478.625,194816.203125,0.051025390625,1.012451171875,-0.0283203125,-1.2512205839157104,0.0610351525247097,0.4577636420726776,93.33334350585938,159823.0,1.0
15:38:50.571986,161771.46875,183748.875,178587.140625,190432.21875,178876.28125,182013.921875,690731.3125,194813.25,0.050537109375,1.010498046875,-0.033447265625,-1.2207030057907104,0.0610351525247097,0.4272460639476776,93.33334350585938,159824.0,1.0
15:38:50.573869,161868.921875,183758.53125,178597.953125,190444.921875,178884.328125,182013.390625,690616.75,194812.09375,0.04931640625,1.011962890625,-0.03076171875,-1.1901854276657104,0.2136230319738388,0.4577636420726776,93.33334350585938,159825.0,1.0
15:38:50.578219,161927.484375,183760.765625,178592.0625,190434.71875,178887.375,182005.96875,691230.3125,194802.96875,0.050537109375,1.013916015625,-0.029541015625,-1.1901854276657104,0.2441406100988388,0.3356933295726776,93.33334350585938,159826.0,1.0
15:38:50.578267,161821.1875,183740.828125,178568.90625,190400.296875,178866.171875,182000.34375,691566.875,194793.140625,0.048583984375,1.0146484375,-0.031005859375,-1.2817381620407104,0.2136230319738388,0.4577636420726776,93.33334350585938,159827.0,1.0
15:38:50.587765,161742.328125,183723.21875,178562.1875,190417.03125,178850.890625,181999.453125,690838.1875,194798.953125,0.049560546875,1.014892578125,-0.02978515625,-1.2817381620407104,0.1831054538488388,0.5798339247703552,93.33334350585938,159828.0,1.0
15:38:50.592103,161827.796875,183738.953125,178582.3125,190431.328125,178869.9375,182006.421875,690575.125,194807.4375,0.051025390625,1.01318359375,-0.03271484375,-1.3122557401657104,0.0,0.4577636420726776,93.33334350585938,159829.0,1.0
15:38:50.592152,161927.75,183758.34375,178595.984375,190449.75,178892.46875,182011.15625,691098.625,194814.5,0.0498046875,1.014404296875,-0.029052734375,-1.4648436307907104,0.0,0.4882812201976776,93.33334350585938,159830.0,1.0
15:38:50.598197,161850.6875,183749.59375,178578.46875,190408.265625,178880.296875,182010.4375,691604.125,194805.65625,0.0498046875,1.01416015625,-0.029296875,-1.4648436307907104,-0.03051757626235485,0.4272460639476776,93.33334350585938,159831.0,1.0
15:38:50.598221,161752.15625,183728.75,178567.296875,190422.921875,178862.78125,182006.515625,690962.0,194811.109375,0.049072265625,1.0146484375,-0.0283203125,-1.5563963651657104,-0.03051757626235485,0.3662109076976776,93.33334350585938,159832.0,1.0
15:38:50.603836,161806.96875,183735.546875,178580.875,190423.90625,178871.453125,182006.859375,690547.5,194812.71875,0.050048828125,1.013671875,-0.0302734375,-1.5563963651657104,-0.0610351525247097,0.4272460639476776,93.33334350585938,159833.0,1.0
15:38:50.614739,161920.875,183750.390625,178594.828125,190448.671875,178890.671875,182003.921875,690944.875,194817.28125,0.048828125,1.012939453125,-0.02783203125,-1.6479490995407104,-0.0915527269244194,0.4577636420726776,93.33334350585938,159834.0,1.0
15:38:50.614811,161869.90625,183747.703125,178583.390625,190408.078125,178886.296875,182003.296875,691585.0625,194809.765625,0.047119140625,1.011962890625,-0.029541015625,-1.5563963651657104,-0.1220703050494194,0.3967284858226776,93.33334350585938,159835.0,1.0
15:38:50.616966,161760.296875,183727.6875,178569.078125,190423.015625,178864.03125,181998.46875,691106.5,194813.609375,0.04931640625,1.013916015625,-0.027587890625,-1.5869139432907104,-0.1220703050494194,0.3662109076976776,93.33334350585938,159836.0,1.0
15:38:50.617029,161789.359375,183736.09375,178580.609375,190425.25,178866.625,182001.6875,690558.0625,194814.421875,0.050048828125,1.01318359375,-0.02685546875,-1.5563963651657104,-0.1525878757238388,0.4272460639476776,93.33334350585938,159837.0,1.0
15:38:50.622617,161921.3125,183759.25,178603.234375,190463.515625,178892.109375,182005.171875,690829.125,194823.796875,0.05078125,1.013427734375,-0.026611328125,-1.6784666776657104,-0.2136230319738388,0.4272460639476776,93.33334350585938,159838.0,1.0
15:38:50.631375,161901.203125,183761.484375,178597.0625,190426.40625,178892.375,182004.09375,691528.5,194814.859375,0.048583984375,1.01220703125,-0.026611328125,-1.6174315214157104,-0.3051757514476776,0.3051757514476776,93.33334350585938,159839.0,1.0
15:38:50.635744,161779.515625,183732.0625,178575.0625,190427.484375,178862.59375,181991.671875,691236.6875,194810.125,0.050537109375,1.011962890625,-0.02392578125,-1.6174315214157104,-0.2441406100988388,0.3356933295726776,93.33334350585938,159840.0,1.0
15:38:50.635813,161772.375,183726.609375,178576.859375,190422.828125,178853.84375,181987.28125,690581.0625,194806.90625,0.050537109375,1.01220703125,-0.0234375,-1.7089842557907104,-0.2746581733226776,0.3662109076976776,93.33334350585938,159841.0,1.0
15:38:50.645136,161897.625,183741.625,178593.484375,190452.421875,178869.9375,181982.71875,690723.8125,194809.59375,0.04931640625,1.013427734375,-0.026123046875,-1.6174315214157104,-0.2746581733226776,0.3051757514476776,93.33334350585938,159842.0,1.0
15:38:50.648810,161909.515625,183748.15625,178588.484375,190420.953125,178874.140625,181981.5625,691428.8125,194800.296875,0.049072265625,1.010009765625,-0.029541015625,-1.7089842557907104,-0.2746581733226776,0.2746581733226776,93.33334350585938,159843.0,1.0
15:38:50.648878,161794.890625,183731.265625,178573.8125,190417.921875,178855.359375,181981.46875,691367.375,194802.703125,0.04931640625,1.01171875,-0.028076171875,-1.6784666776657104,-0.3356933295726776,0.3967284858226776,93.33334350585938,159844.0,1.0
15:38:50.648910,161768.25,183732.78125,178579.625,190427.84375,178852.859375,181990.953125,690646.375,194811.375,0.046875,1.009521484375,-0.028564453125,-1.5563963651657104,-0.2746581733226776,0.2746581733226776,93.33334350585938,159845.0,1.0
15:38:50.651358,161892.171875,183755.578125,178603.140625,190459.484375,178875.828125,182000.515625,690660.25,194821.03125,0.048095703125,1.010498046875,-0.029052734375,-1.5563963651657104,-0.3356933295726776,0.1831054538488388,93.33334350585938,159846.0,1.0
15:38:50.661361,161937.5,183769.96875,178608.0625,190447.15625,178889.78125,182008.46875,691331.5625,194819.328125,0.048828125,1.00927734375,-0.031005859375,-1.5258787870407104,-0.3662109076976776,0.2136230319738388,93.33334350585938,159847.0,1.0
15:38:50.664517,161829.59375,183756.296875,178592.5,190428.734375,178874.3125,182012.3125,691490.875,194816.5625,0.051513671875,1.009521484375,-0.03076171875,-1.4648436307907104,-0.3356933295726776,0.1831054538488388,93.33334350585938,159848.0,1.0
15:38:50.664955,161765.03125,183741.984375,178584.28125,190433.03125,178855.625,182011.0625,690740.0,194815.671875,0.05224609375,1.010498046875,-0.02978515625,-1.3122557401657104,-0.3356933295726776,0.2746581733226776,93.33334350585938,159849.0,1.0
15:38:50.673891,161859.625,183752.453125,178595.09375,190442.765625,178862.25,182010.53125,690600.1875,194812.625,0.05224609375,1.010009765625,-0.02783203125,-1.4038084745407104,-0.3662109076976776,0.2746581733226776,93.33334350585938,159850.0,1.0
15:38:50.680718,161923.734375,183756.296875,178590.984375,190436.515625,178867.25,182002.9375,691198.9375,194804.046875,0.050537109375,1.011474609375,-0.026611328125,-1.5258787870407104,-0.4272460639476776,0.3662109076976776,93.33334350585938,159851.0,1.0
15:38:50.680770,161819.84375,183733.21875,178563.359375,190396.015625,178842.578125,181992.03125,691566.0625,194789.375,0.0517578125,1.01025390625,-0.027099609375,-1.4343260526657104,-0.4882812201976776,0.3356933295726776,93.33334350585938,159852.0,1.0
15:38:50.682657,161732.21875,183711.59375,178548.15625,190402.71875,178819.421875,181983.796875,690848.1875,194786.609375,0.04931640625,1.011962890625,-0.024169921875,-1.4038084745407104,-0.3967284858226776,0.3356933295726776,93.33334350585938,159853.0,1.0
15:38:50.691520,161811.078125,183724.546875,178565.5,190410.3125,178831.9375,181987.546875,690567.25,194790.8125,0.05029296875,1.010986328125,-0.027587890625,-1.4038084745407104,-0.3662109076976776,0.2746581733226776,93.33334350585938,159854.0,1.0
15:38:50.695915,161909.875,183738.140625,178575.78125,190426.953125,178848.203125,181985.140625,691072.0625,194793.765625,0.050048828125,1.01171875,-0.02880859375,-1.3427733182907104,-0.2746581733226776,0.3051757514476776,93.33334350585938,159855.0,1.0
15:38:50.696002,161838.078125,183731.4375,178563.453125,190390.734375,178841.40625,181982.640625,691601.4375,194788.3125,0.049072265625,1.010986328125,-0.02685546875,-1.4038084745407104,-0.3356933295726776,0.2136230319738388,93.33334350585938,159856.0,1.0
15:38:50.703619,161744.734375,183715.34375,178558.078125,190415.234375,178826.84375,181981.390625,690988.0,194799.125,0.048583984375,1.010986328125,-0.024658203125,-1.4038084745407104,-0.4577636420726776,0.3051757514476776,93.33334350585938,159857.0,1.0
15:38:50.707378,161802.40625,183729.109375,178575.875,190423.640625,178837.75,181987.734375,690555.9375,194805.203125,0.050537109375,1.011474609375,-0.026123046875,-1.3732908964157104,-0.4577636420726776,0.3051757514476776,93.33334350585938,159858.0,1.0
15:38:50.707471,161927.84375,183753.15625,178597.15625,190458.859375,178863.046875,181993.8125,690946.625,194814.59375,0.0498046875,1.01220703125,-0.030029296875,-1.3427733182907104,-0.4882812201976776,0.2746581733226776,93.33334350585938,159859.0,1.0
15:38:50.722026,161890.828125,183758.53125,178594.109375,190424.171875,178868.328125,182001.140625,691593.5,194813.875,0.04833984375,1.013427734375,-0.0302734375,-1.4648436307907104,-0.3356933295726776,0.2441406100988388,93.33334350585938,159860.0,1.0
15:38:50.722053,161777.375,183734.921875,178582.484375,190437.59375,178851.609375,181998.28125,691124.125,194821.21875,0.048583984375,1.01318359375,-0.02880859375,-1.4343260526657104,-0.3662109076976776,0.2441406100988388,93.33334350585938,159861.0,1.0
15:38:50.724571,161803.296875,183743.5,178597.515625,190441.796875,178860.546875,182005.96875,690559.5,194826.84375,0.048828125,1.012451171875,-0.030029296875,-1.4953612089157104,-0.3662109076976776,0.2746581733226776,93.33334350585938,159862.0,1.0
15:38:50.724636,161932.859375,183763.4375,178617.09375,190474.875,178882.0,182007.3125,690827.875,194831.578125,0.049560546875,1.01171875,-0.02880859375,-1.4648436307907104,-0.3662109076976776,0.3967284858226776,93.33334350585938,159863.0,1.0
15:38:50.726570,161913.984375,183764.25,178607.96875,190432.3125,178879.5,182005.609375,691527.4375,194818.890625,0.050048828125,1.01318359375,-0.030517578125,-1.5563963651657104,-0.3356933295726776,0.4272460639476776,93.33334350585938,159864.0,1.0
15:38:50.760707,161792.484375,183739.65625,178588.296875,190433.65625,178852.859375,181997.125,691265.5625,194817.09375,0.050048828125,1.01318359375,-0.029541015625,-1.6784666776657104,-0.4272460639476776,0.3356933295726776,93.33334350585938,159865.0,1.0
15:38:50.760741,161784.265625,183736.171875,178590.0,190433.46875,178845.609375,181995.328125,690592.3125,194815.484375,0.04833984375,1.01220703125,-0.027587890625,-1.6174315214157104,-0.3051757514476776,0.2441406100988388,93.33334350585938,159866.0,1.0
15:38:50.790240,161912.828125,183756.03125,178609.046875,190463.96875,178863.140625,181996.3125,690719.75,194819.875,0.048095703125,1.0126953125,-0.027587890625,-1.6784666776657104,-0.2746581733226776,0.2441406100988388,93.33334350585938,159867.0,1.0
15:38:50.790360,161930.96875,183766.03125,178607.4375,190437.40625,178869.03125,181998.28125,691427.375,194813.171875,0.04833984375,1.013427734375,-0.028076171875,-1.7395018339157104,-0.3356933295726776,0.3662109076976776,93.33334350585938,159868.0,1.0
15:38:50.790387,161812.6875,183744.3125,178590.0,190427.65625,178849.90625,181996.765625,691396.0625,194811.734375,0.049560546875,1.013916015625,-0.029541015625,-1.7089842557907104,-0.3356933295726776,0.3356933295726776,93.33334350585938,159869.0,1.0
15:38:50.790409,161775.3125,183738.140625,178591.96875,190430.96875,178844.71875,182001.234375,690663.6875,194815.9375,0.050048828125,1.01318359375,-0.028076171875,-1.7395018339157104,-0.2746581733226776,0.3051757514476776,93.33334350585938,159870.0,1.0
15:38:50.790427,161888.234375,183752.8125,178606.625,190452.421875,178859.203125,182001.0625,690638.0,194818.796875,0.0498046875,1.012939453125,-0.02587890625,-1.8310545682907104,-0.3967284858226776,0.2746581733226776,93.33334350585938,159871.0,1.0
15:38:50.790447,161935.796875,183761.921875,178604.84375,190438.75,178864.65625,181999.890625,691301.875,194812.359375,0.050537109375,1.012451171875,-0.027587890625,-1.8615721464157104,-0.3356933295726776,0.3051757514476776,93.33334350585938,159872.0,1.0
15:38:50.812723,161823.859375,183742.25,178582.484375,190414.515625,178841.859375,181994.265625,691499.625,194805.921875,0.050537109375,1.01220703125,-0.02734375,-1.9531248807907104,-0.2136230319738388,0.4882812201976776,93.33334350585938,159873.0,1.0
15:38:50.812821,161755.203125,183726.078125,178573.015625,190421.578125,178822.71875,181991.40625,690756.5625,194806.640625,0.05078125,1.01171875,-0.029052734375,-1.9836424589157104,-0.3051757514476776,0.4577636420726776,93.33334350585938,159874.0,1.0
15:38:50.812852,161850.953125,183740.46875,178587.140625,190433.109375,178834.078125,181993.71875,690582.9375,194808.25,0.049072265625,1.01220703125,-0.02978515625,-2.014159917831421,-0.2441406100988388,0.3967284858226776,93.33334350585938,159875.0,1.0
15:38:50.823982,161923.375,183749.765625,178587.40625,190431.421875,178843.640625,181989.4375,691164.25,194803.328125,0.048828125,1.01220703125,-0.02978515625,-2.044677495956421,-0.1831054538488388,0.3051757514476776,93.33334350585938,159876.0,1.0
15:38:50.826481,161825.5625,183731.4375,178565.0625,190392.890625,178825.671875,181983.265625,691560.5,194794.03125,0.049560546875,1.012939453125,-0.03125,-2.014159917831421,-0.1831054538488388,0.3051757514476776,93.33334350585938,159877.0,1.0
15:38:50.828992,161731.859375,183706.9375,178549.671875,190401.375,178803.140625,181976.296875,690859.75,194793.859375,0.048583984375,1.01220703125,-0.03125,-2.075195074081421,-0.2441406100988388,0.3356933295726776,93.33334350585938,159878.0,1.0
15:38:50.831567,161804.546875,183719.453125,178562.734375,190405.765625,178811.015625,181980.40625,690551.25,194792.953125,0.0478515625,1.0126953125,-0.03173828125,-2.075195074081421,-0.3051757514476776,0.3356933295726776,93.33334350585938,159879.0,1.0
15:38:50.833994,161910.140625,183736.796875,178574.4375,190424.265625,178828.625,181981.921875,691040.9375,194793.765625,0.048095703125,1.013916015625,-0.03076171875,-2.105712652206421,-0.3662109076976776,0.3967284858226776,93.33334350585938,159880.0,1.0
15:38:50.836737,161838.53125,183726.875,178559.0625,190381.96875,178818.96875,181980.140625,691597.0625,194784.640625,0.04833984375,1.01318359375,-0.03076171875,-2.044677495956421,-0.3662109076976776,0.3967284858226776,93.33334350585938,159881.0,1.0
15:38:50.839020,161729.90625,183700.234375,178541.546875,190392.078125,178793.9375,181972.09375,690998.0625,194785.1875,0.0478515625,1.013427734375,-0.0302734375,-2.105712652206421,-0.3967284858226776,0.3662109076976776,93.33334350585938,159882.0,1.0
15:38:50.849001,161770.84375,183703.09375,178548.25,190387.078125,178793.765625,181968.953125,690540.75,194780.171875,0.04736328125,1.012451171875,-0.030517578125,-2.075195074081421,-0.4577636420726776,0.3356933295726776,93.33334350585938,159883.0,1.0
15:38:50.851498,161889.578125,183719.375,178562.015625,190413.890625,178813.703125,181968.0625,690915.5,194783.484375,0.047607421875,1.01171875,-0.027099609375,-2.044677495956421,-0.4577636420726776,0.3356933295726776,93.33334350585938,159884.0,1.0
15:38:50.854005,161849.796875,183720.703125,178555.84375,190372.859375,178813.34375,181970.5625,691575.0,194776.953125,0.047607421875,1.01220703125,-0.02880859375,-2.075195074081421,-0.5187987685203552,0.2136230319738388,93.33334350585938,159885.0,1.0
15:38:50.856444,161743.40625,183703.90625,178548.25,190391.359375,178800.375,181971.46875,691149.0625,194786.25,0.048583984375,1.01123046875,-0.029541015625,-2.044677495956421,-0.4272460639476776,0.2441406100988388,93.33334350585938,159886.0,1.0
15:38:50.859057,161763.6875,183710.515625,178559.0625,190392.53125,178803.0625,181975.75,690567.125,194788.578125,0.0498046875,1.010498046875,-0.02490234375,-2.044677495956421,-0.4577636420726776,0.3051757514476776,93.33334350585938,159887.0,1.0
15:38:50.861542,161891.71875,183732.59375,178577.484375,190427.03125,178824.15625,181977.09375,690803.375,194796.171875,0.04833984375,1.01171875,-0.0263671875,-1.9531248807907104,-0.5187987685203552,0.2441406100988388,93.33334350585938,159888.0,1.0
15:38:50.865729,161888.78125,183743.859375,178578.46875,190398.515625,178832.65625,181985.234375,691512.125,194794.390625,0.046142578125,1.0107421875,-0.026611328125,-1.9531248807907104,-0.5187987685203552,0.2746581733226776,93.33334350585938,159889.0,1.0
15:38:50.866731,161774.421875,183723.5625,178564.78125,190403.515625,178814.5,181982.71875,691287.125,194797.15625,0.04736328125,1.010498046875,-0.02783203125,-1.9531248807907104,-0.5798339247703552,0.2746581733226776,93.33334350585938,159890.0,1.0
15:38:50.868948,161763.6875,183725.171875,178574.265625,190405.484375,178815.125,181988.1875,690606.875,194802.078125,0.048828125,1.009033203125,-0.030029296875,-1.8920897245407104,-0.6103515028953552,0.2441406100988388,93.33334350585938,159891.0,1.0
15:38:50.872841,161893.78125,183748.25,178600.8125,190441.078125,178840.34375,181994.890625,690718.625,194813.34375,0.048828125,1.01025390625,-0.02685546875,-1.9836424589157104,-0.5798339247703552,0.2441406100988388,93.33334350585938,159892.0,1.0
15:38:50.872929,161921.3125,183760.3125,178603.328125,190420.875,178851.6875,181999.171875,691419.75,194810.75,0.048828125,1.010986328125,-0.02685546875,-1.9531248807907104,-0.6103515028953552,0.2441406100988388,93.33334350585938,159893.0,1.0
15:38:50.872957,161809.46875,183743.953125,178587.859375,190414.15625,178833.8125,181998.28125,691416.4375,194810.125,0.048095703125,1.00927734375,-0.026123046875,-2.014159917831421,-0.6103515028953552,0.2746581733226776,93.33334350585938,159894.0,1.0
15:38:50.875193,161771.734375,183739.03125,178589.640625,190422.296875,178826.578125,182001.40625,690669.8125,194814.140625,0.04736328125,1.010009765625,-0.028564453125,-2.044677495956421,-0.6713866591453552,0.1525878757238388,93.33334350585938,159895.0,1.0
15:38:50.877709,161887.25,183758.265625,178610.109375,190447.59375,178845.171875,182005.609375,690648.1875,194819.25,0.047607421875,1.010009765625,-0.031494140625,-2.105712652206421,-0.7324218153953552,0.0915527269244194,93.33334350585938,159896.0,1.0
15:38:50.880805,161944.46875,183774.078125,178617.8125,190443.046875,178860.453125,182010.078125,691304.0,194818.53125,0.0478515625,1.011474609375,-0.027099609375,-2.105712652206421,-0.6713866591453552,0.0610351525247097,93.33334350585938,159897.0,1.0
15:38:50.880954,161842.109375,183761.65625,178604.578125,190423.28125,178847.140625,182009.640625,691524.8125,194816.65625,0.047119140625,1.010986328125,-0.027099609375,-2.075195074081421,-0.7324218153953552,-0.0610351525247097,93.33334350585938,159898.0,1.0
15:38:50.882679,161769.953125,183742.609375,178594.109375,190428.734375,178826.75,182002.9375,690766.0625,194816.296875,0.04736328125,1.011474609375,-0.02685546875,-2.075195074081421,-0.7934569716453552,0.0610351525247097,93.33334350585938,159899.0,1.0
15:38:50.885767,161863.65625,183755.9375,178609.125,190443.125,178837.03125,182002.671875,690581.875,194819.0625,0.0478515625,1.012939453125,-0.027099609375,-2.075195074081421,-0.7629393935203552,0.0915527269244194,93.33334350585938,159900.0,1.0
15:38:50.885827,161940.90625,183763.359375,178609.3125,190444.203125,178844.90625,181995.953125,691146.4375,194812.890625,0.04833984375,1.012939453125,-0.027099609375,-2.136230230331421,-0.8239745497703552,0.0915527269244194,93.33334350585938,159901.0,1.0
15:38:50.887692,161852.203125,183752.265625,178593.21875,190409.78125,178830.859375,181994.703125,691561.125,194807.078125,0.049560546875,1.011962890625,-0.028564453125,-2.136230230331421,-0.8544921278953552,0.03051757626235485,93.33334350585938,159902.0,1.0
15:38:50.890160,161759.40625,183729.03125,178579.984375,190422.390625,178809.84375,181990.953125,690867.0,194810.484375,0.048583984375,1.01220703125,-0.030517578125,-2.105712652206421,-0.8239745497703552,0.03051757626235485,93.33334350585938,159903.0,1.0
15:38:50.892676,161822.875,183733.765625,178586.875,190420.15625,178812.796875,181989.703125,690529.4375,194807.4375,0.049560546875,1.01123046875,-0.029541015625,-2.044677495956421,-0.9460448622703552,0.0610351525247097,93.33334350585938,159904.0,1.0
15:38:50.895794,161926.859375,183748.421875,178594.5625,190435.4375,178826.578125,181989.96875,691002.9375,194808.25,0.05126953125,1.009521484375,-0.030029296875,-2.166747808456421,-0.8850097060203552,0.2136230319738388,93.33334350585938,159905.0,1.0
15:38:50.895866,161854.0,183737.703125,178575.609375,190389.125,178814.953125,181987.375,691577.375,194795.8125,0.049560546875,1.01025390625,-0.02880859375,-2.075195074081421,-1.0375975370407104,0.1525878757238388,93.33334350585938,159906.0,1.0
15:38:50.905755,161742.78125,183710.6875,178558.265625,190400.296875,178791.796875,181980.40625,691005.9375,194797.078125,0.04833984375,1.0087890625,-0.02734375,-2.075195074081421,-0.9765624403953552,0.03051757626235485,93.33334350585938,159907.0,1.0
15:38:50.905826,161783.0,183715.4375,178568.0,190396.375,178795.28125,181982.015625,690534.75,194795.734375,0.048095703125,1.009521484375,-0.0283203125,-2.044677495956421,-0.9460448622703552,0.0610351525247097,93.33334350585938,159908.0,1.0
15:38:50.907691,161907.640625,183736.625,178587.140625,190429.890625,178817.984375,181984.25,690901.5,194803.59375,0.046875,1.01220703125,-0.028564453125,-2.075195074081421,-1.0070799589157104,0.1220703050494194,93.33334350585938,159909.0,1.0
15:38:50.911350,161876.96875,183743.59375,178584.90625,190394.046875,178820.765625,181991.75,691562.5625,194798.765625,0.047607421875,1.01123046875,-0.02783203125,-2.014159917831421,-0.9155272841453552,0.03051757626235485,93.33334350585938,159910.0,1.0
15:38:50.921951,161763.96875,183722.765625,178570.59375,190405.84375,178797.609375,181987.828125,691157.375,194800.734375,0.046142578125,1.009765625,-0.027099609375,-2.136230230331421,-0.8239745497703552,0.0610351525247097,93.33334350585938,159911.0,1.0
15:38:50.921968,161779.515625,183728.75,178580.875,190406.5625,178798.671875,181993.71875,690560.375,194802.53125,0.0458984375,1.012451171875,-0.029541015625,-1.9836424589157104,-0.9765624403953552,0.0915527269244194,93.33334350585938,159912.0,1.0
15:38:50.924549,161909.875,183750.484375,178601.984375,190442.953125,178820.484375,181996.765625,690780.8125,194809.953125,0.045654296875,1.01220703125,-0.0283203125,-2.014159917831421,-0.9155272841453552,0.1831054538488388,93.33334350585938,159913.0,1.0
15:38:50.924610,161909.078125,183758.96875,178600.640625,190411.03125,178828.09375,182001.5,691491.75,194805.65625,0.0478515625,1.011962890625,-0.02587890625,-2.075195074081421,-0.8850097060203552,0.3051757514476776,93.33334350585938,159914.0,1.0
15:38:50.932616,161795.4375,183740.640625,178588.21875,190415.953125,178814.046875,182001.6875,691301.0625,194812.625,0.048583984375,1.012451171875,-0.02392578125,-2.075195074081421,-0.9155272841453552,0.3967284858226776,93.33334350585938,159915.0,1.0
15:38:50.936983,161776.484375,183737.34375,178591.25,190415.765625,178809.40625,182002.125,690607.9375,194815.21875,0.045654296875,1.011962890625,-0.0244140625,-2.044677495956421,-0.8544921278953552,0.4882812201976776,93.33334350585938,159916.0,1.0
15:38:50.937006,161900.21875,183757.984375,178610.109375,190446.34375,178829.34375,182004.546875,690706.375,194821.921875,0.046875,1.011962890625,-0.0244140625,-2.105712652206421,-0.8544921278953552,0.4882812201976776,93.33334350585938,159917.0,1.0
15:38:50.947718,161929.546875,183769.171875,178610.65625,190426.40625,178840.25,182008.921875,691406.4375,194819.6875,0.050048828125,1.012939453125,-0.026123046875,-2.197265386581421,-0.7934569716453552,0.5798339247703552,93.33334350585938,159918.0,1.0
15:38:50.950129,161808.40625,183743.0625,178586.15625,190409.25,178813.609375,181999.359375,691430.25,194811.015625,0.050048828125,1.013427734375,-0.025634765625,-2.197265386581421,-0.6713866591453552,0.5187987685203552,93.33334350585938,159919.0,1.0
15:38:50.952659,161758.953125,183729.03125,178579.359375,190410.5,178795.28125,181994.625,690674.75,194806.453125,0.052490234375,1.0107421875,-0.026611328125,-2.136230230331421,-0.6713866591453552,0.5493163466453552,93.33334350585938,159920.0,1.0
15:38:50.956485,161874.5625,183747.359375,178599.203125,190434.09375,178812.09375,181997.125,690613.5625,194810.296875,0.05224609375,1.011474609375,-0.02734375,-2.166747808456421,-0.5798339247703552,0.7324218153953552,93.33334350585938,159921.0,1.0
15:38:50.963953,161937.234375,183762.28125,178605.375,190429.359375,178825.40625,181999.453125,691260.0,194808.78125,0.0517578125,1.00927734375,-0.026611328125,-2.258300542831421,-0.5493163466453552,0.7324218153953552,93.33334350585938,159922.0,1.0
15:38:50.970781,161833.875,183748.609375,178591.078125,190406.296875,178811.640625,181997.390625,691513.5,194805.46875,0.05029296875,1.009521484375,-0.029541015625,-2.136230230331421,-0.4577636420726776,0.7629393935203552,93.33334350585938,159923.0,1.0
15:38:50.970835,161761.1875,183732.59375,178584.09375,190417.5625,178798.40625,181994.4375,690768.875,194810.296875,0.050537109375,1.010009765625,-0.02880859375,-2.197265386581421,-0.3662109076976776,0.8544921278953552,93.33334350585938,159924.0,1.0
15:38:50.978230,161848.1875,183741.265625,178596.53125,190426.671875,178807.96875,181992.5625,690569.5,194811.203125,0.04931640625,1.01123046875,-0.02783203125,-2.105712652206421,-0.3967284858226776,0.8239745497703552,93.33334350585938,159925.0,1.0
15:38:50.978281,161928.375,183749.046875,178597.328125,190430.609375,178815.9375,181986.921875,691139.5,194808.25,0.048828125,1.0126953125,-0.027587890625,-2.075195074081421,-0.3967284858226776,0.8239745497703552,93.33334350585938,159926.0,1.0
15:38:50.984434,161835.578125,183733.140625,178573.8125,190388.40625,178795.453125,181980.21875,691572.5,194796.0,0.0517578125,1.013916015625,-0.027099609375,-2.075195074081421,-0.4272460639476776,0.9155272841453552,93.33334350585938,159927.0,1.0
15:38:50.984479,161742.140625,183712.296875,178558.890625,190400.125,178770.6875,181975.21875,690889.5625,194796.890625,0.05224609375,1.014404296875,-0.02978515625,-2.014159917831421,-0.3967284858226776,0.9460448622703552,93.33334350585938,159928.0,1.0
15:38:50.990722,161803.484375,183718.46875,178566.75,190398.875,178773.546875,181975.578125,690535.0,194794.5625,0.053466796875,1.013916015625,-0.031494140625,-1.9531248807907104,-0.2441406100988388,1.0070799589157104,93.33334350585938,159929.0,1.0
15:38:50.990738,161906.75,183731.078125,178573.109375,190416.21875,178787.859375,181972.796875,690995.5625,194792.875,0.05126953125,1.0126953125,-0.02880859375,-1.8920897245407104,-0.1831054538488388,0.9460448622703552,93.33334350585938,159930.0,1.0
15:38:51.000143,161839.875,183721.78125,178557.90625,190369.640625,178778.5625,181969.9375,691578.3125,194780.265625,0.050537109375,1.013427734375,-0.027587890625,-1.8005369901657104,-0.1220703050494194,0.9765624403953552,93.33334350585938,159931.0,1.0
15:38:51.004420,161735.078125,183701.84375,178547.4375,190385.28125,178761.65625,181969.859375,691025.3125,194784.640625,0.048583984375,1.012939453125,-0.02587890625,-1.8310545682907104,-0.1220703050494194,0.7934569716453552,93.33334350585938,159932.0,1.0
15:38:51.004443,161775.3125,183712.21875,178560.578125,190383.578125,178769.4375,181976.296875,690537.875,194784.375,0.04736328125,1.0126953125,-0.028564453125,-1.8615721464157104,-0.2136230319738388,0.7019042372703552,93.33334350585938,159933.0,1.0
15:38:51.013913,161902.71875,183736.171875,178581.421875,190418.0,178791.4375,181981.46875,690891.625,194791.4375,0.047119140625,1.01318359375,-0.029541015625,-1.8310545682907104,-0.1831054538488388,0.5798339247703552,93.33334350585938,159934.0,1.0
15:38:51.034925,161870.53125,183736.984375,178574.265625,190379.921875,178790.546875,181981.65625,691553.5,194784.015625,0.0478515625,1.01416015625,-0.028076171875,-1.8920897245407104,-0.2136230319738388,0.3967284858226776,93.33334350585938,159935.0,1.0
15:38:51.034963,161756.625,183715.609375,178561.75,190394.046875,178773.28125,181978.796875,691177.3125,194792.15625,0.04443359375,1.015380859375,-0.029296875,-1.8920897245407104,-0.2136230319738388,0.2136230319738388,93.33334350585938,159936.0,1.0
15:38:51.034972,161769.328125,183720.0,178571.3125,190396.453125,178772.65625,181982.8125,690564.3125,194797.34375,0.047607421875,1.014892578125,-0.025634765625,-2.044677495956421,-0.1831054538488388,0.0915527269244194,93.33334350585938,159937.0,1.0
15:38:51.036344,161901.65625,183739.9375,178592.6875,190434.015625,178794.203125,181983.796875,690774.0625,194807.625,0.047607421875,1.013671875,-0.0244140625,-2.136230230331421,-0.1525878757238388,-0.0610351525247097,93.33334350585938,159938.0,1.0
15:38:51.039417,161898.96875,183741.8125,178588.125,190402.546875,178798.671875,181982.09375,691475.9375,194803.15625,0.046630859375,1.012939453125,-0.023681640625,-2.166747808456421,-0.1831054538488388,-0.0610351525247097,93.33334350585938,159939.0,1.0
15:38:51.039437,161784.53125,183724.109375,178573.109375,190405.484375,178779.8125,181980.40625,691311.4375,194807.0,0.0478515625,1.01220703125,-0.025634765625,-2.136230230331421,-0.2746581733226776,-0.03051757626235485,93.33334350585938,159940.0,1.0
15:38:51.041303,161766.828125,183725.0,178578.375,190408.703125,178775.609375,181985.59375,690610.4375,194810.296875,0.047607421875,1.013916015625,-0.025634765625,-2.319335699081421,-0.2746581733226776,-0.2136230319738388,93.33334350585938,159941.0,1.0
15:38:51.043901,161888.421875,183742.609375,178596.609375,190437.40625,178793.21875,181986.65625,690688.875,194814.421875,0.051025390625,1.01318359375,-0.026611328125,-2.258300542831421,-0.3967284858226776,-0.2441406100988388,93.33334350585938,159942.0,1.0
15:38:51.046339,161922.03125,183752.453125,178599.203125,190417.5625,178804.671875,181990.234375,691379.0,194810.65625,0.052490234375,1.01318359375,-0.029052734375,-2.258300542831421,-0.3051757514476776,-0.2136230319738388,93.33334350585938,159943.0,1.0
15:38:51.056325,161809.03125,183735.015625,178582.578125,190402.71875,178787.234375,181988.1875,691439.0625,194806.28125,0.051513671875,1.013916015625,-0.025146484375,-2.319335699081421,-0.2441406100988388,-0.0915527269244194,93.33334350585938,159944.0,1.0
15:38:51.060025,161759.5,183726.515625,178578.203125,190404.59375,178772.75,181989.078125,690691.625,194802.53125,0.0517578125,1.01416015625,-0.027099609375,-2.380370855331421,-0.2136230319738388,-0.1220703050494194,93.33334350585938,159945.0,1.0
15:38:51.060046,161870.625,183746.71875,178598.21875,190424.171875,178791.078125,181996.3125,690623.0,194806.015625,0.051025390625,1.013427734375,-0.026611328125,-2.441406011581421,-0.2746581733226776,-0.0915527269244194,93.33334350585938,159946.0,1.0
15:38:51.060053,161932.578125,183759.6875,178602.875,190418.0,178805.5625,181998.8125,691258.0625,194803.78125,0.05078125,1.012939453125,-0.025390625,-2.471923589706421,-0.1525878757238388,-0.03051757626235485,93.33334350585938,159947.0,1.0
15:38:51.062594,161834.421875,183748.25,178589.546875,190395.203125,178793.9375,182000.78125,691535.8125,194804.3125,0.0478515625,1.012939453125,-0.0263671875,-2.563476324081421,-0.2136230319738388,0.03051757626235485,93.33334350585938,159948.0,1.0
15:38:51.065406,161761.546875,183734.03125,178583.828125,190410.3125,178777.84375,181999.984375,690795.0,194811.46875,0.046630859375,1.011474609375,-0.023193359375,-2.502441167831421,-0.2746581733226776,0.1525878757238388,93.33334350585938,159949.0,1.0
15:38:51.071353,161851.3125,183747.703125,178600.90625,190424.71875,178790.453125,182001.328125,690565.125,194816.828125,0.044677734375,1.010009765625,-0.02197265625,-2.593993902206421,-0.2746581733226776,0.1831054538488388,93.33334350585938,159950.0,1.0
15:38:51.081944,161942.953125,183763.53125,178611.1875,190439.828125,178809.765625,182003.203125,691112.6875,194821.65625,0.043212890625,1.01123046875,-0.020751953125,-2.685546636581421,-0.2441406100988388,0.2136230319738388,93.33334350585938,159951.0,1.0
15:38:51.081959,161856.40625,183750.484375,178593.671875,190401.828125,178797.0625,181999.625,691576.6875,194814.5,0.044921875,1.01123046875,-0.0185546875,-2.655029058456421,-0.3662109076976776,0.2136230319738388,93.33334350585938,159952.0,1.0
15:38:51.083905,161754.3125,183720.984375,178573.28125,190409.0625,178767.5625,181987.203125,690908.1875,194809.953125,0.04541015625,1.011962890625,-0.019775390625,-2.777099370956421,-0.3662109076976776,0.2441406100988388,93.33334350585938,159953.0,1.0
15:38:51.086392,161813.21875,183727.59375,178582.3125,190407.453125,178770.328125,181986.921875,690537.25,194805.5625,0.045166015625,1.012451171875,-0.020751953125,-2.777099370956421,-0.4272460639476776,0.2441406100988388,93.33334350585938,159954.0,1.0
15:38:51.095165,161920.15625,183741.890625,178592.0625,190426.859375,178784.453125,181984.6875,690984.0,194803.859375,0.045166015625,1.012451171875,-0.021484375,-2.838134527206421,-0.5493163466453552,0.3356933295726776,93.33334350585938,159955.0,1.0
15:38:51.099498,161857.84375,183736.171875,178577.9375,190380.1875,178775.609375,181984.421875,691576.25,194790.1875,0.04296875,1.0107421875,-0.0244140625,-2.807616949081421,-0.5798339247703552,0.2441406100988388,93.33334350585938,159956.0,1.0
15:38:51.099509,161750.546875,183714.8125,178564.34375,190393.328125,178752.8125,181980.9375,691043.9375,194790.546875,0.04345703125,1.010009765625,-0.023681640625,-2.807616949081421,-0.6103515028953552,0.2746581733226776,93.33334350585938,159957.0,1.0
15:38:51.105726,161784.53125,183722.140625,178572.203125,190389.390625,178752.0,181982.90625,690528.75,194787.59375,0.04345703125,1.01171875,-0.021484375,-2.807616949081421,-0.6103515028953552,0.2136230319738388,93.33334350585938,159958.0,1.0
15:38:51.105747,161899.953125,183734.484375,178579.71875,190410.859375,178764.875,181978.25,690842.0,194784.734375,0.04345703125,1.01123046875,-0.020751953125,-2.838134527206421,-0.7324218153953552,0.1220703050494194,93.33334350585938,159959.0,1.0
15:38:51.111400,161864.546875,183731.890625,178566.75,190365.171875,178762.46875,181977.359375,691528.5,194774.0,0.04345703125,1.010986328125,-0.023193359375,-2.838134527206421,-0.8239745497703552,0.1831054538488388,93.33334350585938,159960.0,1.0
15:38:51.119440,161745.546875,183704.796875,178549.59375,190370.4375,178739.484375,181970.5625,691182.6875,194776.234375,0.043212890625,1.009521484375,-0.022216796875,-2.807616949081421,-0.8850097060203552,0.1525878757238388,93.33334350585938,159961.0,1.0
15:38:51.119466,161751.890625,183705.234375,178558.078125,190371.515625,178739.40625,181972.890625,690556.125,194780.625,0.043212890625,1.0126953125,-0.0234375,-2.685546636581421,-0.8850097060203552,0.0610351525247097,93.33334350585938,159962.0,1.0
15:38:51.121344,161881.984375,183727.0625,178579.984375,190409.515625,178762.734375,181976.5625,690751.875,194792.421875,0.0458984375,1.011962890625,-0.022705078125,-2.746581792831421,-0.9460448622703552,0.1220703050494194,93.33334350585938,159963.0,1.0
15:38:51.128880,161892.359375,183740.5625,178583.65625,190386.53125,178772.125,181983.171875,691455.0,194793.578125,0.046142578125,1.01318359375,-0.021484375,-2.807616949081421,-0.9765624403953552,0.1525878757238388,93.33334350585938,159964.0,1.0
15:38:51.154469,161782.921875,183724.46875,178572.46875,190392.171875,178754.234375,181980.84375,691326.625,194799.03125,0.0458984375,1.0126953125,-0.0205078125,-2.838134527206421,-0.9460448622703552,0.1525878757238388,93.33334350585938,159965.0,1.0
15:38:51.154517,161762.796875,183722.671875,178578.015625,190400.03125,178749.6875,181983.703125,690619.25,194805.5625,0.047119140625,1.014404296875,-0.020751953125,-2.746581792831421,-0.9155272841453552,0.1220703050494194,93.33334350585938,159966.0,1.0
15:38:51.181385,161883.671875,183739.484375,178596.078125,190429.546875,178766.40625,181981.65625,690659.0,194810.484375,0.0478515625,1.013671875,-0.021484375,-2.838134527206421,-0.9155272841453552,0.2441406100988388,93.33334350585938,159967.0,1.0
15:38:51.183913,161921.40625,183750.65625,178599.484375,190413.09375,178779.09375,181983.359375,691339.875,194807.625,0.04736328125,1.012939453125,-0.0224609375,-2.868652105331421,-1.0070799589157104,0.2746581733226776,93.33334350585938,159968.0,1.0
15:38:51.186344,161815.28125,183736.890625,178587.5,190402.984375,178765.328125,181983.796875,691434.8125,194809.3125,0.04638671875,1.010986328125,-0.0234375,-2.777099370956421,-1.0070799589157104,0.3051757514476776,93.33334350585938,159969.0,1.0
15:38:51.188880,161768.34375,183730.546875,178588.921875,190414.78125,178755.046875,181987.109375,690690.9375,194813.171875,0.0478515625,1.01220703125,-0.023681640625,-2.807616949081421,-0.9765624403953552,0.3356933295726776,93.33334350585938,159970.0,1.0
15:38:51.191343,161871.25,183743.234375,178604.125,190429.8125,178765.140625,181986.03125,690593.8125,194811.28125,0.046142578125,1.009765625,-0.0224609375,-2.868652105331421,-1.0070799589157104,0.3662109076976776,93.33334350585938,159971.0,1.0
15:38:51.193884,161939.640625,183758.078125,178610.921875,190427.390625,178780.25,181988.71875,691216.1875,194809.59375,0.0458984375,1.0126953125,-0.0224609375,-2.899169683456421,-0.9765624403953552,0.3662109076976776,93.33334350585938,159972.0,1.0
15:38:51.196349,161843.0,183748.421875,178597.953125,190401.46875,178770.875,181992.296875,691525.625,194806.015625,0.046875,1.01416015625,-0.021240234375,-2.929687261581421,-0.9155272841453552,0.3662109076976776,93.33334350585938,159973.0,1.0
15:38:51.198908,161765.9375,183733.671875,178591.515625,190414.15625,178757.375,181992.296875,690792.0625,194809.5,0.0478515625,1.013671875,-0.017578125,-2.899169683456421,-0.9460448622703552,0.3051757514476776,93.33334350585938,159974.0,1.0
15:38:51.203931,161854.265625,183750.75,178611.015625,190426.953125,178772.390625,182000.515625,690546.625,194815.84375,0.04736328125,1.012451171875,-0.01708984375,-2.838134527206421,-0.8850097060203552,0.3967284858226776,93.33334350585938,159975.0,1.0
15:38:51.206331,161946.078125,183763.265625,178618.703125,190438.484375,178787.046875,181999.71875,691079.125,194818.890625,0.047119140625,1.010986328125,-0.01708984375,-2.807616949081421,-0.8850097060203552,0.3356933295726776,93.33334350585938,159976.0,1.0
15:38:51.208931,161865.0,183751.375,178602.96875,190400.125,178775.609375,181996.5,691571.125,194814.0625,0.046630859375,1.009765625,-0.01953125,-2.716064214706421,-0.8239745497703552,0.3967284858226776,93.33334350585938,159977.0,1.0
15:38:51.211449,161768.171875,183728.578125,178589.90625,190418.453125,178756.921875,181990.140625,690926.9375,194819.0625,0.046142578125,1.009521484375,-0.02001953125,-2.624511480331421,-0.7629393935203552,0.3356933295726776,93.33334350585938,159978.0,1.0
15:38:51.213911,161823.515625,183734.75,178599.484375,190418.8125,178760.59375,181988.453125,690534.125,194817.09375,0.0478515625,1.00830078125,-0.020263671875,-2.593993902206421,-0.7934569716453552,0.4272460639476776,93.33334350585938,159979.0,1.0
15:38:51.217015,161929.359375,183743.6875,178605.015625,190435.890625,178772.921875,181981.390625,690964.9375,194813.078125,0.0478515625,1.010498046875,-0.02099609375,-2.593993902206421,-0.7324218153953552,0.3662109076976776,93.33334350585938,159980.0,1.0
15:38:51.217078,161868.484375,183733.765625,178586.515625,190387.4375,178761.75,181976.109375,691567.8125,194797.609375,0.047607421875,1.01123046875,-0.019775390625,-2.593993902206421,-0.7629393935203552,0.2746581733226776,93.33334350585938,159981.0,1.0
15:38:51.219464,161755.734375,183708.8125,178570.234375,190397.890625,178738.5,181969.859375,691067.0625,194796.453125,0.0458984375,1.010986328125,-0.0205078125,-2.563476324081421,-0.7934569716453552,0.4272460639476776,93.33334350585938,159982.0,1.0
15:38:51.219527,161776.65625,183708.109375,178571.046875,190385.734375,178732.421875,181966.453125,690534.3125,194787.0625,0.046875,1.009765625,-0.01904296875,-2.410888433456421,-0.6713866591453552,0.3051757514476776,93.33334350585938,159983.0,1.0
15:38:51.221424,161895.75,183722.40625,178580.703125,190407.453125,178744.9375,181964.21875,690836.1875,194784.546875,0.045654296875,1.01025390625,-0.015869140625,-2.288818120956421,-0.6408690810203552,0.3662109076976776,93.33334350585938,159984.0,1.0
15:38:51.224468,161868.296875,183724.90625,178572.390625,190365.53125,178744.578125,181966.546875,691521.5,194774.09375,0.04638671875,1.008056640625,-0.01806640625,-2.288818120956421,-0.6713866591453552,0.2746581733226776,93.33334350585938,159985.0,1.0
15:38:51.224533,161750.734375,183701.671875,178556.828125,190371.515625,178724.46875,181962.78125,691215.3125,194776.15625,0.04541015625,1.010009765625,-0.020751953125,-2.227782964706421,-0.6713866591453552,0.3662109076976776,93.33334350585938,159986.0,1.0
15:38:51.226350,161750.28125,183702.109375,178563.453125,190370.0,178724.46875,181967.171875,690578.875,194780.078125,0.044677734375,1.010498046875,-0.018798828125,-2.075195074081421,-0.6103515028953552,0.3356933295726776,93.33334350585938,159987.0,1.0
15:38:51.228935,161881.4375,183725.890625,178587.40625,190407.546875,178751.46875,181974.5,690745.625,194793.9375,0.046630859375,1.01025390625,-0.01953125,-2.105712652206421,-0.6408690810203552,0.3967284858226776,93.33334350585938,159988.0,1.0
15:38:51.232020,161892.171875,183735.8125,178588.84375,190381.96875,178761.75,181979.0625,691452.25,194794.65625,0.04638671875,1.0107421875,-0.018798828125,-2.014159917831421,-0.6408690810203552,0.3662109076976776,93.33334350585938,159989.0,1.0
15:38:51.232078,161780.765625,183719.28125,178576.765625,190384.390625,178746.640625,181979.5,691352.125,194801.1875,0.046142578125,1.0087890625,-0.016845703125,-1.9226073026657104,-0.5798339247703552,0.3356933295726776,93.33334350585938,159990.0,1.0
15:38:51.233888,161751.453125,183714.265625,178577.21875,190388.0625,178737.34375,181979.5,690624.0625,194803.15625,0.046142578125,1.010498046875,-0.019287109375,-1.8920897245407104,-0.5187987685203552,0.3051757514476776,93.33334350585938,159991.0,1.0
15:38:51.250803,161874.203125,183734.484375,178598.3125,190419.265625,178756.828125,181982.09375,690651.9375,194811.5625,0.046142578125,1.009033203125,-0.01806640625,-1.8005369901657104,-0.4882812201976776,0.3356933295726776,93.33334350585938,159992.0,1.0
15:38:51.251110,161916.578125,183746.8125,178602.78125,190406.203125,178768.90625,181984.25,691332.9375,194810.03125,0.044677734375,1.00927734375,-0.015869140625,-1.8310545682907104,-0.3051757514476776,0.2746581733226776,93.33334350585938,159993.0,1.0
15:38:51.253263,161810.984375,183733.140625,178589.546875,190394.40625,178753.25,181984.875,691462.9375,194809.859375,0.047119140625,1.01171875,-0.01904296875,-1.7700194120407104,-0.3662109076976776,0.3356933295726776,93.33334350585938,159994.0,1.0
15:38:51.253298,161755.921875,183723.921875,178586.25,190404.421875,178738.59375,181984.875,690712.5,194811.015625,0.04541015625,1.010009765625,-0.01708984375,-1.7089842557907104,-0.3356933295726776,0.3662109076976776,93.33334350585938,159995.0,1.0
15:38:51.255247,161861.6875,183741.71875,178605.46875,190420.15625,178752.8125,181987.828125,690590.0625,194811.640625,0.04541015625,1.00927734375,-0.018798828125,-1.7395018339157104,-0.2746581733226776,0.3662109076976776,93.33334350585938,159996.0,1.0
15:38:51.257938,161932.671875,183754.859375,178611.375,190418.90625,178766.671875,181987.734375,691198.3125,194809.59375,0.046630859375,1.0087890625,-0.0205078125,-1.6784666776657104,-0.3051757514476776,0.3967284858226776,93.33334350585938,159997.0,1.0
15:38:51.265225,161839.421875,183743.5,178599.03125,190394.3125,178754.59375,181988.453125,691540.75,194807.0,0.048095703125,1.009521484375,-0.022705078125,-1.5869139432907104,-0.2746581733226776,0.3662109076976776,93.33334350585938,159998.0,1.0
15:38:51.270911,161762.890625,183727.59375,178592.953125,190410.3125,178737.15625,181987.375,690822.8125,194810.390625,0.04833984375,1.01025390625,-0.02001953125,-1.4953612089157104,-0.1220703050494194,0.4882812201976776,93.33334350585938,159999.0,1.0
15:38:51.270926,161847.109375,183742.875,178609.40625,190418.90625,178749.59375,181991.75,690557.0,194811.640625,0.04931640625,1.01025390625,-0.0224609375,-1.4953612089157104,-0.03051757626235485,0.5493163466453552,93.33334350585938,160000.0,1.0
15:38:51.276341,161944.03125,183760.859375,178622.0,190435.4375,178771.140625,181994.890625,691083.875,194816.5625,0.050537109375,1.010009765625,-0.022216796875,-1.5258787870407104,0.03051757626235485,0.6408690810203552,93.33334350585938,160001.0,1.0
15:38:51.283308,161865.890625,183750.84375,178607.609375,190397.796875,178761.390625,181993.09375,691589.75,194810.484375,0.050048828125,1.008544921875,-0.0234375,-1.3732908964157104,0.1525878757238388,0.6713866591453552,93.33334350585938,160002.0,1.0
15:38:51.283333,161759.9375,183720.265625,178587.765625,190408.34375,178732.6875,181979.953125,690952.875,194809.59375,0.049560546875,1.009765625,-0.021484375,-1.3122557401657104,0.2136230319738388,0.6408690810203552,93.33334350585938,160003.0,1.0
15:38:51.293173,161807.328125,183721.0625,178593.671875,190402.984375,178732.15625,181975.125,690535.1875,194807.0,0.046142578125,1.01025390625,-0.022216796875,-1.4038084745407104,0.3051757514476776,0.6408690810203552,93.33334350585938,160004.0,1.0
15:38:51.293190,161916.578125,183732.15625,178602.515625,190424.0,178745.921875,181968.953125,690934.125,194808.0625,0.046630859375,1.00927734375,-0.020751953125,-1.3427733182907104,0.2746581733226776,0.7019042372703552,93.33334350585938,160005.0,1.0
15:38:51.295108,161862.765625,183725.8125,178588.65625,190379.734375,178739.3125,181965.46875,691563.8125,194797.96875,0.04541015625,1.01025390625,-0.0205078125,-1.2207030057907104,0.2746581733226776,0.7019042372703552,93.33334350585938,160006.0,1.0
15:38:51.298851,161750.90625,183701.9375,178571.84375,190391.28125,178717.140625,181959.125,691089.125,194799.578125,0.044921875,1.011474609375,-0.022705078125,-1.2207030057907104,0.3051757514476776,0.6408690810203552,93.33334350585938,160007.0,1.0
15:38:51.308223,161773.265625,183702.5625,178576.59375,190385.28125,178714.8125,181957.421875,690542.25,194794.203125,0.042236328125,1.01220703125,-0.021484375,-1.2207030057907104,0.3051757514476776,0.5493163466453552,93.33334350585938,160008.0,1.0
15:38:51.308244,161886.265625,183709.0,178580.515625,190405.40625,178720.71875,181946.96875,690804.9375,194785.890625,0.040771484375,1.012451171875,-0.020751953125,-1.1901854276657104,0.3051757514476776,0.4577636420726776,93.33334350585938,160009.0,1.0
15:38:51.310684,161863.46875,183711.765625,178568.625,190360.875,178716.15625,181948.03125,691509.1875,194772.03125,0.041259765625,1.012451171875,-0.020263671875,-1.2512205839157104,0.3356933295726776,0.5493163466453552,93.33334350585938,160010.0,1.0
15:38:51.310708,161749.21875,183694.25,178551.546875,190363.46875,178691.828125,181949.109375,691231.9375,194770.609375,0.0439453125,1.013916015625,-0.02099609375,-1.3122557401657104,0.2136230319738388,0.5187987685203552,93.33334350585938,160011.0,1.0
15:38:51.325781,161735.796875,183687.625,178548.515625,190354.53125,178680.65625,181948.03125,690575.6875,194761.75,0.042236328125,1.0166015625,-0.02099609375,-1.2817381620407104,0.2136230319738388,0.4272460639476776,93.33334350585938,160012.0,1.0
15:38:51.325793,161857.578125,183703.90625,178563.796875,190381.078125,178698.890625,181949.640625,690716.875,194764.703125,0.043212890625,1.01611328125,-0.0224609375,-1.3427733182907104,0.0610351525247097,0.3967284858226776,93.33334350585938,160013.0,1.0
15:38:51.332240,161872.40625,183716.5,178565.6875,190354.53125,178710.25,181956.4375,691425.25,194762.46875,0.0439453125,1.015869140625,-0.02001953125,-1.5258787870407104,0.03051757626235485,0.3051757514476776,93.33334350585938,160014.0,1.0
15:38:51.332293,161764.046875,183703.90625,178557.90625,190357.296875,178701.125,181963.421875,691368.0,194771.765625,0.0458984375,1.016845703125,-0.021240234375,-1.5258787870407104,0.0,0.4577636420726776,93.33334350585938,160015.0,1.0
15:38:51.339462,161728.828125,183698.53125,178559.59375,190360.703125,178695.140625,181967.34375,690637.9375,194776.234375,0.047607421875,1.017578125,-0.023681640625,-1.5869139432907104,0.0915527269244194,0.4272460639476776,93.33334350585938,160016.0,1.0
15:38:51.339531,161848.359375,183718.5625,178580.703125,190388.40625,178715.96875,181972.09375,690649.0,194785.265625,0.047119140625,1.017578125,-0.02197265625,-1.6479490995407104,0.0915527269244194,0.3662109076976776,93.33334350585938,160017.0,1.0
15:38:51.349945,161898.34375,183733.21875,178586.15625,190381.078125,178728.9375,181976.46875,691321.0,194787.234375,0.045654296875,1.01513671875,-0.022705078125,-1.6784666776657104,0.1831054538488388,0.4577636420726776,93.33334350585938,160018.0,1.0
15:38:51.350030,161795.703125,183720.078125,178575.15625,190370.796875,178717.21875,181977.265625,691484.125,194790.8125,0.046630859375,1.0146484375,-0.02294921875,-1.7395018339157104,0.1525878757238388,0.5493163466453552,93.33334350585938,160019.0,1.0
15:38:51.352408,161740.453125,183708.734375,178574.53125,190384.65625,178711.953125,181977.265625,690732.25,194797.96875,0.046875,1.013671875,-0.022705078125,-1.8615721464157104,0.0915527269244194,0.4882812201976776,93.33334350585938,160020.0,1.0
15:38:51.352469,161838.625,183721.421875,178590.71875,190400.296875,178723.3125,181977.09375,690586.0625,194800.640625,0.045654296875,1.013427734375,-0.021240234375,-1.7700194120407104,0.1831054538488388,0.4577636420726776,93.33334350585938,160021.0,1.0
15:38:51.358913,161915.859375,183736.796875,178600.1875,190405.84375,178738.234375,181979.234375,691181.0,194803.515625,0.045654296875,1.01513671875,-0.022705078125,-1.8920897245407104,0.1831054538488388,0.4577636420726776,93.33334350585938,160022.0,1.0
15:38:51.365697,161833.34375,183733.21875,178594.921875,190384.296875,178731.796875,181984.515625,691549.25,194804.3125,0.044189453125,1.01416015625,-0.0205078125,-1.8310545682907104,0.1220703050494194,0.4577636420726776,93.33334350585938,160023.0,1.0
15:38:51.365752,161758.953125,183724.109375,178592.328125,190405.21875,178719.109375,181987.828125,690843.625,194810.921875,0.04541015625,1.013671875,-0.01904296875,-1.8310545682907104,-0.03051757626235485,0.5187987685203552,93.33334350585938,160024.0,1.0
15:38:51.399435,161840.765625,183741.453125,178611.640625,190417.46875,178733.40625,181994.265625,690552.25,194814.859375,0.042724609375,1.01318359375,-0.022705078125,-1.7700194120407104,-0.0915527269244194,0.6103515028953552,93.33334350585938,160025.0,1.0
15:38:51.399470,161946.984375,183762.90625,178630.5,190442.953125,178758.4375,182000.078125,691052.9375,194824.4375,0.044189453125,1.012939453125,-0.021240234375,-1.8005369901657104,-0.0915527269244194,0.5798339247703552,93.33334350585938,160026.0,1.0
15:38:51.402542,161874.921875,183755.40625,178618.25,190404.59375,178751.46875,182000.96875,691587.875,194819.515625,0.042236328125,1.010986328125,-0.01806640625,-1.8005369901657104,-0.0915527269244194,0.7324218153953552,93.33334350585938,160027.0,1.0
15:38:51.402567,161761.109375,183720.078125,178591.15625,190407.8125,178716.25,181983.796875,690965.9375,194811.109375,0.04296875,1.01171875,-0.0166015625,-1.8615721464157104,-0.0610351525247097,0.5798339247703552,93.33334350585938,160028.0,1.0
15:38:51.402579,161801.875,183718.296875,178589.375,190398.25,178707.390625,181974.140625,690532.4375,194801.0,0.04248046875,1.010986328125,-0.017822265625,-1.9226073026657104,-0.0610351525247097,0.5798339247703552,93.33334350585938,160029.0,1.0
15:38:51.410107,161908.53125,183726.703125,178591.609375,190412.46875,178713.296875,181963.328125,690918.125,194796.0,0.044677734375,1.01123046875,-0.016357421875,-1.8920897245407104,-0.1525878757238388,0.6408690810203552,93.33334350585938,160030.0,1.0
15:38:51.410249,161847.109375,183711.328125,178569.171875,190356.9375,178698.1875,181951.171875,691553.8125,194779.1875,0.0458984375,1.009033203125,-0.0185546875,-1.8310545682907104,-0.1831054538488388,0.5798339247703552,93.33334350585938,160031.0,1.0
15:38:51.410280,161729.359375,183681.1875,178547.703125,190365.171875,178668.5,181938.109375,691099.25,194778.828125,0.045654296875,1.01025390625,-0.019287109375,-1.7395018339157104,-0.1525878757238388,0.5798339247703552,93.33334350585938,160032.0,1.0
15:38:51.413224,161746.0,183679.765625,178548.421875,190357.75,178660.1875,181934.0,690540.625,194774.265625,0.046630859375,1.010986328125,-0.02001953125,-1.8310545682907104,-0.1525878757238388,0.5798339247703552,93.33334350585938,160033.0,1.0
15:38:51.413284,161868.84375,183697.46875,178565.328125,190387.25,178680.75,181934.796875,690812.5,194778.296875,0.045654296875,1.011474609375,-0.0205078125,-1.7395018339157104,-0.3051757514476776,0.5187987685203552,93.33334350585938,160034.0,1.0
15:38:51.415125,161852.390625,183700.59375,178559.421875,190347.109375,178685.21875,181937.671875,691505.625,194770.96875,0.04443359375,1.01171875,-0.017822265625,-1.7395018339157104,-0.2746581733226776,0.5187987685203552,93.33334350585938,160035.0,1.0
15:38:51.417639,161734.375,183676.90625,178541.625,190351.125,178662.59375,181933.28125,691245.6875,194770.421875,0.04443359375,1.01025390625,-0.021240234375,-1.8005369901657104,-0.2441406100988388,0.5798339247703552,93.33334350585938,160036.0,1.0
15:38:51.420157,161727.75,183676.453125,178545.65625,190351.578125,178656.96875,181937.21875,690578.5625,194768.8125,0.045654296875,1.011474609375,-0.020751953125,-1.8005369901657104,-0.1831054538488388,0.5493163466453552,93.33334350585938,160037.0,1.0
15:38:51.422641,161853.90625,183697.90625,178564.875,190384.484375,178677.796875,181942.84375,690726.0,194774.09375,0.046142578125,1.01318359375,-0.024169921875,-1.7395018339157104,-0.1525878757238388,0.5187987685203552,93.33334350585938,160038.0,1.0
15:38:51.426673,161873.390625,183710.34375,178564.875,190358.46875,178686.296875,181948.9375,691423.8125,194767.03125,0.04638671875,1.012939453125,-0.01953125,-1.7089842557907104,-0.2136230319738388,0.5493163466453552,93.33334350585938,160039.0,1.0
15:38:51.436974,161767.625,183700.234375,178557.1875,190359.453125,178674.21875,181955.09375,691393.5,194771.328125,0.046630859375,1.01171875,-0.018310546875,-1.7395018339157104,-0.2136230319738388,0.5493163466453552,93.33334350585938,160040.0,1.0
15:38:51.437041,161737.046875,183698.0,178562.90625,190369.28125,178671.265625,181961.625,690659.9375,194776.953125,0.046630859375,1.01171875,-0.019287109375,-1.7395018339157104,-0.1525878757238388,0.5798339247703552,93.33334350585938,160041.0,1.0
15:38:51.439558,161849.703125,183712.296875,178579.890625,190391.546875,178687.984375,181962.609375,690650.0,194780.4375,0.0478515625,1.011962890625,-0.02001953125,-1.7700194120407104,-0.1220703050494194,0.4882812201976776,93.33334350585938,160042.0,1.0
15:38:51.439613,161899.59375,183726.703125,178583.65625,190379.46875,178703.015625,181967.265625,691308.375,194777.046875,0.046142578125,1.01171875,-0.02099609375,-1.7089842557907104,-0.2441406100988388,0.4577636420726776,93.33334350585938,160043.0,1.0
15:38:51.451423,161798.109375,183717.125,178570.234375,190360.15625,178691.03125,181971.734375,691506.75,194775.875,0.045166015625,1.01123046875,-0.0224609375,-1.6784666776657104,-0.2441406100988388,0.4577636420726776,93.33334350585938,160044.0,1.0
15:38:51.454449,161734.8125,183705.59375,178564.96875,190371.15625,178677.53125,181972.625,690754.3125,194780.078125,0.045166015625,1.01123046875,-0.021484375,-1.6174315214157104,-0.1525878757238388,0.5798339247703552,93.33334350585938,160045.0,1.0
15:38:51.454515,161827.890625,183716.953125,178579.0,190382.15625,178688.078125,181973.703125,690588.75,194781.875,0.04638671875,1.01025390625,-0.021484375,-1.6174315214157104,-0.1220703050494194,0.6103515028953552,93.33334350585938,160046.0,1.0
15:38:51.456403,161908.71875,183732.59375,178587.671875,190386.453125,178705.609375,181977.265625,691175.5,194783.75,0.046142578125,1.010498046875,-0.02099609375,-1.6174315214157104,-0.1831054538488388,0.5493163466453552,93.33334350585938,160047.0,1.0
15:38:51.466697,161822.703125,183725.890625,178579.09375,190359.453125,178698.625,181980.21875,691571.0625,194783.03125,0.046630859375,1.010986328125,-0.021484375,-1.6174315214157104,-0.1831054538488388,0.5187987685203552,93.33334350585938,160048.0,1.0
15:38:51.470827,161739.828125,183710.6875,178574.265625,190379.109375,178684.859375,181979.421875,690871.5625,194791.078125,0.046875,1.0107421875,-0.022705078125,-1.5869139432907104,-0.1831054538488388,0.6713866591453552,93.33334350585938,160049.0,1.0
15:38:51.470910,161817.515625,183724.640625,178591.703125,190389.9375,178696.21875,181983.53125,690558.0,194796.09375,0.04541015625,1.01171875,-0.021240234375,-1.6479490995407104,-0.1525878757238388,0.7324218153953552,93.33334350585938,160050.0,1.0
15:38:51.475127,161920.78125,183741.0,178604.3125,190411.75,178713.921875,181982.453125,691043.1875,194800.015625,0.046630859375,1.011962890625,-0.02099609375,-1.7395018339157104,-0.1220703050494194,0.6713866591453552,93.33334350585938,160051.0,1.0
15:38:51.479504,161852.921875,183734.203125,178593.390625,190375.265625,178707.21875,181982.09375,691593.375,194794.296875,0.0458984375,1.013916015625,-0.0205078125,-1.7395018339157104,-0.0915527269244194,0.5493163466453552,93.33334350585938,160052.0,1.0
15:38:51.479556,161752.34375,183713.828125,178581.6875,190393.6875,178688.4375,181980.21875,690999.375,194801.0,0.045166015625,1.013916015625,-0.020263671875,-1.6784666776657104,-0.2136230319738388,0.5493163466453552,93.33334350585938,160053.0,1.0
15:38:51.489005,161796.78125,183720.796875,178591.15625,190391.71875,178691.296875,181981.203125,690550.8125,194800.5625,0.04296875,1.012451171875,-0.021240234375,-1.6784666776657104,-0.2746581733226776,0.6713866591453552,93.33334350585938,160054.0,1.0
15:38:51.492006,161912.5625,183735.453125,178603.234375,190416.84375,178704.0,181976.5625,690921.6875,194801.1875,0.044189453125,1.013916015625,-0.021484375,-1.6784666776657104,-0.3051757514476776,0.7324218153953552,93.33334350585938,160055.0,1.0
15:38:51.492073,161862.046875,183723.84375,178584.1875,190365.703125,178687.0,181966.09375,691565.25,194784.375,0.044677734375,1.01318359375,-0.021240234375,-1.6479490995407104,-0.3662109076976776,0.7019042372703552,93.33334350585938,160056.0,1.0
15:38:51.524609,161749.03125,183699.4375,178567.640625,190378.484375,178664.828125,181958.3125,691137.875,194788.3125,0.046630859375,1.0126953125,-0.02099609375,-1.6479490995407104,-0.3662109076976776,0.7324218153953552,93.33334350585938,160057.0,1.0
15:38:51.524691,161760.203125,183696.5625,178570.15625,190372.140625,178661.53125,181953.84375,690556.125,194785.53125,0.044189453125,1.0126953125,-0.019775390625,-1.5869139432907104,-0.2441406100988388,0.7934569716453552,93.33334350585938,160058.0,1.0
15:38:51.542706,161883.046875,183712.484375,178585.265625,190401.46875,178681.28125,181951.796875,690791.4375,194791.703125,0.045166015625,1.013916015625,-0.019775390625,-1.6479490995407104,-0.3356933295726776,0.7934569716453552,93.33334350585938,160059.0,1.0
15:38:51.545185,161871.25,183714.71875,178577.75,190363.640625,178685.484375,181950.71875,691496.75,194783.84375,0.043701171875,1.010986328125,-0.022216796875,-1.5869139432907104,-0.3356933295726776,0.7934569716453552,93.33334350585938,160060.0,1.0
15:38:51.548269,161756.8125,183690.484375,178561.296875,190369.734375,178662.421875,181944.453125,691274.5625,194786.34375,0.045654296875,1.01171875,-0.022216796875,-1.5563963651657104,-0.3662109076976776,0.7629393935203552,93.33334350585938,160061.0,1.0
15:38:51.548334,161742.421875,183686.46875,178562.46875,190368.828125,178653.296875,181943.75,690597.75,194786.15625,0.045166015625,1.01220703125,-0.019775390625,-1.6174315214157104,-0.3356933295726776,0.8239745497703552,93.33334350585938,160062.0,1.0
15:38:51.550100,161861.59375,183701.3125,178577.21875,190393.59375,178668.3125,181942.9375,690710.9375,194788.671875,0.046142578125,1.013671875,-0.02099609375,-1.5563963651657104,-0.3967284858226776,0.8850097060203552,93.33334350585938,160063.0,1.0
15:38:51.552656,161877.515625,183704.34375,178568.984375,190361.046875,178669.84375,181939.1875,691403.25,194775.34375,0.045654296875,1.01171875,-0.0244140625,-1.4343260526657104,-0.3356933295726776,0.9460448622703552,93.33334350585938,160064.0,1.0
15:38:51.555178,161764.765625,183685.921875,178550.921875,190352.203125,178649.90625,181936.765625,691403.4375,194771.140625,0.045654296875,1.008544921875,-0.02099609375,-1.4648436307907104,-0.2441406100988388,0.9765624403953552,93.33334350585938,160065.0,1.0
15:38:51.557642,161718.8125,183673.140625,178545.75,190353.984375,178634.25,181932.484375,690661.625,194766.765625,0.04638671875,1.009521484375,-0.020263671875,-1.3732908964157104,-0.2136230319738388,0.9155272841453552,93.33334350585938,160066.0,1.0
15:38:51.560234,161836.296875,183694.421875,178568.8125,190381.265625,178658.75,181939.28125,690622.375,194775.25,0.047119140625,1.009521484375,-0.020751953125,-1.3427733182907104,-0.2136230319738388,1.0070799589157104,93.33334350585938,160067.0,1.0
15:38:51.562652,161897.09375,183712.21875,178579.71875,190378.671875,178680.5625,181947.953125,691279.25,194779.453125,0.048828125,1.009765625,-0.021240234375,-1.4038084745407104,-0.2136230319738388,1.0070799589157104,93.33334350585938,160068.0,1.0
15:38:51.565516,161795.4375,183698.625,178567.5625,190361.859375,178667.609375,181949.203125,691503.1875,194779.375,0.048095703125,1.009033203125,-0.021484375,-1.3122557401657104,-0.2136230319738388,1.0070799589157104,93.33334350585938,160069.0,1.0
15:38:51.567669,161735.0,183690.9375,178568.0,190379.5625,178658.671875,181953.125,690755.9375,194786.875,0.049560546875,1.00830078125,-0.019775390625,-1.4038084745407104,-0.1831054538488388,0.9765624403953552,93.33334350585938,160070.0,1.0
15:38:51.570248,161834.6875,183711.765625,178590.09375,190396.1875,178676.640625,181961.8125,690578.875,194793.3125,0.0498046875,1.010986328125,-0.02099609375,-1.2512205839157104,-0.03051757626235485,1.0070799589157104,93.33334350585938,160071.0,1.0
15:38:51.576460,161921.3125,183732.328125,178604.125,190404.421875,178698.890625,181970.484375,691155.375,194798.234375,0.04931640625,1.010009765625,-0.0205078125,-1.3122557401657104,-0.1525878757238388,0.9765624403953552,93.33334350585938,160072.0,1.0
15:38:51.576547,161840.140625,183729.734375,178595.8125,190376.609375,178694.0625,181979.5,691577.125,194798.6875,0.048095703125,1.010498046875,-0.02099609375,-1.3122557401657104,-0.0610351525247097,1.1596678495407104,93.33334350585938,160073.0,1.0
15:38:51.577703,161755.640625,183714.09375,178587.9375,190394.5,178676.359375,181979.78125,690892.4375,194802.609375,0.050048828125,1.011474609375,-0.019775390625,-1.3122557401657104,0.03051757626235485,1.1901854276657104,93.33334350585938,160074.0,1.0
15:38:51.580932,161823.859375,183724.546875,178597.328125,190396.015625,178680.390625,181980.21875,690561.75,194798.0625,0.049072265625,1.0087890625,-0.020263671875,-1.1291502714157104,0.1220703050494194,1.1291502714157104,93.33334350585938,160075.0,1.0
15:38:51.581003,161924.8125,183738.671875,178603.671875,190411.21875,178692.90625,181978.078125,691031.9375,194795.015625,0.05126953125,1.0107421875,-0.017822265625,-1.2207030057907104,0.2441406100988388,1.0681151151657104,93.33334350585938,160076.0,1.0
15:38:51.582949,161856.765625,183732.59375,178590.265625,190367.765625,178685.21875,181978.703125,691608.25,194786.796875,0.05029296875,1.010498046875,-0.0166015625,-1.2817381620407104,0.2746581733226776,0.9765624403953552,93.33334350585938,160077.0,1.0
15:38:51.585406,161746.53125,183705.953125,178573.734375,190378.40625,178660.71875,181971.1875,691033.1875,194787.953125,0.049560546875,1.01220703125,-0.01904296875,-1.3122557401657104,0.3662109076976776,0.9765624403953552,93.33334350585938,160078.0,1.0
15:38:51.587751,161782.734375,183704.53125,178577.578125,190373.296875,178657.140625,181965.03125,690560.0625,194783.484375,0.050048828125,1.011962890625,-0.021240234375,-1.2207030057907104,0.3356933295726776,1.0375975370407104,93.33334350585938,160079.0,1.0
15:38:51.594891,161897.0,183715.796875,178586.328125,190398.34375,178668.59375,181957.15625,690913.375,194783.296875,0.051513671875,1.01123046875,-0.019775390625,-1.2207030057907104,0.3051757514476776,0.9765624403953552,93.33334350585938,160080.0,1.0
15:38:51.594961,161854.625,183708.734375,178570.15625,190352.296875,178658.75,181950.453125,691573.0,194770.078125,0.04833984375,1.011962890625,-0.020751953125,-1.2207030057907104,0.3356933295726776,0.8544921278953552,93.33334350585938,160081.0,1.0
15:38:51.600800,161736.15625,183680.65625,178549.859375,190360.96875,178631.484375,181940.53125,691164.3125,194771.140625,0.049072265625,1.0126953125,-0.02001953125,-1.2207030057907104,0.3662109076976776,0.8544921278953552,93.33334350585938,160082.0,1.0
15:38:51.600868,161735.890625,183669.484375,178542.53125,190348.890625,178616.28125,181930.421875,690563.0625,194763.359375,0.049072265625,1.013671875,-0.01904296875,-1.2817381620407104,0.4577636420726776,0.7629393935203552,93.33334350585938,160083.0,1.0
15:38:51.603917,161853.8125,183679.40625,178550.03125,190374.5625,178624.421875,181921.65625,690796.6875,194763.984375,0.0498046875,1.01318359375,-0.02197265625,-1.3122557401657104,0.6103515028953552,0.9155272841453552,93.33334350585938,160084.0,1.0
15:38:51.613852,161844.078125,183680.03125,178541.265625,190337.1875,178625.046875,181919.875,691496.5,194756.84375,0.04931640625,1.01220703125,-0.02099609375,-1.4343260526657104,0.6408690810203552,0.8544921278953552,93.33334350585938,160085.0,1.0
15:38:51.618526,161727.3125,183661.078125,178527.234375,190342.1875,178611.015625,181919.78125,691304.4375,194762.5625,0.04833984375,1.01416015625,-0.02294921875,-1.4953612089157104,0.6713866591453552,0.8544921278953552,93.33334350585938,160086.0,1.0
15:38:51.618536,161714.34375,183662.5,178535.46875,190346.65625,178611.375,181925.59375,690615.375,194767.390625,0.048828125,1.01416015625,-0.020263671875,-1.5258787870407104,0.7019042372703552,0.8239745497703552,93.33334350585938,160087.0,1.0
15:38:51.627576,161839.421875,183680.65625,178555.84375,190376.796875,178630.765625,181927.65625,690707.0,194773.921875,0.048583984375,1.01171875,-0.02001953125,-1.5869139432907104,0.7019042372703552,0.7324218153953552,93.33334350585938,160088.0,1.0
15:38:51.632488,161868.390625,183690.484375,178557.546875,190357.5625,178640.15625,181929.171875,691399.3125,194772.125,0.04833984375,1.011474609375,-0.019775390625,-1.5563963651657104,0.5798339247703552,0.7629393935203552,93.33334350585938,160089.0,1.0
15:38:51.632500,161761.1875,183677.25,178547.53125,190352.296875,178627.015625,181930.6875,691435.0625,194774.359375,0.0478515625,1.011962890625,-0.01904296875,-1.5869139432907104,0.5493163466453552,0.7324218153953552,93.33334350585938,160090.0,1.0
15:38:51.638158,161727.65625,183679.765625,178555.671875,190366.0625,178625.140625,181939.28125,690698.1875,194780.796875,0.048095703125,1.01220703125,-0.021484375,-1.4953612089157104,0.6103515028953552,0.7019042372703552,93.33334350585938,160091.0,1.0
15:38:51.638170,161844.15625,183702.375,178581.859375,190390.734375,178648.03125,181946.421875,690640.125,194788.21875,0.047607421875,1.01220703125,-0.021240234375,-1.5563963651657104,0.6408690810203552,0.6408690810203552,93.33334350585938,160092.0,1.0
15:38:51.643840,161905.859375,183718.03125,178590.71875,190384.296875,178667.609375,181952.15625,691282.0625,194789.203125,0.047119140625,1.01171875,-0.020263671875,-1.5869139432907104,0.6408690810203552,0.6713866591453552,93.33334350585938,160093.0,1.0
15:38:51.654572,161809.46875,183709.078125,178579.625,190364.359375,178658.125,181956.53125,691541.8125,194789.734375,0.0478515625,1.011474609375,-0.0185546875,-1.5869139432907104,0.6713866591453552,0.6103515028953552,93.33334350585938,160094.0,1.0
15:38:51.654593,161740.09375,183694.6875,178575.15625,190378.578125,178642.921875,181957.328125,690797.75,194793.671875,0.0478515625,1.0107421875,-0.0205078125,-1.5563963651657104,0.6408690810203552,0.6408690810203552,93.33334350585938,160095.0,1.0
15:38:51.656948,161830.21875,183709.71875,178593.578125,190391.625,178660.28125,181963.140625,690601.875,194797.78125,0.047607421875,1.010986328125,-0.019775390625,-1.5563963651657104,0.5798339247703552,0.7019042372703552,93.33334350585938,160096.0,1.0
15:38:51.656971,161924.71875,183733.40625,178607.875,190404.859375,178682.625,181972.265625,691170.0625,194802.703125,0.045654296875,1.0107421875,-0.01806640625,-1.5563963651657104,0.4577636420726776,0.7324218153953552,93.33334350585938,160097.0,1.0
15:38:51.666441,161843.53125,183726.25,178594.734375,190370.796875,178672.609375,181975.84375,691615.6875,194797.25,0.047119140625,1.01220703125,-0.01904296875,-1.4953612089157104,0.5187987685203552,0.7629393935203552,93.33334350585938,160098.0,1.0
15:38:51.669500,161752.25,183706.9375,178585.53125,190388.6875,178655.796875,181973.703125,690927.75,194801.625,0.048583984375,1.009765625,-0.020263671875,-1.5563963651657104,0.5798339247703552,0.8239745497703552,93.33334350585938,160099.0,1.0
15:38:51.669522,161820.828125,183718.734375,178602.15625,190395.65625,178666.796875,181978.171875,690573.8125,194805.125,0.045654296875,1.011962890625,-0.019287109375,-1.4343260526657104,0.4272460639476776,0.8544921278953552,93.33334350585938,160100.0,1.0
15:38:51.672663,161934.1875,183738.40625,178619.421875,190422.03125,178689.0625,181981.5625,691023.875,194811.828125,0.04736328125,1.01123046875,-0.0185546875,-1.4953612089157104,0.2746581733226776,0.8850097060203552,93.33334350585938,160101.0,1.0
15:38:51.685734,161877.953125,183738.140625,178611.640625,190385.828125,178685.84375,181983.53125,691622.5625,194807.0,0.044921875,1.0107421875,-0.018798828125,-1.4953612089157104,0.2441406100988388,0.7629393935203552,93.33334350585938,160102.0,1.0
15:38:51.685768,161773.53125,183717.484375,178598.3125,190403.078125,178662.59375,181979.59375,691076.0,194809.40625,0.04541015625,1.010009765625,-0.019287109375,-1.4343260526657104,0.2746581733226776,0.7324218153953552,93.33334350585938,160103.0,1.0
15:38:51.688240,161801.875,183717.671875,178599.125,190391.90625,178654.734375,181974.328125,690577.8125,194799.578125,0.04736328125,1.010009765625,-0.02197265625,-1.4343260526657104,0.1220703050494194,0.7934569716453552,93.33334350585938,160104.0,1.0
15:38:51.688262,161911.484375,183725.984375,178603.59375,190411.03125,178663.84375,181965.109375,690894.3125,194797.15625,0.0478515625,1.010009765625,-0.020263671875,-1.4343260526657104,0.0610351525247097,0.7019042372703552,93.33334350585938,160105.0,1.0
15:38:51.700138,161867.859375,183716.234375,178583.109375,190362.03125,178651.953125,181956.265625,691576.6875,194783.65625,0.04736328125,1.010498046875,-0.022705078125,-1.4038084745407104,0.03051757626235485,0.7324218153953552,93.33334350585938,160106.0,1.0
15:38:51.704406,161746.078125,183683.875,178558.796875,190368.46875,178621.375,181943.125,691204.5625,194783.484375,0.04638671875,1.0126953125,-0.022216796875,-1.4343260526657104,0.03051757626235485,0.7019042372703552,93.33334350585938,160107.0,1.0
15:38:51.704448,161751.625,183680.65625,178562.1875,190366.0625,178617.53125,181941.421875,690592.9375,194783.921875,0.047119140625,1.011962890625,-0.022216796875,-1.4648436307907104,-0.1525878757238388,0.7324218153953552,93.33334350585938,160108.0,1.0
15:38:51.714422,161874.375,183695.40625,178574.796875,190394.140625,178631.84375,181937.75,690790.8125,194785.53125,0.047607421875,1.0107421875,-0.021484375,-1.3732908964157104,-0.1831054538488388,0.7934569716453552,93.33334350585938,160109.0,1.0
15:38:51.714448,161871.078125,183697.828125,178567.46875,190357.484375,178632.015625,181935.96875,691496.6875,194774.71875,0.04638671875,1.013427734375,-0.018798828125,-1.3427733182907104,-0.2136230319738388,0.6103515028953552,93.33334350585938,160110.0,1.0
15:38:51.720731,161749.84375,183670.90625,178547.53125,190354.265625,178608.421875,181926.84375,691331.8125,194772.75,0.048583984375,1.013427734375,-0.018310546875,-1.3427733182907104,-0.2136230319738388,0.5798339247703552,93.33334350585938,160111.0,1.0
15:38:51.720798,161730.96875,183670.109375,178554.0625,190359.53125,178605.734375,181930.78125,690627.5625,194777.046875,0.049072265625,1.01220703125,-0.01904296875,-1.3122557401657104,-0.2746581733226776,0.6103515028953552,93.33334350585938,160112.0,1.0
15:38:51.723161,161857.125,183692.09375,178576.859375,190391.984375,178627.90625,181935.875,690699.625,194785.53125,0.0478515625,1.01318359375,-0.02001953125,-1.4038084745407104,-0.2136230319738388,0.5493163466453552,93.33334350585938,160113.0,1.0
15:38:51.723185,161893.0625,183705.15625,178582.125,190375.8125,178641.671875,181940.265625,691385.875,194784.546875,0.048828125,1.01318359375,-0.02197265625,-1.4038084745407104,-0.2441406100988388,0.5187987685203552,93.33334350585938,160114.0,1.0
15:38:51.730094,161789.0,183694.328125,178573.1875,190369.453125,178632.828125,181945.53125,691460.1875,194789.734375,0.048583984375,1.012939453125,-0.02001953125,-1.4038084745407104,-0.2746581733226776,0.5798339247703552,93.33334350585938,160115.0,1.0
15:38:51.740713,161741.34375,183686.46875,178571.046875,190375.0,178621.375,181947.59375,690714.6875,194790.8125,0.04833984375,1.010986328125,-0.019287109375,-1.4343260526657104,-0.2441406100988388,0.5798339247703552,93.33334350585938,160116.0,1.0
15:38:51.740738,161851.046875,183706.84375,178591.34375,190396.90625,178638.8125,181953.484375,690637.9375,194795.375,0.04833984375,1.01123046875,-0.020751953125,-1.4648436307907104,-0.1831054538488388,0.5493163466453552,93.33334350585938,160117.0,1.0
15:38:51.748358,161914.171875,183719.546875,178598.140625,190394.671875,178654.546875,181956.265625,691270.125,194795.640625,0.0498046875,1.011474609375,-0.0205078125,-1.4648436307907104,-0.2441406100988388,0.5798339247703552,93.33334350585938,160118.0,1.0
15:38:51.748395,161815.375,183706.671875,178583.828125,190370.0,178642.03125,181956.4375,691555.4375,194792.875,0.051513671875,1.010986328125,-0.019775390625,-1.4343260526657104,-0.1831054538488388,0.5187987685203552,93.33334350585938,160119.0,1.0
15:38:51.750274,161742.859375,183693.4375,178576.671875,190381.265625,178624.6875,181954.203125,690818.0625,194792.953125,0.05078125,1.010986328125,-0.021728515625,-1.4038084745407104,-0.1831054538488388,0.4272460639476776,93.33334350585938,160120.0,1.0
15:38:51.757718,161831.46875,183707.75,178593.21875,190392.703125,178635.953125,181956.984375,690590.25,194794.203125,0.04833984375,1.011962890625,-0.023193359375,-1.3732908964157104,-0.1220703050494194,0.5493163466453552,93.33334350585938,160121.0,1.0
15:38:51.768204,161924.0,183725.171875,178604.484375,190404.328125,178655.265625,181958.765625,691129.75,194796.0,0.05029296875,1.01318359375,-0.025634765625,-1.3732908964157104,-0.1831054538488388,0.3662109076976776,93.33334350585938,160122.0,1.0
15:38:51.768252,161843.984375,183719.90625,178593.484375,190370.0,178649.1875,181963.140625,691607.625,194791.796875,0.050048828125,1.011474609375,-0.022705078125,-1.3427733182907104,-0.2136230319738388,0.3662109076976776,93.33334350585938,160123.0,1.0
15:38:51.770666,161751.984375,183700.59375,178583.5625,190387.515625,178628.890625,181961.359375,690947.5,194795.640625,0.051025390625,1.011474609375,-0.021484375,-1.3122557401657104,-0.1220703050494194,0.3356933295726776,93.33334350585938,160124.0,1.0
15:38:51.770719,161811.796875,183707.5625,178592.40625,190388.6875,178629.875,181960.28125,690576.25,194791.703125,0.051025390625,1.010986328125,-0.022216796875,-1.3732908964157104,-0.03051757626235485,0.3051757514476776,93.33334350585938,160125.0,1.0
