Timestamp,Fz,FC3,FCz,FC4,Cz,C3,C4
15:42:38.841214,159144.609375,178907.3125,176978.078125,184018.703125,162761.03125,175642.34375,691105.75,190073.96875,0.04345703125,0.90283203125,0.001953125,-0.9460448622703552,0.8544921278953552,0.7324218153953552,86.66667175292969,216938.0,1.0
15:42:38.841260,159069.59375,178892.90625,176973.15625,184041.5,162749.40625,175642.703125,690610.5625,190084.078125,0.04345703125,0.895263671875,0.002197265625,1.5258787870407104,0.8239745497703552,0.3356933295726776,86.66667175292969,216939.0,1.0
15:42:38.865777,159129.59375,178910.078125,176992.203125,184050.703125,162763.265625,175653.0625,690196.0625,190091.140625,0.04296875,0.887939453125,0.001220703125,3.967284917831421,0.7324218153953552,0.0915527269244194,86.66667175292969,216940.0,1.0
15:42:38.888142,159229.8125,178927.78125,177005.078125,184074.9375,162782.9375,175655.9375,690707.0,190096.59375,0.04150390625,0.8876953125,0.0048828125,6.286620616912842,0.6408690810203552,-0.1525878757238388,86.66667175292969,216941.0,1.0
15:42:38.890626,159184.484375,178929.203125,176998.203125,184037.828125,162781.421875,175660.84375,691168.5625,190093.015625,0.0419921875,0.89306640625,0.0048828125,8.605956077575684,0.5187987685203552,-0.3356933295726776,86.66667175292969,216942.0,1.0
15:42:38.893129,159092.75,178909.359375,176982.546875,184053.296875,162758.796875,175656.5625,690786.0,190094.53125,0.04248046875,0.8984375,0.004150390625,10.803221702575684,0.3356933295726776,-0.5187987685203552,86.66667175292969,216943.0,1.0
15:42:38.895655,159115.1875,178911.328125,176987.015625,184047.84375,162757.359375,175656.46875,690269.0,190092.75,0.043701171875,0.906494140625,0.00732421875,12.908934593200684,0.1220703050494194,-0.6713866591453552,86.66667175292969,216944.0,1.0
15:42:38.898171,159229.453125,178933.6875,177009.546875,184083.515625,162782.21875,175662.28125,690627.375,190104.640625,0.04638671875,0.91796875,0.009765625,14.984129905700684,-0.0915527269244194,-0.6713866591453552,86.66667175292969,216945.0,1.0
15:42:38.901237,159204.0625,178934.75,177001.78125,184043.46875,162782.21875,175662.375,691176.75,190094.796875,0.045654296875,0.9296875,0.007080078125,16.845701217651367,-0.3051757514476776,-0.8239745497703552,86.66667175292969,216946.0,1.0
15:42:38.903155,159097.75,178901.84375,176978.796875,184047.9375,162755.484375,175645.46875,690937.8125,190090.515625,0.046630859375,0.94287109375,0.01025390625,18.432615280151367,-0.4882812201976776,-0.7629393935203552,86.66667175292969,216947.0,1.0
15:42:38.905685,159103.390625,178909.09375,176988.0,184051.609375,162756.296875,175653.703125,690384.875,190092.125,0.0458984375,0.957275390625,0.01171875,19.714353561401367,-0.6408690810203552,-0.7934569716453552,86.66667175292969,216948.0,1.0
15:42:38.908122,159217.5625,178929.5625,177008.21875,184085.21875,162775.515625,175657.1875,690592.9375,190099.625,0.047119140625,0.970458984375,0.014404296875,20.874021530151367,-0.7934569716453552,-0.8239745497703552,86.66667175292969,216949.0,1.0
15:42:38.910722,159222.484375,178934.21875,177003.46875,184053.03125,162778.28125,175656.921875,691221.375,190088.71875,0.046875,0.981689453125,0.0126953125,21.697996139526367,-0.8239745497703552,-0.8850097060203552,86.66667175292969,216950.0,1.0
15:42:38.913147,159129.9375,178921.4375,176991.5,184056.25,162762.546875,175657.8125,691173.8125,190091.671875,0.04736328125,0.991455078125,0.01171875,22.369382858276367,-0.7324218153953552,-0.8544921278953552,86.66667175292969,216951.0,1.0
15:42:38.915632,159111.265625,178924.734375,176997.484375,184066.09375,162760.671875,175665.765625,690606.4375,190098.828125,0.04931640625,1.001953125,0.008056640625,22.918699264526367,-0.6713866591453552,-1.0070799589157104,86.66667175292969,216952.0,1.0
15:42:38.918791,159215.15625,178939.84375,177015.359375,184091.84375,162779.0,175667.015625,690666.0625,190104.71875,0.049560546875,1.011474609375,0.00390625,23.101804733276367,-0.6408690810203552,-1.0681151151657104,86.66667175292969,216953.0,1.0
15:42:38.918818,159262.09375,178962.296875,177029.671875,184085.21875,162801.171875,175682.578125,691315.1875,190110.359375,0.04931640625,1.02587890625,0.003662109375,23.162839889526367,-0.6408690810203552,-0.9460448622703552,86.66667175292969,216954.0,1.0
15:42:38.921280,159173.671875,178951.03125,177018.3125,184076.734375,162791.15625,175684.8125,691475.8125,190113.21875,0.048583984375,1.042236328125,0.00732421875,22.979734420776367,-0.6713866591453552,-0.8850097060203552,86.66667175292969,216955.0,1.0
15:42:38.921291,159111.34375,178924.203125,177000.171875,184075.921875,162766.9375,175668.53125,690862.4375,190105.703125,0.05029296875,1.05908203125,0.006591796875,22.399900436401367,-0.5493163466453552,-0.8850097060203552,86.66667175292969,216956.0,1.0
15:42:38.923069,159200.578125,178939.3125,177015.546875,184090.40625,162781.859375,175672.296875,690794.8125,190109.90625,0.05126953125,1.07568359375,0.008544921875,21.606443405151367,-0.6408690810203552,-0.6408690810203552,86.66667175292969,216957.0,1.0
15:42:38.925623,159270.3125,178961.9375,177030.203125,184096.671875,162804.296875,175684.09375,691407.1875,190117.328125,0.05224609375,1.094482421875,0.00830078125,20.507810592651367,-0.7629393935203552,-0.4577636420726776,86.66667175292969,216958.0,1.0
15:42:38.928790,159178.671875,178940.03125,177009.828125,184064.75,162789.46875,175674.703125,691764.4375,190109.546875,0.0546875,1.11328125,0.0048828125,18.981931686401367,-0.7019042372703552,-0.2136230319738388,86.66667175292969,216959.0,1.0
15:42:38.928823,159101.6875,178913.03125,176995.96875,184077.078125,162770.234375,175662.640625,691093.5,190111.25,0.056884765625,1.12890625,0.001953125,17.242429733276367,-0.7629393935203552,0.0610351525247097,86.66667175292969,216960.0,1.0
15:42:38.931195,159172.40625,178927.15625,177009.546875,184084.78125,162778.109375,175668.171875,690872.0,190110.796875,0.0556640625,1.143798828125,-0.000732421875,15.380858421325684,-0.6408690810203552,0.3356933295726776,86.66667175292969,216961.0,1.0
15:42:38.931206,159254.3125,178942.171875,177015.359375,184094.875,162789.1875,175669.34375,691373.375,190107.859375,0.0537109375,1.155029296875,-0.005859375,13.214110374450684,-0.5798339247703552,0.4882812201976776,86.66667175292969,216962.0,1.0
15:42:38.933118,159186.890625,178936.984375,177003.921875,184056.609375,162781.140625,175670.59375,691914.0,190101.0625,0.056640625,1.166015625,-0.006103515625,10.803221702575684,-0.5493163466453552,0.5798339247703552,86.66667175292969,216963.0,1.0
15:42:38.945714,159097.75,178916.421875,176991.671875,184069.125,162762.546875,175665.140625,691307.75,190100.515625,0.060302734375,1.168701171875,-0.009521484375,8.331297874450684,-0.3662109076976776,0.8544921278953552,86.66667175292969,216964.0,1.0
15:42:38.948796,159140.046875,178922.6875,177002.046875,184063.40625,162766.65625,175665.3125,690899.625,190096.671875,0.0625,1.17138671875,-0.013671875,5.645751476287842,-0.1831054538488388,1.0986326932907104,86.66667175292969,216965.0,1.0
15:42:38.948822,159244.109375,178939.21875,177016.609375,184089.6875,162783.5625,175663.078125,691264.3125,190101.328125,0.063720703125,1.170654296875,-0.01806640625,2.807616949081421,0.0915527269244194,1.2512205839157104,86.66667175292969,216966.0,1.0
15:42:38.950685,159203.34375,178944.140625,177011.515625,184051.0625,162783.65625,175669.4375,691907.75,190093.90625,0.063720703125,1.169677734375,-0.02197265625,-0.0610351525247097,0.2441406100988388,1.6174315214157104,86.66667175292969,216967.0,1.0
15:42:38.958412,159111.609375,178931.09375,177005.265625,184066.984375,162772.03125,175672.109375,691453.125,190101.859375,0.0654296875,1.1630859375,-0.026123046875,-2.960204839706421,0.5493163466453552,1.8310545682907104,86.66667175292969,216968.0,1.0
15:42:38.964950,159125.390625,178928.765625,177012.140625,184060.453125,162774.265625,175669.96875,690903.5625,190101.5,0.064208984375,1.155029296875,-0.029296875,-5.889892101287842,0.7934569716453552,2.136230230331421,86.66667175292969,216969.0,1.0
15:42:38.964981,159238.390625,178948.34375,177031.015625,184093.453125,162797.15625,175672.828125,691136.875,190109.828125,0.064453125,1.146484375,-0.031494140625,-8.666991233825684,0.9155272841453552,2.319335699081421,86.66667175292969,216970.0,1.0
15:42:38.972468,159226.953125,178955.40625,177029.9375,184061.34375,162802.0625,175677.65625,691794.6875,190104.28125,0.059326171875,1.137451171875,-0.03515625,-11.322020530700684,1.0070799589157104,2.471923589706421,86.66667175292969,216971.0,1.0
15:42:38.972498,159131.28125,178941.015625,177023.046875,184074.9375,162791.96875,175679.984375,691529.3125,190113.578125,0.054443359375,1.12548828125,-0.036376953125,-13.885497093200684,1.0681151151657104,2.655029058456421,86.66667175292969,216972.0,1.0
15:42:38.978729,159127.53125,178942.984375,177031.453125,184077.359375,162794.109375,175684.359375,690882.875,190116.4375,0.04833984375,1.11279296875,-0.0390625,-16.052244186401367,1.1291502714157104,2.899169683456421,86.66667175292969,216973.0,1.0
15:42:38.978772,159238.390625,178960.40625,177047.640625,184107.578125,162811.28125,175684.984375,691005.0,190120.8125,0.04443359375,1.100341796875,-0.037841796875,-18.005369186401367,1.1596678495407104,2.777099370956421,86.66667175292969,216974.0,1.0
15:42:38.980626,159247.96875,178966.21875,177043.96875,184080.390625,162816.109375,175686.15625,691664.6875,190115.359375,0.04052734375,1.087646484375,-0.038330078125,-19.897459030151367,1.0681151151657104,2.685546636581421,86.66667175292969,216975.0,1.0
15:42:38.993118,159148.09375,178946.28125,177029.40625,184076.1875,162800.90625,175684.90625,691610.9375,190116.171875,0.039306640625,1.07568359375,-0.037109375,-21.484373092651367,0.9765624403953552,2.471923589706421,86.66667175292969,216976.0,1.0
15:42:38.997997,159117.96875,178944.59375,177031.453125,184079.3125,162797.6875,175691.25,690919.5625,190117.78125,0.0380859375,1.06298828125,-0.04296875,-23.040769577026367,0.7934569716453552,2.258300542831421,86.66667175292969,216977.0,1.0
15:42:38.998025,159220.953125,178961.03125,177046.921875,184097.5625,162812.4375,175691.609375,690925.625,190120.90625,0.0390625,1.049072265625,-0.0419921875,-24.322507858276367,0.7019042372703552,2.197265386581421,86.66667175292969,216978.0,1.0
15:42:38.998035,159256.1875,178963.625,177043.078125,184077.0,162817.984375,175687.046875,691561.1875,190112.59375,0.04150390625,1.040283203125,-0.040283203125,-25.390623092651367,0.5187987685203552,2.044677495956421,86.66667175292969,216979.0,1.0
15:42:39.001914,159163.03125,178949.953125,177031.71875,184059.5625,162810.921875,175687.765625,691752.375,190112.328125,0.04345703125,1.032958984375,-0.044189453125,-26.367185592651367,0.3356933295726776,2.014159917831421,86.66667175292969,216980.0,1.0
15:42:39.008078,159110.546875,178940.65625,177033.421875,184072.796875,162805.828125,175689.71875,691028.0625,190119.828125,0.0458984375,1.024169921875,-0.04296875,-27.404783248901367,0.3662109076976776,1.8310545682907104,86.66667175292969,216981.0,1.0
15:42:39.014948,159206.65625,178960.953125,177055.421875,184094.25,162823.171875,175697.0625,690899.8125,190128.234375,0.049072265625,1.01611328125,-0.037109375,-28.228757858276367,0.1831054538488388,1.7089842557907104,86.66667175292969,216982.0,1.0
15:42:39.014975,159272.453125,178968.546875,177056.484375,184097.109375,162831.65625,175692.3125,691488.0,190126.09375,0.0498046875,1.010986328125,-0.03759765625,-28.930662155151367,0.1220703050494194,1.6174315214157104,86.66667175292969,216983.0,1.0
15:42:39.024419,159193.0625,178962.640625,177046.5625,184069.671875,162827.015625,175699.03125,691897.75,190125.828125,0.052001953125,1.006103515625,-0.033447265625,-29.632566452026367,0.0915527269244194,1.5563963651657104,86.66667175292969,216984.0,1.0
15:42:39.028864,159119.03125,178946.546875,177037.984375,184086.203125,162812.96875,175698.671875,691199.1875,190129.140625,0.052734375,1.003662109375,-0.03076171875,-30.364988327026367,0.1831054538488388,1.4953612089157104,86.66667175292969,216985.0,1.0
15:42:39.028906,159182.96875,178958.0,177050.5,184089.0625,162820.578125,175699.5625,690917.375,190126.71875,0.053466796875,1.000732421875,-0.027587890625,-31.005857467651367,0.1831054538488388,1.4038084745407104,86.66667175292969,216986.0,1.0
15:42:39.036223,159274.96875,178976.328125,177062.125,184102.828125,162834.796875,175701.34375,691415.3125,190125.375,0.053466796875,0.999755859375,-0.022705078125,-31.402585983276367,0.2136230319738388,1.3732908964157104,86.66667175292969,216987.0,1.0
15:42:39.036256,159206.03125,178963.90625,177043.609375,184059.03125,162819.40625,175692.140625,691973.625,190110.171875,0.0517578125,0.99560546875,-0.018310546875,-31.860349655151367,0.1831054538488388,1.4343260526657104,86.66667175292969,216988.0,1.0
15:42:39.043760,159109.015625,178934.65625,177025.46875,184070.640625,162793.9375,175678.546875,691357.25,190107.3125,0.051513671875,0.99462890625,-0.0107421875,-32.257076263427734,0.2136230319738388,1.0681151151657104,86.66667175292969,216989.0,1.0
15:42:39.043798,159150.859375,178946.90625,177039.859375,184071.0,162800.1875,175683.921875,690903.875,190108.125,0.053955078125,0.989501953125,-0.004150390625,-32.562252044677734,0.2746581733226776,0.9155272841453552,86.66667175292969,216990.0,1.0
15:42:39.056939,159269.515625,178975.703125,177066.859375,184109.8125,162830.328125,175695.1875,691262.0,190124.3125,0.05615234375,0.982666015625,-0.001220703125,-32.745357513427734,0.3356933295726776,0.6408690810203552,86.66667175292969,216991.0,1.0
15:42:39.057005,159245.375,178987.765625,177071.25,184083.515625,162841.765625,175710.46875,691961.6875,190127.609375,0.0576171875,0.978271484375,0.003662109375,-32.684322357177734,0.6408690810203552,0.4577636420726776,86.66667175292969,216992.0,1.0
15:42:39.057030,159151.671875,178961.390625,177058.546875,184104.625,162823.4375,175700.453125,691556.5625,190135.21875,0.055908203125,0.96337890625,0.007080078125,-32.226558685302734,0.9460448622703552,0.4577636420726776,86.66667175292969,216993.0,1.0
15:42:39.059561,159152.46875,178949.5,177053.265625,184093.71875,162808.421875,175684.8125,690942.3125,190124.125,0.056396484375,0.949462890625,0.005859375,-31.524656295776367,1.0681151151657104,0.4272460639476776,86.66667175292969,216994.0,1.0
15:42:39.061937,159261.375,178962.375,177066.765625,184121.4375,162822.359375,175679.359375,691171.875,190126.1875,0.05712890625,0.93603515625,0.00830078125,-30.426023483276367,1.4038084745407104,0.4882812201976776,86.66667175292969,216995.0,1.0
15:42:39.070671,159254.21875,178974.359375,177066.765625,184088.171875,162829.15625,175687.484375,691927.0625,190121.359375,0.05810546875,0.925048828125,0.005859375,-29.144285202026367,1.5258787870407104,0.6103515028953552,86.66667175292969,216996.0,1.0
15:42:39.077540,159177.515625,178983.390625,177076.421875,184113.921875,162837.5625,175714.3125,691707.9375,190147.546875,0.05810546875,0.913330078125,0.009033203125,-27.465818405151367,1.7395018339157104,0.7629393935203552,86.66667175292969,216997.0,1.0
15:42:39.077591,159172.40625,178988.046875,177088.3125,184121.34375,162845.515625,175725.3125,690985.0625,190159.171875,0.057373046875,0.9052734375,0.010986328125,-25.726316452026367,2.044677495956421,0.8544921278953552,86.66667175292969,216998.0,1.0
15:42:39.079988,159251.359375,178974.09375,177075.265625,184118.84375,162831.390625,175692.671875,691064.8125,190134.765625,0.0546875,0.892578125,0.014892578125,-23.559568405151367,2.288818120956421,1.0986326932907104,86.66667175292969,216999.0,1.0
15:42:39.080052,159262.984375,178976.78125,177067.75,184088.0,162834.34375,175689.71875,691771.875,190125.828125,0.0537109375,0.881103515625,0.016357421875,-21.148679733276367,2.410888433456421,1.2512205839157104,86.66667175292969,217000.0,1.0
15:42:39.104511,159160.15625,178952.640625,177045.578125,184077.703125,162810.921875,175683.109375,691777.3125,190121.265625,0.052978515625,0.86767578125,0.02197265625,-18.463132858276367,2.655029058456421,1.1901854276657104,86.66667175292969,217001.0,1.0
15:42:39.107549,159128.875,178947.53125,177045.140625,184083.25,162804.75,175688.65625,691016.1875,190124.3125,0.05078125,0.857666015625,0.020751953125,-15.594481468200684,2.960204839706421,1.3427733182907104,86.66667175292969,217002.0,1.0
15:42:39.107615,159230.703125,178962.015625,177058.09375,184099.796875,162818.25,175690.984375,690978.3125,190125.203125,0.048583984375,0.85400390625,0.022216796875,-12.451170921325684,3.234863042831421,1.4343260526657104,86.66667175292969,217003.0,1.0
15:42:39.111385,159270.046875,178965.421875,177051.578125,184082.359375,162819.953125,175686.859375,691693.25,190115.546875,0.046630859375,0.854248046875,0.023681640625,-9.124754905700684,3.295898199081421,1.3732908964157104,86.66667175292969,217004.0,1.0
15:42:39.111444,159182.0625,178951.734375,177037.625,184067.078125,162809.125,175688.390625,691964.875,190115.359375,0.0458984375,0.8583984375,0.026123046875,-5.706786632537842,3.448486089706421,1.3732908964157104,86.66667175292969,217005.0,1.0
15:42:39.111467,159121.984375,178935.109375,177028.15625,184082.265625,162792.234375,175683.828125,691163.625,190113.84375,0.041259765625,0.8642578125,0.03076171875,-2.227782964706421,3.509521245956421,1.4038084745407104,86.66667175292969,217006.0,1.0
15:42:39.111485,159199.328125,178943.6875,177035.5625,184092.1875,162792.859375,175678.375,690933.6875,190108.65625,0.037353515625,0.8701171875,0.03369140625,1.1901854276657104,3.448486089706421,1.3427733182907104,86.66667175292969,217007.0,1.0
15:42:39.113083,159269.953125,178954.59375,177038.609375,184096.046875,162801.078125,175676.21875,691678.875,190105.171875,0.034912109375,0.8779296875,0.036376953125,4.516601085662842,3.387450933456421,1.1901854276657104,86.66667175292969,217008.0,1.0
15:42:39.123121,159192.703125,178943.515625,177024.21875,184064.296875,162790.984375,175676.5,692211.5625,190100.171875,0.03271484375,0.8857421875,0.03857421875,7.812499523162842,3.295898199081421,1.0375975370407104,86.66667175292969,217009.0,1.0
15:42:39.130171,159117.421875,178926.34375,177014.015625,184082.1875,162776.046875,175673.71875,691491.375,190104.546875,0.032958984375,0.894775390625,0.040283203125,10.925292015075684,3.112792730331421,0.7934569716453552,86.66667175292969,217010.0,1.0
15:42:39.130195,159175.453125,178938.234375,177025.90625,184085.046875,162784.09375,175677.296875,690990.875,190105.34375,0.033935546875,0.904541015625,0.040283203125,13.793944358825684,2.990722417831421,0.6713866591453552,86.66667175292969,217011.0,1.0
15:42:39.136547,159262.171875,178948.4375,177030.828125,184098.28125,162793.3125,175671.671875,691662.3125,190103.203125,0.03515625,0.917236328125,0.041015625,16.418455123901367,2.838134527206421,0.6713866591453552,86.66667175292969,217012.0,1.0
15:42:39.136596,159208.0,178950.671875,177022.609375,184062.875,162788.296875,175675.421875,692350.25,190098.015625,0.0390625,0.92724609375,0.03515625,18.890378952026367,2.746581792831421,0.6408690810203552,86.66667175292969,217013.0,1.0
15:42:39.146296,159121.359375,178934.21875,177013.84375,184083.609375,162773.09375,175672.828125,691765.0,190105.0,0.043212890625,0.9404296875,0.03564453125,21.087644577026367,2.532958745956421,0.6408690810203552,86.66667175292969,217014.0,1.0
15:42:39.146353,159155.25,178944.765625,177025.734375,184081.5625,162778.375,175678.734375,691060.8125,190105.53125,0.0498046875,0.9580078125,0.035888671875,23.040769577026367,2.563476324081421,0.5493163466453552,86.66667175292969,217015.0,1.0
15:42:39.151968,159265.21875,178966.671875,177042.28125,184113.109375,162795.8125,175681.953125,691537.8125,190112.0625,0.056396484375,0.9736328125,0.036376953125,24.688718795776367,2.471923589706421,0.5798339247703552,86.66667175292969,217016.0,1.0
15:42:39.159009,159228.734375,178965.421875,177033.421875,184073.328125,162791.78125,175681.859375,692318.5625,190103.390625,0.0576171875,0.98876953125,0.03564453125,26.062009811401367,2.593993902206421,0.6408690810203552,86.66667175292969,217017.0,1.0
15:42:39.159063,159121.890625,178935.921875,177012.59375,184079.046875,162766.484375,175669.78125,691901.25,190099.453125,0.061767578125,1.003173828125,0.035400390625,27.069089889526367,2.685546636581421,0.7019042372703552,86.66667175292969,217018.0,1.0
15:42:39.168870,159125.109375,178935.921875,177016.96875,184070.296875,162763.984375,175669.609375,691032.1875,190096.140625,0.0615234375,1.015869140625,0.0341796875,27.832029342651367,2.807616949081421,0.7934569716453552,86.66667175292969,217019.0,1.0
15:42:39.168977,159233.390625,178952.640625,177031.28125,184096.046875,162780.96875,175670.421875,691272.25,190100.171875,0.0625,1.029541015625,0.03125,28.167722702026367,3.051757574081421,0.9765624403953552,86.66667175292969,217020.0,1.0
15:42:39.171289,159226.0625,178960.0625,177026.359375,184058.046875,162784.359375,175675.59375,692100.625,190091.84375,0.0595703125,1.041015625,0.0263671875,28.350828170776367,3.082275152206421,1.1291502714157104,86.66667175292969,217021.0,1.0
15:42:39.171349,159123.5,178941.015625,177011.703125,184059.03125,162767.5625,175673.640625,691900.9375,190091.765625,0.059326171875,1.051025390625,0.024658203125,28.167722702026367,3.295898199081421,1.4038084745407104,86.66667175292969,217022.0,1.0
15:42:39.180744,159102.9375,178936.09375,177013.484375,184058.40625,162762.109375,175675.59375,690975.875,190091.3125,0.06201171875,1.060302734375,0.018798828125,27.862546920776367,3.356933355331421,1.7395018339157104,86.66667175292969,217023.0,1.0
15:42:39.183881,159208.71875,178953.265625,177030.5625,184083.25,162779.359375,175679.71875,690991.875,190096.59375,0.06201171875,1.064697265625,0.013427734375,27.313230514526367,3.326415777206421,2.288818120956421,86.66667175292969,217024.0,1.0
15:42:39.183920,159226.6875,178958.71875,177027.96875,184055.453125,162785.265625,175679.984375,691800.9375,190088.453125,0.063232421875,1.069091796875,0.0068359375,26.580808639526367,3.265380620956421,2.716064214706421,86.66667175292969,217025.0,1.0
15:42:39.192210,159130.484375,178941.734375,177013.21875,184045.96875,162770.234375,175678.015625,691845.875,190086.390625,0.06591796875,1.073974609375,0.005859375,25.726316452026367,3.387450933456421,3.051757574081421,86.66667175292969,217026.0,1.0
15:42:39.198891,159089.71875,178937.25,177012.140625,184050.625,162762.640625,175682.84375,691059.5625,190088.09375,0.062255859375,1.074951171875,0.000244140625,24.688718795776367,3.540038824081421,3.173827886581421,86.66667175292969,217027.0,1.0
15:42:39.198946,159183.59375,178953.171875,177026.359375,184066.984375,162775.25,175685.25,690979.4375,190089.890625,0.06103515625,1.0751953125,-0.001953125,23.529050827026367,3.784179449081421,3.295898199081421,86.66667175292969,217028.0,1.0
15:42:39.205164,159238.03125,178967.75,177031.28125,184061.4375,162786.328125,175688.75,691614.75,190086.671875,0.05810546875,1.076416015625,-0.00830078125,22.399900436401367,3.875732183456421,3.387450933456421,86.66667175292969,217029.0,1.0
15:42:39.205232,159144.96875,178950.9375,177014.109375,184036.765625,162770.6875,175684.625,691874.25,190077.984375,0.053466796875,1.07568359375,-0.01123046875,21.057126998901367,3.906249761581421,3.326415777206421,86.66667175292969,217030.0,1.0
15:42:39.237550,159075.671875,178932.34375,177005.625,184045.875,162756.015625,175678.734375,691128.9375,190078.703125,0.052001953125,1.072509765625,-0.01611328125,19.622800827026367,3.936767339706421,3.295898199081421,86.66667175292969,217031.0,1.0
15:42:39.237574,159153.71875,178945.84375,177019.65625,184055.265625,162766.3125,175681.5,690930.8125,190080.046875,0.048828125,1.06982421875,-0.0205078125,18.249509811401367,3.845214605331421,3.479003667831421,86.66667175292969,217032.0,1.0
15:42:39.265688,159223.90625,178951.5625,177018.21875,184058.9375,162770.859375,175672.5625,691462.5,190073.796875,0.047119140625,1.067626953125,-0.02490234375,16.784666061401367,3.692626714706421,3.387450933456421,86.66667175292969,217033.0,1.0
15:42:39.289593,159146.125,178938.515625,177001.859375,184024.25,162757.71875,175667.546875,691908.0,190066.453125,0.046875,1.06640625,-0.030517578125,15.319823265075684,3.570556402206421,3.295898199081421,86.66667175292969,217034.0,1.0
15:42:39.291903,159060.203125,178915.078125,176987.734375,184036.140625,162737.6875,175657.8125,691232.9375,190068.78125,0.04541015625,1.061279296875,-0.032470703125,13.946532249450684,3.356933355331421,3.173827886581421,86.66667175292969,217035.0,1.0
15:42:39.294434,159111.265625,178922.765625,176998.015625,184032.921875,162744.578125,175658.609375,690887.1875,190065.921875,0.04638671875,1.06005859375,-0.033203125,12.512206077575684,3.234863042831421,3.051757574081421,86.66667175292969,217036.0,1.0
15:42:39.296899,159206.125,178937.25,177009.828125,184053.75,162760.9375,175656.828125,691294.6875,190067.796875,0.04638671875,1.060546875,-0.037109375,11.077879905700684,2.960204839706421,2.746581792831421,86.66667175292969,217037.0,1.0
15:42:39.303190,159161.59375,178941.28125,177008.125,184022.453125,162761.75,175663.625,691877.8125,190067.53125,0.04443359375,1.057373046875,-0.0390625,9.643553733825684,2.716064214706421,2.532958745956421,86.66667175292969,217038.0,1.0
15:42:39.305653,159073.265625,178924.03125,176999.359375,184041.6875,162744.9375,175660.9375,691343.625,190072.53125,0.0439453125,1.053955078125,-0.03955078125,8.209227561950684,2.563476324081421,2.410888433456421,86.66667175292969,217039.0,1.0
15:42:39.308139,159105.453125,178931.890625,177010.71875,184039.4375,162748.328125,175664.515625,690868.6875,190072.53125,0.043212890625,1.05419921875,-0.043212890625,6.835937023162842,2.258300542831421,2.136230230331421,86.66667175292969,217040.0,1.0
15:42:39.310650,159217.109375,178948.796875,177025.46875,184070.640625,162764.703125,175663.984375,691162.375,190078.53125,0.042724609375,1.054443359375,-0.043701171875,5.523681163787842,2.044677495956421,1.8615721464157104,86.66667175292969,217041.0,1.0
15:42:39.313128,159188.859375,178950.578125,177015.71875,184032.46875,162759.515625,175664.25,691815.75,190068.421875,0.04248046875,1.052734375,-0.042724609375,4.211425304412842,1.7395018339157104,1.6174315214157104,86.66667175292969,217042.0,1.0
15:42:39.315671,159091.859375,178934.9375,177006.875,184046.59375,162747.890625,175666.484375,691468.0625,190076.03125,0.044921875,1.051513671875,-0.043212890625,2.868652105331421,1.4343260526657104,1.6174315214157104,86.66667175292969,217043.0,1.0
15:42:39.318132,159100.96875,178942.359375,177020.28125,184049.015625,162757.0,175678.28125,690869.75,190081.84375,0.044189453125,1.04833984375,-0.043701171875,1.7395018339157104,1.0375975370407104,1.5563963651657104,86.66667175292969,217044.0,1.0
15:42:39.320693,159211.296875,178958.265625,177036.203125,184077.265625,162777.5625,175680.34375,691019.6875,190086.9375,0.048095703125,1.0458984375,-0.046630859375,0.6408690810203552,0.7629393935203552,1.4648436307907104,86.66667175292969,217045.0,1.0
15:42:39.323122,159205.765625,178960.234375,177029.40625,184040.96875,162780.4375,175680.15625,691675.9375,190078.4375,0.051025390625,1.044189453125,-0.04248046875,-0.4577636420726776,0.5493163466453552,1.4648436307907104,86.66667175292969,217046.0,1.0
15:42:39.325611,159097.671875,178933.140625,177009.015625,184035.953125,162757.453125,175669.78125,691516.1875,190075.75,0.05224609375,1.039794921875,-0.04248046875,-1.6479490995407104,0.3356933295726776,1.5258787870407104,86.66667175292969,217047.0,1.0
15:42:39.328107,159073.625,178927.875,177007.765625,184035.421875,162748.515625,175671.125,690846.5,190075.3125,0.054443359375,1.038330078125,-0.04443359375,-2.593993902206421,0.0915527269244194,1.5258787870407104,86.66667175292969,217048.0,1.0
15:42:39.330622,159176.078125,178941.28125,177020.640625,184057.59375,162761.65625,175672.296875,690864.1875,190077.453125,0.057373046875,1.035888671875,-0.046630859375,-3.387450933456421,-0.03051757626235485,1.4953612089157104,86.66667175292969,217049.0,1.0
15:42:39.333179,159197.09375,178943.25,177013.046875,184032.296875,162762.015625,175668.984375,691461.625,190066.375,0.056640625,1.0361328125,-0.044189453125,-3.967284917831421,-0.1525878757238388,1.5563963651657104,86.66667175292969,217050.0,1.0
15:42:39.335667,159095.96875,178924.734375,176993.28125,184013.703125,162741.625,175665.40625,691516.875,190059.84375,0.057861328125,1.033935546875,-0.04443359375,-4.577636241912842,-0.2136230319738388,1.5258787870407104,86.66667175292969,217051.0,1.0
15:42:39.338135,159048.9375,178916.515625,176989.25,184018.171875,162729.46875,175665.9375,690827.75,190058.953125,0.05908203125,1.03173828125,-0.04150390625,-5.096435070037842,-0.3051757514476776,1.5869139432907104,86.66667175292969,217052.0,1.0
15:42:39.340678,159139.328125,178927.421875,177003.203125,184033.09375,162741.546875,175664.609375,690732.3125,190059.84375,0.0576171875,1.02978515625,-0.036865234375,-5.645751476287842,-0.4882812201976776,1.7089842557907104,86.66667175292969,217053.0,1.0
15:42:39.343191,159191.453125,178932.78125,177003.828125,184028.625,162752.171875,175660.3125,691273.875,190057.078125,0.057373046875,1.029296875,-0.035888671875,-6.134032726287842,-0.4272460639476776,1.7700194120407104,86.66667175292969,217054.0,1.0
15:42:39.346370,159099.359375,178914.1875,176982.90625,184000.546875,162733.765625,175651.453125,691516.5,190048.671875,0.058837890625,1.02783203125,-0.0390625,-6.591796398162842,-0.6103515028953552,1.7089842557907104,86.66667175292969,217055.0,1.0
15:42:39.346440,159036.953125,178899.703125,176975.125,184013.703125,162714.71875,175645.015625,690868.75,190049.65625,0.06005859375,1.024169921875,-0.03955078125,-6.805419445037842,-0.6408690810203552,1.7395018339157104,86.66667175292969,217056.0,1.0
15:42:39.349084,159114.65625,178914.640625,176993.1875,184024.875,162728.03125,175646.71875,690651.4375,190052.328125,0.060302734375,1.022216796875,-0.03759765625,-7.110595226287842,-0.6408690810203552,1.7395018339157104,86.66667175292969,217057.0,1.0
15:42:39.349157,159203.890625,178937.4375,177009.46875,184044.71875,162749.578125,175652.890625,691138.5625,190058.765625,0.0595703125,1.0205078125,-0.035888671875,-7.324218273162842,-0.7019042372703552,1.6479490995407104,86.66667175292969,217058.0,1.0
15:42:39.352024,159138.265625,178935.46875,177002.484375,184017.0,162746.1875,175657.546875,691558.625,190059.390625,0.060302734375,1.01806640625,-0.036865234375,-7.507323741912842,-0.7324218153953552,1.5869139432907104,86.66667175292969,217059.0,1.0
15:42:39.352097,159051.09375,178910.609375,176989.796875,184033.0,162727.0625,175647.703125,690983.375,190062.796875,0.0625,1.013916015625,-0.031494140625,-7.507323741912842,-0.7934569716453552,1.6174315214157104,86.66667175292969,217060.0,1.0
15:42:39.352124,159107.328125,178921.609375,177004.453125,184040.25,162734.75,175649.9375,690648.1875,190065.921875,0.062255859375,1.01171875,-0.033935546875,-7.476806163787842,-0.7934569716453552,1.5563963651657104,86.66667175292969,217061.0,1.0
15:42:39.356208,159213.546875,178940.5625,177020.109375,184070.46875,162753.4375,175650.828125,691056.625,190072.890625,0.0625,1.00830078125,-0.034912109375,-7.385253429412842,-0.9155272841453552,1.5258787870407104,86.66667175292969,217062.0,1.0
15:42:39.356272,159169.46875,178940.75,177014.734375,184034.703125,162753.25,175654.5,691614.3125,190069.40625,0.060791015625,1.00439453125,-0.03271484375,-7.324218273162842,-0.8850097060203552,1.3427733182907104,86.66667175292969,217063.0,1.0
15:42:39.356295,159077.8125,178920.0,177005.078125,184049.71875,162738.046875,175651.453125,691182.0625,190075.046875,0.061767578125,1.007080078125,-0.030029296875,-7.171630382537842,-0.9765624403953552,1.2817381620407104,86.66667175292969,217064.0,1.0
15:42:39.356316,159102.765625,178925.1875,177011.78125,184044.546875,162739.65625,175653.96875,690743.0625,190072.0,0.060302734375,1.003173828125,-0.025390625,-6.988524913787842,-0.9155272841453552,1.2512205839157104,86.66667175292969,217065.0,1.0
15:42:39.358359,159213.359375,178940.390625,177022.6875,184073.6875,162753.4375,175653.25,691042.1875,190074.6875,0.060302734375,1.003173828125,-0.025146484375,-6.835937023162842,-1.0681151151657104,1.1291502714157104,86.66667175292969,217066.0,1.0
15:42:39.360660,159190.390625,178939.40625,177014.109375,184033.90625,162752.71875,175652.171875,691731.6875,190065.296875,0.05908203125,1.00244140625,-0.0224609375,-6.683349132537842,-1.0375975370407104,1.0375975370407104,86.66667175292969,217067.0,1.0
15:42:39.363857,159100.53125,178925.90625,177011.34375,184050.625,162748.328125,175657.0,691477.5625,190077.984375,0.05810546875,1.00048828125,-0.021240234375,-6.378173351287842,-1.1901854276657104,0.8544921278953552,86.66667175292969,217068.0,1.0
15:42:39.363935,159104.015625,178928.765625,177021.078125,184052.140625,162755.21875,175662.453125,690910.625,190083.984375,0.056396484375,0.999755859375,-0.020263671875,-6.011962413787842,-1.1596678495407104,0.7934569716453552,86.66667175292969,217069.0,1.0
15:42:39.365717,159217.828125,178945.921875,177038.609375,184085.40625,162774.0,175662.640625,691110.4375,190092.5625,0.05908203125,0.9990234375,-0.021240234375,-5.798339366912842,-1.3122557401657104,0.7934569716453552,86.66667175292969,217070.0,1.0
15:42:39.368297,159232.671875,178960.234375,177043.796875,184063.578125,162786.6875,175672.734375,691907.3125,190090.6875,0.060791015625,0.9970703125,-0.02294921875,-5.401610851287842,-1.4343260526657104,0.7324218153953552,86.66667175292969,217071.0,1.0
15:42:39.373649,159139.875,178948.25,177036.203125,184066.984375,162777.75,175676.859375,691904.0,190094.359375,0.05908203125,0.9970703125,-0.0224609375,-5.065917491912842,-1.4953612089157104,0.8239745497703552,86.66667175292969,217072.0,1.0
15:42:39.375891,159113.671875,178940.296875,177034.234375,184067.609375,162769.25,175675.6875,691055.875,190091.671875,0.0595703125,0.9970703125,-0.02001953125,-4.791259288787842,-1.6174315214157104,0.7629393935203552,86.66667175292969,217073.0,1.0
15:42:39.386263,159219.890625,178957.109375,177049.34375,184092.46875,162783.5625,175678.8125,691084.3125,190092.46875,0.060791015625,0.997314453125,-0.018310546875,-4.364013195037842,-1.6479490995407104,0.6408690810203552,86.66667175292969,217074.0,1.0
15:42:39.390591,159255.5625,178967.03125,177048.09375,184076.09375,162790.265625,175679.890625,692011.1875,190085.5,0.058837890625,0.998046875,-0.016845703125,-4.028319835662842,-1.7700194120407104,0.5798339247703552,86.66667175292969,217075.0,1.0
15:42:39.390660,159153.453125,178941.375,177025.640625,184053.921875,162767.5625,175669.34375,692247.25,190076.921875,0.05712890625,0.997802734375,-0.01904296875,-3.692626714706421,-1.7395018339157104,0.6408690810203552,86.66667175292969,217076.0,1.0
15:42:39.390687,159099.09375,178924.03125,177013.21875,184052.140625,162746.09375,175661.5625,691422.375,190069.046875,0.057373046875,0.998046875,-0.01953125,-3.234863042831421,-1.8615721464157104,0.6103515028953552,86.66667175292969,217077.0,1.0
15:42:39.393138,159194.140625,178941.453125,177029.578125,184070.296875,162759.78125,175666.84375,691232.125,190073.25,0.05859375,0.99658203125,-0.01904296875,-2.960204839706421,-1.8920897245407104,0.7324218153953552,86.66667175292969,217078.0,1.0
15:42:39.404465,159251.984375,178948.796875,177030.296875,184066.984375,162768.0,175662.28125,692081.5625,190068.875,0.05908203125,0.99755859375,-0.021484375,-2.532958745956421,-1.9226073026657104,0.6408690810203552,86.66667175292969,217079.0,1.0
15:42:39.407504,159158.828125,178928.5,177006.953125,184030.5,162745.828125,175651.8125,692521.625,190055.46875,0.057861328125,0.994873046875,-0.02001953125,-2.105712652206421,-1.9226073026657104,0.4577636420726776,86.66667175292969,217080.0,1.0
15:42:39.407569,159091.140625,178916.25,177003.296875,184047.140625,162735.453125,175651.734375,691763.375,190063.328125,0.0576171875,0.9931640625,-0.017822265625,-1.7395018339157104,-1.9531248807907104,0.4272460639476776,86.66667175292969,217081.0,1.0
15:42:39.409483,159168.84375,178934.03125,177025.734375,184064.484375,162753.875,175659.0625,691344.875,190074.140625,0.05859375,0.994873046875,-0.015625,-1.3427733182907104,-2.014159917831421,0.3356933295726776,86.66667175292969,217082.0,1.0
15:42:39.421952,159254.9375,178944.765625,177033.515625,184081.5625,162766.390625,175653.703125,692064.9375,190077.453125,0.058349609375,0.995361328125,-0.0185546875,-0.8850097060203552,-2.105712652206421,0.4272460639476776,86.66667175292969,217083.0,1.0
15:42:39.425007,159180.640625,178928.859375,177013.84375,184040.25,162750.5625,175644.3125,692679.6875,190067.625,0.05810546875,0.996826171875,-0.018798828125,-0.6103515028953552,-2.136230230331421,0.5798339247703552,86.66667175292969,217084.0,1.0
15:42:39.425025,159086.578125,178903.375,176994.0,184047.484375,162722.765625,175635.015625,692039.25,190063.328125,0.0595703125,0.99755859375,-0.018798828125,-0.2746581733226776,-2.105712652206421,0.5187987685203552,86.66667175292969,217085.0,1.0
15:42:39.427539,159135.21875,178916.15625,177005.890625,184048.390625,162729.375,175642.609375,691424.875,190064.578125,0.058349609375,0.99755859375,-0.019775390625,0.0,-2.136230230331421,0.4882812201976776,86.66667175292969,217086.0,1.0
15:42:39.427638,159230.4375,178926.703125,177013.84375,184067.609375,162744.046875,175640.1875,691976.8125,190065.828125,0.059326171875,0.99853515625,-0.020751953125,0.3662109076976776,-2.166747808456421,0.4882812201976776,86.66667175292969,217087.0,1.0
15:42:39.436927,159175.984375,178916.875,176998.015625,184020.21875,162735.546875,175634.734375,692721.625,190056.0,0.05859375,0.99951171875,-0.0185546875,0.6103515028953552,-2.075195074081421,0.3967284858226776,86.66667175292969,217088.0,1.0
15:42:39.443786,159077.8125,178893.890625,176982.734375,184032.46875,162715.875,175629.203125,692258.75,190058.40625,0.061767578125,1.001220703125,-0.022216796875,0.7629393935203552,-2.075195074081421,0.4272460639476776,86.66667175292969,217089.0,1.0
15:42:39.443817,159100.796875,178901.84375,176994.625,184033.1875,162723.484375,175634.828125,691477.875,190063.234375,0.061767578125,1.0029296875,-0.02294921875,0.9155272841453552,-2.075195074081421,0.3967284858226776,86.66667175292969,217090.0,1.0
15:42:39.453793,159213.8125,178919.734375,177013.21875,184070.296875,162746.1875,175635.015625,691811.8125,190075.3125,0.060302734375,1.0048828125,-0.024169921875,1.0375975370407104,-2.014159917831421,0.4577636420726776,86.66667175292969,217091.0,1.0
15:42:39.453837,159201.296875,178929.125,177011.703125,184039.4375,162751.640625,175641.71875,692621.875,190072.1875,0.063720703125,1.0068359375,-0.025390625,1.3122557401657104,-1.8920897245407104,0.4882812201976776,86.66667175292969,217092.0,1.0
15:42:39.455644,159099.359375,178908.109375,177000.96875,184049.546875,162738.40625,175638.046875,692329.5,190081.125,0.0654296875,1.007568359375,-0.025146484375,1.3427733182907104,-1.8005369901657104,0.5493163466453552,86.66667175292969,217093.0,1.0
15:42:39.461999,159092.578125,178910.796875,177009.640625,184046.953125,162740.734375,175644.9375,691408.625,190080.140625,0.0654296875,1.01171875,-0.025146484375,1.2817381620407104,-1.6174315214157104,0.6408690810203552,86.66667175292969,217094.0,1.0
15:42:39.468778,159208.0,178933.5,177031.015625,184077.4375,162762.375,175653.703125,691500.6875,190088.09375,0.066650390625,1.01416015625,-0.024169921875,1.2512205839157104,-1.5258787870407104,0.6408690810203552,86.66667175292969,217095.0,1.0
15:42:39.468845,159217.65625,178941.015625,177030.828125,184049.09375,162772.203125,175658.703125,692309.3125,190082.734375,0.068603515625,1.017333984375,-0.025146484375,1.2207030057907104,-1.2512205839157104,0.5493163466453552,86.66667175292969,217096.0,1.0
15:42:39.475436,159110.359375,178917.671875,177010.984375,184037.5625,162751.015625,175652.171875,692219.0625,190076.296875,0.068359375,1.0185546875,-0.02490234375,1.0070799589157104,-1.0070799589157104,0.6103515028953552,86.66667175292969,217097.0,1.0
15:42:39.475512,159072.640625,178907.21875,177004.015625,184035.0625,162738.046875,175649.140625,691223.25,190075.84375,0.072509765625,1.022216796875,-0.02880859375,0.8544921278953552,-0.8544921278953552,0.6408690810203552,86.66667175292969,217098.0,1.0
15:42:39.484115,159160.15625,178912.84375,177006.78125,184038.640625,162740.203125,175641.359375,691035.0625,190061.453125,0.07275390625,1.023193359375,-0.029541015625,0.6713866591453552,-0.5493163466453552,0.6408690810203552,86.66667175292969,217099.0,1.0
15:42:39.487715,159192.4375,178916.0625,176999.625,184017.8125,162738.953125,175635.453125,691772.375,190048.9375,0.07177734375,1.0263671875,-0.029052734375,0.3051757514476776,-0.1220703050494194,0.5798339247703552,86.66667175292969,217100.0,1.0
15:42:39.488187,159094.1875,178897.5625,176981.390625,184000.734375,162720.078125,175631.078125,691877.1875,190047.140625,0.0732421875,1.027099609375,-0.02783203125,-0.0915527269244194,0.2136230319738388,0.6103515028953552,86.66667175292969,217101.0,1.0
15:42:39.496154,159030.875,178878.25,176970.296875,184000.46875,162702.015625,175623.828125,691051.6875,190042.3125,0.072265625,1.028076171875,-0.027587890625,-0.4577636420726776,0.5493163466453552,0.6408690810203552,86.66667175292969,217102.0,1.0
15:42:39.496247,159118.5,178894.34375,176986.390625,184014.859375,162714.359375,175628.84375,690849.5625,190045.0,0.0703125,1.028564453125,-0.031982421875,-0.8850097060203552,0.8239745497703552,0.6713866591453552,86.66667175292969,217103.0,1.0
15:42:39.504977,159197.09375,178920.625,177002.671875,184024.0625,162732.6875,175640.546875,691295.125,190048.9375,0.068115234375,1.029052734375,-0.02978515625,-1.2817381620407104,1.0681151151657104,0.7324218153953552,86.66667175292969,217104.0,1.0
15:42:39.505000,159116.53125,178911.0625,176992.921875,183994.734375,162724.546875,175640.828125,691519.3125,190045.359375,0.068359375,1.029296875,-0.028076171875,-1.6784666776657104,1.2207030057907104,0.8544921278953552,86.66667175292969,217105.0,1.0
15:42:39.508784,159035.625,178890.40625,176983.0,184004.84375,162709.359375,175634.296875,690796.25,190046.875,0.066650390625,1.029052734375,-0.029541015625,-2.075195074081421,1.4953612089157104,0.8544921278953552,86.66667175292969,217106.0,1.0
15:42:39.508800,159103.125,178906.59375,176999.53125,184012.265625,162721.328125,175640.90625,690391.3125,190050.453125,0.06201171875,1.028564453125,-0.03125,-2.532958745956421,1.7089842557907104,1.0375975370407104,86.66667175292969,217107.0,1.0
15:42:39.518244,159189.125,178920.453125,177006.15625,184024.515625,162731.34375,175639.390625,690796.9375,190048.40625,0.062255859375,1.0283203125,-0.031494140625,-2.929687261581421,1.9531248807907104,1.1596678495407104,86.66667175292969,217108.0,1.0
15:42:39.525257,159120.90625,178912.3125,176991.5,183984.90625,162721.0625,175640.734375,691034.9375,190041.609375,0.06298828125,1.02685546875,-0.030517578125,-3.387450933456421,2.136230230331421,1.1596678495407104,86.66667175292969,217109.0,1.0
15:42:39.525273,159023.8125,178888.984375,176976.734375,183997.515625,162700.953125,175636.703125,690523.5625,190045.09375,0.060302734375,1.0263671875,-0.02783203125,-3.784179449081421,2.258300542831421,1.1596678495407104,86.66667175292969,217110.0,1.0
15:42:39.531238,159053.59375,178888.34375,176979.421875,183990.625,162697.375,175632.15625,690145.1875,190039.375,0.060791015625,1.0244140625,-0.029541015625,-4.089354991912842,2.410888433456421,1.2207030057907104,86.66667175292969,217111.0,1.0
15:42:39.531256,159151.40625,178898.359375,176986.484375,184011.734375,162707.390625,175627.859375,690388.0,190038.296875,0.058837890625,1.022216796875,-0.02880859375,-4.486083507537842,2.593993902206421,1.3427733182907104,86.66667175292969,217112.0,1.0
15:42:39.537533,159106.96875,178895.6875,176977.640625,183969.4375,162706.140625,175629.828125,690711.0625,190033.203125,0.061279296875,1.0224609375,-0.02880859375,-4.821776866912842,2.777099370956421,1.3122557401657104,86.66667175292969,217113.0,1.0
15:42:39.537545,159007.015625,178873.0625,176964.671875,183982.84375,162687.984375,175623.125,690354.5625,190039.640625,0.064208984375,1.020263671875,-0.030029296875,-5.096435070037842,2.929687261581421,1.4343260526657104,86.66667175292969,217114.0,1.0
15:42:39.539529,159026.5,178881.734375,176977.359375,183984.640625,162691.5625,175628.65625,689806.9375,190044.734375,0.0634765625,1.01904296875,-0.026611328125,-5.432128429412842,3.173827886581421,1.5869139432907104,86.66667175292969,217115.0,1.0
15:42:39.551860,159137.0,178903.109375,176996.140625,184014.671875,162711.953125,175632.78125,689984.0625,190052.875,0.06298828125,1.0205078125,-0.025634765625,-5.737304210662842,3.387450933456421,1.5869139432907104,86.66667175292969,217116.0,1.0
15:42:39.556336,159125.03125,178915.984375,176998.46875,183979.1875,162722.40625,175645.734375,690384.8125,190052.328125,0.0634765625,1.019287109375,-0.020263671875,-6.134032726287842,3.662109136581421,1.5869139432907104,86.66667175292969,217117.0,1.0
15:42:39.556349,159028.015625,178901.765625,176991.21875,183988.390625,162714.8125,175650.03125,690091.8125,190061.71875,0.0654296875,1.018798828125,-0.02099609375,-6.347655773162842,3.906249761581421,1.5563963651657104,86.66667175292969,217118.0,1.0
15:42:39.567520,159019.078125,178898.359375,176994.359375,183989.28125,162710.421875,175648.15625,689337.5625,190062.25,0.064453125,1.015869140625,-0.020263671875,-6.591796398162842,4.211425304412842,1.5869139432907104,86.66667175292969,217119.0,1.0
15:42:39.567531,159134.0625,178916.0625,177011.875,184019.328125,162727.859375,175648.6875,689413.5,190066.8125,0.065185546875,1.01513671875,-0.0166015625,-6.835937023162842,4.364013195037842,1.6784666776657104,86.66667175292969,217120.0,1.0
15:42:39.575075,159149.078125,178922.140625,177010.0,183992.6875,162734.46875,175650.484375,690023.875,190060.296875,0.067626953125,1.013671875,-0.015625,-7.019042491912842,4.730224132537842,1.7089842557907104,86.66667175292969,217121.0,1.0
15:42:39.575142,159039.375,178892.28125,176982.734375,183974.71875,162707.203125,175637.15625,689946.1875,190050.984375,0.069091796875,1.0146484375,-0.016357421875,-7.171630382537842,4.943847179412842,1.7700194120407104,86.66667175292969,217122.0,1.0
15:42:39.599955,158985.1875,178863.859375,176961.984375,183962.90625,162680.109375,175617.9375,689221.5,190037.484375,0.068359375,1.013427734375,-0.014892578125,-7.293700695037842,5.157470226287842,1.8310545682907104,86.66667175292969,217123.0,1.0
15:42:39.599978,159083.546875,178878.25,176978.34375,183983.03125,162694.59375,175618.375,689119.9375,190042.234375,0.067626953125,1.0126953125,-0.016845703125,-7.293700695037842,5.462646007537842,1.8310545682907104,86.66667175292969,217124.0,1.0
15:42:39.624476,159129.3125,178889.875,176980.9375,183971.671875,162704.34375,175619.359375,689818.5625,190040.0,0.06591796875,1.012939453125,-0.01611328125,-7.324218273162842,5.737304210662842,1.8615721464157104,86.66667175292969,217125.0,1.0
15:42:39.624557,159043.484375,178881.109375,176970.390625,183955.578125,162692.453125,175619.625,689946.625,190039.09375,0.06640625,1.011474609375,-0.017578125,-7.293700695037842,6.042479991912842,1.9531248807907104,86.66667175292969,217126.0,1.0
15:42:39.624583,158984.75,178865.90625,176961.625,183966.046875,162675.640625,175612.203125,689268.3125,190038.75,0.0654296875,1.009033203125,-0.016357421875,-7.232665538787842,6.164550304412842,2.044677495956421,86.66667175292969,217127.0,1.0
15:42:39.626893,159062.53125,178871.546875,176970.65625,183975.875,162683.0625,175605.765625,688994.4375,190036.6875,0.064208984375,1.00634765625,-0.014404296875,-7.202147960662842,6.347655773162842,2.075195074081421,86.66667175292969,217128.0,1.0
15:42:39.629396,159135.390625,178881.734375,176977.1875,183983.46875,162695.21875,175603.625,689710.3125,190036.59375,0.063720703125,1.00390625,-0.016357421875,-7.049560070037842,6.500243663787842,2.044677495956421,86.66667175292969,217129.0,1.0
15:42:39.634472,159073.171875,178881.28125,176974.6875,183965.328125,162694.421875,175611.5,690024.6875,190039.640625,0.062255859375,1.001220703125,-0.01416015625,-6.866454601287842,6.683349132537842,2.105712652206421,86.66667175292969,217130.0,1.0
15:42:39.637125,159004.859375,178866.53125,176967.53125,183986.34375,162681.375,175609.078125,689586.5625,190043.390625,0.06201171875,0.999267578125,-0.01123046875,-6.744384288787842,6.835937023162842,1.9836424589157104,86.66667175292969,217131.0,1.0
15:42:39.640123,159069.5,178880.390625,176981.390625,183995.546875,162690.21875,175614.890625,689285.75,190044.90625,0.0595703125,0.995849609375,-0.013671875,-6.469726085662842,6.866454601287842,2.014159917831421,86.66667175292969,217132.0,1.0
15:42:39.640153,159164.359375,178898.1875,176990.859375,184016.640625,162704.96875,175618.46875,689936.8125,190046.96875,0.0595703125,0.994140625,-0.013427734375,-6.286620616912842,6.958007335662842,1.9531248807907104,86.66667175292969,217133.0,1.0
15:42:39.642058,159112.234375,178899.796875,176982.8125,183982.9375,162701.65625,175626.875,690437.1875,190041.96875,0.059814453125,0.995361328125,-0.01025390625,-5.889892101287842,6.988524913787842,2.014159917831421,86.66667175292969,217134.0,1.0
15:42:39.644395,159026.40625,178881.203125,176973.15625,184003.859375,162685.390625,175623.75,690125.3125,190046.4375,0.057373046875,0.995849609375,-0.0068359375,-5.615233898162842,7.080077648162842,1.8920897245407104,86.66667175292969,217135.0,1.0
15:42:39.647069,159067.265625,178893.265625,176988.546875,184008.15625,162694.6875,175631.171875,689833.9375,190050.546875,0.056640625,0.99560546875,-0.005615234375,-5.401610851287842,7.232665538787842,1.9531248807907104,86.66667175292969,217136.0,1.0
15:42:39.649409,159182.25,178918.03125,177011.875,184045.171875,162721.0625,175639.390625,690248.375,190062.53125,0.058349609375,0.99658203125,-0.006591796875,-5.096435070037842,7.171630382537842,2.044677495956421,86.66667175292969,217137.0,1.0
15:42:39.652007,159162.046875,178931.0,177018.140625,184018.515625,162733.3125,175653.34375,690704.3125,190066.1875,0.057861328125,0.996337890625,-0.0048828125,-4.852294445037842,7.110595226287842,1.8920897245407104,86.66667175292969,217138.0,1.0
15:42:39.654477,159078.53125,178921.515625,177016.171875,184043.296875,162726.875,175659.78125,690486.0,190080.046875,0.05615234375,0.996826171875,-0.006103515625,-4.425048351287842,7.141112804412842,1.8920897245407104,86.66667175292969,217139.0,1.0
15:42:39.656994,159082.5625,178918.65625,177018.046875,184036.140625,162723.390625,175658.703125,690131.5,190076.03125,0.0546875,0.998046875,-0.00634765625,-4.150390148162842,7.171630382537842,1.9531248807907104,86.66667175292969,217140.0,1.0
15:42:39.660089,159189.9375,178933.859375,177032.4375,184065.109375,162740.734375,175658.171875,690355.9375,190081.296875,0.052734375,1.00048828125,-0.00537109375,-3.906249761581421,7.049560070037842,2.014159917831421,86.66667175292969,217141.0,1.0
15:42:39.660112,159179.5625,178936.8125,177026.890625,184028.71875,162743.234375,175657.984375,690808.9375,190074.859375,0.05517578125,1.004150390625,-0.001953125,-3.723144292831421,6.988524913787842,2.075195074081421,86.66667175292969,217142.0,1.0
15:42:39.661875,159071.03125,178906.140625,177002.3125,184025.59375,162716.328125,175643.40625,690667.6875,190070.921875,0.054931640625,1.002685546875,-0.002197265625,-3.540038824081421,6.835937023162842,2.105712652206421,86.66667175292969,217143.0,1.0
15:42:39.664429,159047.78125,178893.453125,176994.265625,184019.5,162703.546875,175634.46875,690228.4375,190066.28125,0.05322265625,1.005615234375,-0.005126953125,-3.417968511581421,6.713866710662842,2.105712652206421,86.66667175292969,217144.0,1.0
15:42:39.666883,159154.359375,178908.640625,177009.828125,184044.625,162719.453125,175632.953125,690327.125,190071.203125,0.052978515625,1.0068359375,-0.002197265625,-3.295898199081421,6.561278820037842,2.044677495956421,86.66667175292969,217145.0,1.0
15:42:39.671179,159176.4375,178918.390625,177010.359375,184020.21875,162728.484375,175635.28125,690846.75,190065.921875,0.050048828125,1.00830078125,-0.000244140625,-3.204345464706421,6.408690929412842,2.014159917831421,86.66667175292969,217146.0,1.0
15:42:39.671214,159074.953125,178896.484375,176990.6875,184005.296875,162709.796875,175628.21875,690849.8125,190061.71875,0.04833984375,1.010498046875,0.0,-3.051757574081421,6.195067882537842,1.8615721464157104,86.66667175292969,217147.0,1.0
15:42:39.681261,159032.84375,178886.109375,176986.3125,184009.765625,162698.53125,175625.625,690262.25,190061.8125,0.04638671875,1.013671875,0.00048828125,-2.960204839706421,6.011962413787842,1.9531248807907104,86.66667175292969,217148.0,1.0
15:42:39.681326,159135.9375,178909.453125,177010.09375,184034.4375,162719.28125,175633.3125,690212.8125,190069.953125,0.045654296875,1.01318359375,0.001220703125,-2.899169683456421,5.706786632537842,1.8615721464157104,86.66667175292969,217149.0,1.0
15:42:39.683756,159182.34375,178917.59375,177010.09375,184021.390625,162726.78125,175631.609375,690826.5625,190062.078125,0.047119140625,1.0166015625,-0.00048828125,-2.746581792831421,5.401610851287842,1.8310545682907104,86.66667175292969,217150.0,1.0
15:42:39.683823,159097.046875,178904.625,176998.203125,184004.84375,162716.953125,175630.453125,690963.4375,190062.34375,0.04541015625,1.017822265625,0.0,-2.655029058456421,5.004882335662842,1.9531248807907104,86.66667175292969,217151.0,1.0
15:42:39.688386,159037.234375,178889.609375,176992.296875,184020.125,162705.421875,175628.484375,690433.0625,190066.640625,0.044921875,1.019287109375,0.001220703125,-2.685546636581421,4.730224132537842,1.9836424589157104,86.66667175292969,217152.0,1.0
15:42:39.698709,159111.078125,178898.546875,177002.9375,184028.0,162713.46875,175628.65625,690220.8125,190065.03125,0.045654296875,1.01953125,-0.002197265625,-2.593993902206421,4.455565929412842,2.105712652206421,86.66667175292969,217153.0,1.0
15:42:39.705152,159191.453125,178917.234375,177012.765625,184038.8125,162729.109375,175632.953125,690808.9375,190066.09375,0.045166015625,1.018798828125,-0.00048828125,-2.502441167831421,4.028319835662842,2.319335699081421,86.66667175292969,217154.0,1.0
15:42:39.705188,159123.234375,178913.921875,177005.078125,184008.875,162724.375,175639.03125,691109.375,190061.625,0.04443359375,1.0205078125,-0.001708984375,-2.502441167831421,3.784179449081421,2.502441167831421,86.66667175292969,217155.0,1.0
15:42:39.724975,159051.4375,178902.65625,177001.78125,184031.671875,162716.78125,175643.0625,690654.4375,190071.734375,0.0419921875,1.019775390625,0.000244140625,-2.441406011581421,3.387450933456421,2.471923589706421,86.66667175292969,217156.0,1.0
15:42:39.725050,159109.109375,178915.171875,177016.34375,184035.875,162726.609375,175648.15625,690319.0625,190074.59375,0.042724609375,1.018310546875,0.000244140625,-2.502441167831421,3.051757574081421,2.624511480331421,86.66667175292969,217157.0,1.0
15:42:39.725075,159208.0,178932.78125,177028.59375,184057.234375,162743.6875,175650.5625,690799.75,190079.15625,0.043212890625,1.018310546875,0.000732421875,-2.410888433456421,2.624511480331421,2.685546636581421,86.66667175292969,217158.0,1.0
15:42:39.725096,159160.34375,178934.03125,177023.140625,184025.046875,162744.046875,175658.25,691224.9375,190078.890625,0.043212890625,1.017578125,0.00048828125,-2.380370855331421,2.319335699081421,2.807616949081421,86.66667175292969,217159.0,1.0
15:42:39.726926,159071.65625,178916.0625,177011.875,184045.25,162726.78125,175655.484375,690846.75,190086.125,0.04443359375,1.018310546875,0.000244140625,-2.380370855331421,1.8310545682907104,2.960204839706421,86.66667175292969,217160.0,1.0
15:42:39.729663,159104.828125,178924.03125,177021.71875,184043.203125,162731.25,175659.953125,690412.6875,190085.59375,0.047119140625,1.019287109375,-0.001220703125,-2.441406011581421,1.4953612089157104,2.899169683456421,86.66667175292969,217161.0,1.0
15:42:39.732062,159216.671875,178944.765625,177040.75,184077.4375,162753.609375,175664.6875,690762.875,190094.53125,0.046630859375,1.01953125,0.003662109375,-2.471923589706421,1.1596678495407104,2.990722417831421,86.66667175292969,217162.0,1.0
15:42:39.734440,159194.140625,178953.4375,177042.28125,184047.21875,162762.546875,175674.171875,691294.0,190094.984375,0.04833984375,1.018310546875,0.003662109375,-2.441406011581421,0.7629393935203552,3.112792730331421,86.66667175292969,217163.0,1.0
15:42:39.746352,159098.296875,178932.078125,177031.015625,184063.046875,162747.0,175668.359375,691025.5625,190100.796875,0.048583984375,1.018310546875,0.002685546875,-2.471923589706421,0.3967284858226776,3.234863042831421,86.66667175292969,217164.0,1.0
15:42:39.746422,159086.578125,178915.359375,177019.203125,184046.234375,162729.015625,175651.109375,690510.6875,190085.765625,0.05029296875,1.020263671875,0.0029296875,-2.685546636581421,-0.03051757626235485,3.356933355331421,86.66667175292969,217165.0,1.0
15:42:39.748271,159195.84375,178930.28125,177034.046875,184075.921875,162744.3125,175649.046875,690722.125,190091.765625,0.049560546875,1.021728515625,0.00341796875,-2.807616949081421,-0.3967284858226776,3.509521245956421,86.66667175292969,217166.0,1.0
15:42:39.750785,159178.84375,178922.0625,177016.4375,184026.125,162736.984375,175639.21875,691289.6875,190070.390625,0.05224609375,1.019775390625,0.00439453125,-2.838134527206421,-0.7019042372703552,3.631591558456421,86.66667175292969,217167.0,1.0
15:42:39.761249,159071.828125,178896.046875,176994.625,184021.828125,162713.828125,175631.4375,691176.6875,190067.0,0.052978515625,1.01904296875,0.00244140625,-2.807616949081421,-0.9460448622703552,3.814697027206421,86.66667175292969,217168.0,1.0
15:42:39.761320,159049.484375,178892.828125,176993.453125,184021.734375,162705.15625,175631.703125,690618.75,190065.296875,0.0546875,1.02001953125,0.0029296875,-2.777099370956421,-1.1901854276657104,4.058837413787842,86.66667175292969,217169.0,1.0
15:42:39.763805,159153.71875,178908.203125,177008.296875,184044.546875,162719.09375,175631.875,690686.3125,190069.859375,0.057861328125,1.01904296875,0.0029296875,-3.021239995956421,-1.3427733182907104,4.028319835662842,86.66667175292969,217170.0,1.0
15:42:39.763870,159184.125,178919.546875,177010.984375,184023.34375,162729.640625,175635.1875,691270.625,190065.390625,0.060302734375,1.017333984375,0.0048828125,-3.234863042831421,-1.6784666776657104,4.058837413787842,86.66667175292969,217171.0,1.0
15:42:39.769433,159087.5625,178899.265625,176995.25,184011.90625,162715.34375,175629.828125,691332.1875,190064.21875,0.06005859375,1.017333984375,0.002685546875,-3.356933355331421,-1.9226073026657104,4.180907726287842,86.66667175292969,217172.0,1.0
15:42:39.775712,159038.5625,178885.671875,176988.90625,184015.3125,162703.359375,175625.796875,690732.3125,190064.578125,0.06201171875,1.016845703125,0.004150390625,-3.448486089706421,-2.136230230331421,4.272460460662842,86.66667175292969,217173.0,1.0
15:42:39.782574,159134.859375,178906.5,177007.765625,184033.453125,162717.578125,175632.421875,690678.4375,190069.046875,0.060302734375,1.015625,0.00146484375,-3.540038824081421,-2.441406011581421,4.119872570037842,86.66667175292969,217174.0,1.0
15:42:39.782648,159197.453125,178928.140625,177019.296875,184034.96875,162736.4375,175641.453125,691227.375,190071.90625,0.0615234375,1.017578125,0.002685546875,-3.570556402206421,-2.655029058456421,3.936767339706421,86.66667175292969,217175.0,1.0
15:42:39.789707,159115.546875,178919.640625,177012.0625,184016.90625,162733.84375,175646.546875,691472.0,190074.421875,0.06201171875,1.014892578125,0.003662109375,-3.723144292831421,-2.746581792831421,3.936767339706421,86.66667175292969,217176.0,1.0
15:42:39.797485,159047.25,178902.203125,177003.109375,184029.15625,162719.640625,175642.078125,690868.5625,190076.46875,0.063232421875,1.01318359375,0.001708984375,-3.753661870956421,-2.716064214706421,4.028319835662842,86.66667175292969,217177.0,1.0
15:42:39.797565,159130.84375,178924.734375,177026.890625,184047.765625,162738.40625,175653.0625,690689.125,190087.203125,0.06298828125,1.01025390625,0.005615234375,-3.845214605331421,-2.807616949081421,3.845214605331421,86.66667175292969,217178.0,1.0
15:42:39.800189,159206.390625,178933.765625,177030.828125,184055.53125,162749.5,175650.390625,691153.8125,190085.328125,0.064697265625,1.00830078125,0.001708984375,-3.784179449081421,-3.021239995956421,3.662109136581421,86.66667175292969,217179.0,1.0
15:42:39.800254,159139.78125,178929.484375,177023.859375,184024.6875,162745.46875,175655.75,691540.3125,190082.734375,0.06787109375,1.009033203125,0.002685546875,-3.753661870956421,-3.021239995956421,3.692626714706421,86.66667175292969,217180.0,1.0
15:42:39.811880,159061.546875,178914.546875,177016.96875,184042.390625,162731.609375,175656.921875,690992.875,190087.734375,0.07080078125,1.007080078125,0.001220703125,-3.723144292831421,-3.082275152206421,3.479003667831421,86.66667175292969,217181.0,1.0
15:42:39.814968,159120.015625,178933.859375,177034.59375,184048.75,162743.859375,175667.640625,690678.6875,190091.21875,0.0712890625,1.006103515625,0.00244140625,-3.692626714706421,-2.990722417831421,3.265380620956421,86.66667175292969,217182.0,1.0
15:42:39.815038,159222.921875,178953.34375,177051.65625,184076.453125,162764.34375,175671.9375,691053.1875,190097.578125,0.0732421875,1.005126953125,0.0009765625,-3.479003667831421,-3.082275152206421,3.143310308456421,86.66667175292969,217183.0,1.0
15:42:39.830021,159180.015625,178956.921875,177049.515625,184043.734375,162767.015625,175678.375,691540.5,190096.234375,0.0732421875,1.002197265625,-0.001708984375,-3.417968511581421,-3.051757574081421,3.021239995956421,86.66667175292969,217184.0,1.0
15:42:39.830088,159089.53125,178938.59375,177038.34375,184063.40625,162749.671875,175675.59375,691104.0,190102.84375,0.076171875,1.00341796875,-0.002685546875,-3.295898199081421,-2.990722417831421,2.868652105331421,86.66667175292969,217185.0,1.0
15:42:39.832126,159112.78125,178943.421875,177044.25,184059.296875,162748.515625,175677.03125,690661.6875,190101.0625,0.075927734375,1.004638671875,-0.000244140625,-3.173827886581421,-2.929687261581421,2.838134527206421,86.66667175292969,217186.0,1.0
15:42:39.834521,159221.140625,178960.5,177056.84375,184086.390625,162764.703125,175678.109375,690935.75,190106.421875,0.075927734375,1.004150390625,-0.00146484375,-3.051757574081421,-2.807616949081421,2.655029058456421,86.66667175292969,217187.0,1.0
15:42:39.836942,159189.671875,178955.859375,177042.1875,184041.765625,162757.90625,175674.078125,691489.3125,190093.640625,0.07421875,1.005126953125,-0.001953125,-2.929687261581421,-2.838134527206421,2.471923589706421,86.66667175292969,217188.0,1.0
15:42:39.847501,159078.0,178923.125,177016.4375,184042.578125,162726.875,175657.71875,691199.375,190087.5625,0.075927734375,1.006103515625,-0.00390625,-2.838134527206421,-2.807616949081421,2.471923589706421,86.66667175292969,217189.0,1.0
15:42:39.847566,159060.03125,178905.515625,177004.8125,184027.828125,162709.4375,175642.078125,690657.125,190075.484375,0.074951171875,1.0068359375,-0.00390625,-2.685546636581421,-2.624511480331421,2.258300542831421,86.66667175292969,217190.0,1.0
15:42:39.850111,159164.8125,178914.1875,177014.828125,184053.390625,162720.34375,175635.546875,690823.4375,190077.546875,0.075927734375,1.008544921875,-0.0068359375,-2.685546636581421,-2.532958745956421,2.227782964706421,86.66667175292969,217191.0,1.0
15:42:39.850180,159162.84375,178914.90625,177003.390625,184014.5,162717.484375,175633.125,691403.6875,190062.703125,0.07763671875,1.008544921875,-0.004638671875,-2.624511480331421,-2.349853277206421,2.136230230331421,86.66667175292969,217192.0,1.0
15:42:39.876919,159059.3125,178893.453125,176982.546875,184009.671875,162695.578125,175628.9375,691305.5,190059.484375,0.080810546875,1.008544921875,-0.003662109375,-2.624511480331421,-2.258300542831421,1.8310545682907104,86.66667175292969,217193.0,1.0
15:42:39.879460,159027.578125,178882.71875,176974.5,184004.75,162681.453125,175623.125,690715.0625,190053.859375,0.081298828125,1.010498046875,-0.005615234375,-2.532958745956421,-2.075195074081421,1.8310545682907104,86.66667175292969,217194.0,1.0
15:42:39.881845,159129.5,178897.375,176989.703125,184023.984375,162696.65625,175623.125,690760.125,190055.734375,0.08251953125,1.01123046875,-0.003173828125,-2.441406011581421,-1.8005369901657104,1.5869139432907104,86.66667175292969,217195.0,1.0
15:42:39.884613,159174.640625,178918.296875,177001.78125,184014.859375,162718.375,175635.71875,691339.875,190059.75,0.08251953125,1.0107421875,-0.0029296875,-2.471923589706421,-1.5869139432907104,1.3427733182907104,86.66667175292969,217196.0,1.0
15:42:39.887020,159091.046875,178911.0625,176999.09375,184010.03125,162718.65625,175642.515625,691433.75,190067.625,0.08251953125,1.013671875,-0.00146484375,-2.502441167831421,-1.3732908964157104,1.2207030057907104,86.66667175292969,217197.0,1.0
15:42:39.891444,159049.828125,178904.171875,177003.109375,184024.25,162717.40625,175646.546875,690818.3125,190075.3125,0.080322265625,1.014404296875,-0.00146484375,-2.532958745956421,-1.2207030057907104,1.0986326932907104,86.66667175292969,217198.0,1.0
15:42:39.891938,159152.5625,178929.484375,177031.546875,184054.46875,162742.078125,175657.625,690729.8125,190091.5,0.081787109375,1.01318359375,0.002197265625,-2.532958745956421,-0.9460448622703552,1.0375975370407104,86.66667175292969,217199.0,1.0
15:42:39.894803,159230.34375,178957.90625,177052.828125,184068.6875,162768.359375,175672.375,691258.1875,190105.265625,0.0830078125,1.01220703125,0.00244140625,-2.471923589706421,-0.6408690810203552,0.8850097060203552,86.66667175292969,217200.0,1.0
15:42:39.896932,159145.046875,178943.515625,177038.515625,184040.609375,162757.28125,175669.078125,691531.375,190099.625,0.083251953125,1.01025390625,0.000244140625,-2.532958745956421,-0.3356933295726776,0.7934569716453552,86.66667175292969,217201.0,1.0
15:42:39.901971,159073.703125,178924.03125,177027.703125,184055.453125,162739.125,175662.28125,690918.5,190100.4375,0.080810546875,1.009765625,0.00146484375,-2.563476324081421,-0.1220703050494194,0.5187987685203552,86.66667175292969,217202.0,1.0
15:42:39.905066,159144.15625,178940.125,177041.65625,184063.046875,162747.890625,175667.828125,690701.8125,190098.734375,0.080322265625,1.0107421875,0.0,-2.471923589706421,0.03051757626235485,0.3662109076976776,86.66667175292969,217203.0,1.0
15:42:39.905133,159227.484375,178957.46875,177051.03125,184073.859375,162765.140625,175672.46875,691148.3125,190099.453125,0.079345703125,1.009521484375,-0.00146484375,-2.532958745956421,0.2746581733226776,0.3356933295726776,86.66667175292969,217204.0,1.0
15:42:39.907026,159162.75,178957.015625,177043.53125,184038.109375,162762.640625,175680.15625,691566.6875,190095.515625,0.077392578125,1.010986328125,-0.00244140625,-2.471923589706421,0.4882812201976776,0.2441406100988388,86.66667175292969,217205.0,1.0
15:42:39.909562,159079.421875,178939.40625,177034.859375,184056.4375,162747.796875,175677.921875,691028.25,190101.0625,0.078125,1.011474609375,-0.003662109375,-2.532958745956421,0.5798339247703552,0.1525878757238388,86.66667175292969,217206.0,1.0
15:42:39.912509,159130.84375,178954.421875,177052.28125,184062.25,162759.59375,175684.984375,690689.5625,190105.625,0.076904296875,1.00927734375,0.00244140625,-2.532958745956421,0.8239745497703552,0.03051757626235485,86.66667175292969,217207.0,1.0
15:42:39.912577,159241.796875,178981.953125,177075.453125,184096.3125,162785.890625,175694.734375,691040.75,190118.40625,0.07666015625,1.0068359375,0.00341796875,-2.532958745956421,0.9460448622703552,-0.0610351525247097,86.66667175292969,217208.0,1.0
15:42:39.923380,159199.40625,178981.953125,177069.984375,184059.828125,162785.34375,175699.828125,691547.1875,190114.921875,0.0751953125,1.009033203125,0.002685546875,-2.471923589706421,1.1291502714157104,-0.2136230319738388,86.66667175292969,217209.0,1.0
15:42:39.926210,159105.359375,178961.03125,177057.46875,184075.921875,162768.359375,175695.359375,691127.6875,190121.09375,0.072998046875,1.0107421875,0.003173828125,-2.410888433456421,1.1901854276657104,-0.3967284858226776,86.66667175292969,217210.0,1.0
15:42:39.926267,159113.140625,178953.96875,177054.53125,184063.9375,162760.046875,175687.765625,690667.9375,190112.140625,0.072021484375,1.010009765625,-0.0009765625,-2.319335699081421,1.2207030057907104,-0.3356933295726776,86.66667175292969,217211.0,1.0
15:42:39.931862,159211.484375,178961.125,177058.453125,184084.140625,162767.5625,175680.96875,690922.5625,190110.0,0.0712890625,1.01123046875,0.0029296875,-2.319335699081421,1.3122557401657104,-0.5187987685203552,86.66667175292969,217212.0,1.0
15:42:39.973763,159176.703125,178948.515625,177036.015625,184031.125,162751.828125,175668.984375,691477.6875,190088.0,0.070068359375,1.010986328125,0.002197265625,-2.288818120956421,1.3732908964157104,-0.7019042372703552,86.66667175292969,217213.0,1.0
15:42:39.973791,159062.796875,178913.828125,177006.328125,184023.53125,162718.203125,175652.890625,691228.4375,190075.484375,0.068359375,1.01171875,0.001708984375,-2.227782964706421,1.4038084745407104,-0.9155272841453552,86.66667175292969,217214.0,1.0
15:42:39.987425,159044.921875,178901.84375,176997.484375,184006.8125,162701.9375,175643.40625,690679.5625,190061.984375,0.065185546875,1.014892578125,0.000732421875,-2.258300542831421,1.3732908964157104,-1.0375975370407104,86.66667175292969,217215.0,1.0
15:42:39.987442,159148.265625,178912.765625,177008.65625,184027.375,162713.203125,175636.53125,690808.0625,190060.5625,0.064697265625,1.013916015625,0.00341796875,-2.136230230331421,1.3122557401657104,-1.0681151151657104,86.66667175292969,217216.0,1.0
15:42:39.989530,159157.21875,178918.21875,177009.640625,184001.453125,162722.671875,175637.953125,691376.125,190056.796875,0.063232421875,1.0166015625,0.005615234375,-2.166747808456421,1.3732908964157104,-1.0681151151657104,86.66667175292969,217217.0,1.0
15:42:39.991980,159056.625,178897.734375,176995.609375,184000.90625,162709.0,175634.921875,691307.8125,190059.3125,0.06201171875,1.01611328125,0.0068359375,-2.197265386581421,1.3122557401657104,-1.0986326932907104,86.66667175292969,217218.0,1.0
15:42:39.994430,159020.328125,178884.859375,176986.03125,183997.0625,162691.03125,175625.984375,690694.6875,190052.25,0.062255859375,1.015380859375,0.005126953125,-2.319335699081421,1.2512205839157104,-1.0681151151657104,86.66667175292969,217219.0,1.0
15:42:39.996861,159123.6875,178901.765625,177003.390625,184019.6875,162704.4375,175626.78125,690719.0,190056.171875,0.060546875,1.013916015625,0.0048828125,-2.258300542831421,1.0986326932907104,-0.9765624403953552,86.66667175292969,217220.0,1.0
15:42:39.999404,159167.046875,178916.78125,177012.0625,184011.90625,162721.15625,175632.78125,691274.25,190058.59375,0.059814453125,1.01318359375,0.0087890625,-2.288818120956421,0.9155272841453552,-1.0375975370407104,86.66667175292969,217221.0,1.0
15:42:40.004523,159081.3125,178906.328125,177005.265625,184004.390625,162715.609375,175634.828125,691380.6875,190064.765625,0.05908203125,1.012939453125,0.008544921875,-2.319335699081421,0.8239745497703552,-1.0681151151657104,86.66667175292969,217222.0,1.0
15:42:40.006839,159035.4375,178900.328125,177006.6875,184019.78125,162710.6875,175637.15625,690765.5,190072.8125,0.055419921875,1.013671875,0.00830078125,-2.441406011581421,0.6103515028953552,-0.9765624403953552,86.66667175292969,217223.0,1.0
15:42:40.009629,159138.265625,178933.6875,177041.296875,184048.5625,162742.875,175656.46875,690656.9375,190090.953125,0.057861328125,1.016357421875,0.0068359375,-2.410888433456421,0.3967284858226776,-0.9765624403953552,86.66667175292969,217224.0,1.0
15:42:40.011836,159209.421875,178952.359375,177054.4375,184055.53125,162764.25,175662.90625,691161.3125,190095.34375,0.05712890625,1.015380859375,0.007568359375,-2.349853277206421,0.2136230319738388,-0.8850097060203552,86.66667175292969,217225.0,1.0
15:42:40.014426,159131.546875,178941.1875,177043.96875,184031.671875,162753.703125,175661.5625,691429.625,190093.015625,0.05810546875,1.014404296875,0.007080078125,-2.319335699081421,0.0915527269244194,-0.7324218153953552,86.66667175292969,217226.0,1.0
15:42:40.016908,159060.390625,178923.3125,177035.296875,184050.171875,162738.046875,175657.265625,690851.3125,190096.40625,0.05810546875,1.0146484375,0.004150390625,-2.380370855331421,-0.0610351525247097,-0.5493163466453552,86.66667175292969,217227.0,1.0
15:42:40.019415,159127.078125,178937.703125,177049.421875,184055.890625,162749.140625,175664.25,690606.5,190098.109375,0.05810546875,1.01513671875,0.004638671875,-2.380370855331421,-0.2441406100988388,-0.4272460639476776,86.66667175292969,217228.0,1.0
15:42:40.022445,159219.625,178959.609375,177062.75,184072.078125,162765.765625,175671.84375,691050.8125,190101.859375,0.057861328125,1.013671875,0.005859375,-2.441406011581421,-0.4882812201976776,-0.1831054538488388,86.66667175292969,217229.0,1.0
15:42:40.022475,159151.21875,178948.15625,177045.3125,184027.375,162750.296875,175667.015625,691459.125,190086.84375,0.058837890625,1.0107421875,0.0048828125,-2.288818120956421,-0.5187987685203552,0.0,86.66667175292969,217230.0,1.0
15:42:40.024430,159063.875,178924.375,177032.703125,184048.390625,162733.9375,175659.328125,690968.1875,190094.171875,0.057861328125,1.01123046875,0.003173828125,-2.075195074081421,-0.6713866591453552,0.1525878757238388,86.66667175292969,217231.0,1.0
15:42:40.026907,159107.6875,178935.375,177045.9375,184054.28125,162744.484375,175667.203125,690597.5,190100.34375,0.05810546875,1.010986328125,0.005615234375,-2.075195074081421,-0.8850097060203552,0.2746581733226776,86.66667175292969,217232.0,1.0
15:42:40.029990,159210.59375,178952.015625,177057.828125,184080.125,162761.484375,175668.359375,690936.4375,190105.0,0.05712890625,1.009033203125,0.004638671875,-2.075195074081421,-1.0070799589157104,0.4577636420726776,86.66667175292969,217233.0,1.0
15:42:40.030026,159175.984375,178956.84375,177052.375,184044.453125,162761.484375,175674.34375,691450.6875,190100.875,0.055908203125,1.00830078125,0.003173828125,-1.9836424589157104,-1.2207030057907104,0.5187987685203552,86.66667175292969,217234.0,1.0
15:42:40.032434,159078.53125,178931.4375,177037.0,184057.0625,162740.640625,175665.3125,691072.25,190101.6875,0.053955078125,1.00927734375,0.00244140625,-1.8310545682907104,-1.3732908964157104,0.6713866591453552,86.66667175292969,217235.0,1.0
15:42:40.032461,159092.296875,178935.296875,177044.25,184053.75,162744.046875,175670.140625,690599.3125,190102.578125,0.05615234375,1.008056640625,0.00341796875,-1.8005369901657104,-1.4953612089157104,0.6713866591453552,86.66667175292969,217236.0,1.0
15:42:40.034404,159197.09375,178948.703125,177054.25,184078.25,162758.171875,175668.09375,690842.3125,190104.8125,0.0556640625,1.01025390625,0.005615234375,-1.6479490995407104,-1.7089842557907104,0.6713866591453552,86.66667175292969,217237.0,1.0
15:42:40.038703,159181.0,178949.953125,177046.65625,184040.515625,162757.453125,175669.609375,691400.0,190095.609375,0.05810546875,1.012451171875,0.004638671875,-1.5869139432907104,-1.9226073026657104,0.6713866591453552,86.66667175292969,217238.0,1.0
15:42:40.038733,159081.75,178925.546875,177030.65625,184046.859375,162739.578125,175663.890625,691193.5,190096.765625,0.0595703125,1.01220703125,0.004638671875,-1.5258787870407104,-1.9836424589157104,0.7934569716453552,86.66667175292969,217239.0,1.0
15:42:40.048220,159067.0,178918.5625,177029.125,184041.859375,162732.6875,175660.84375,690634.3125,190092.65625,0.062744140625,1.010986328125,0.004638671875,-1.4953612089157104,-2.197265386581421,0.9765624403953552,86.66667175292969,217240.0,1.0
15:42:40.051219,159175.359375,178936.8125,177045.9375,184069.75,162750.921875,175662.546875,690736.875,190097.65625,0.0634765625,1.010498046875,0.00244140625,-1.4038084745407104,-2.288818120956421,1.0681151151657104,86.66667175292969,217241.0,1.0
15:42:40.051256,159189.40625,178941.90625,177040.671875,184040.34375,162752.625,175661.828125,691305.0,190089.4375,0.06494140625,1.010986328125,0.00537109375,-1.4038084745407104,-2.380370855331421,1.1901854276657104,86.66667175292969,217242.0,1.0
15:42:40.053137,159089.890625,178919.015625,177022.0625,184032.296875,162732.59375,175652.625,691274.5625,190088.0,0.06787109375,1.01025390625,0.004150390625,-1.3122557401657104,-2.380370855331421,1.2817381620407104,86.66667175292969,217243.0,1.0
15:42:40.064939,159054.65625,178909.453125,177019.828125,184034.34375,162722.140625,175648.421875,690673.9375,190087.203125,0.071533203125,1.009033203125,0.005126953125,-1.2817381620407104,-2.288818120956421,1.4038084745407104,86.66667175292969,217244.0,1.0
15:42:40.064967,159152.828125,178923.484375,177035.125,184051.78125,162736.078125,175647.96875,690649.6875,190087.375,0.071533203125,1.008544921875,0.005859375,-1.2512205839157104,-2.349853277206421,1.4953612089157104,86.66667175292969,217245.0,1.0
15:42:40.067466,159196.640625,178935.46875,177038.4375,184038.1875,162746.359375,175649.140625,691191.625,190082.28125,0.071533203125,1.0087890625,0.004150390625,-1.1901854276657104,-2.136230230331421,1.5869139432907104,86.66667175292969,217246.0,1.0
15:42:40.067492,159112.953125,178926.609375,177030.109375,184027.546875,162738.40625,175651.1875,691338.0,190086.03125,0.074951171875,1.0078125,0.002197265625,-1.0986326932907104,-2.044677495956421,1.5563963651657104,86.66667175292969,217247.0,1.0
15:42:40.076879,159060.75,178916.6875,177029.125,184044.890625,162731.078125,175651.90625,690736.0625,190093.109375,0.074462890625,1.0078125,-0.000244140625,-0.9460448622703552,-1.9531248807907104,1.6784666776657104,86.66667175292969,217248.0,1.0
15:42:40.079969,159151.046875,178941.28125,177054.703125,184065.375,162753.4375,175665.3125,690585.6875,190102.84375,0.07568359375,1.009521484375,-0.000244140625,-0.9765624403953552,-1.8310545682907104,1.8310545682907104,86.66667175292969,217249.0,1.0
15:42:40.080003,159224.890625,178962.734375,177069.1875,184074.765625,162772.75,175674.703125,691086.125,190107.046875,0.078857421875,1.010009765625,0.002197265625,-0.8239745497703552,-1.6784666776657104,1.9531248807907104,86.66667175292969,217250.0,1.0
15:42:40.083113,159148.71875,178953.96875,177057.65625,184044.0,162761.75,175675.515625,691374.4375,190102.21875,0.079345703125,1.008544921875,0.002197265625,-0.7629393935203552,-1.4953612089157104,1.9226073026657104,86.66667175292969,217251.0,1.0
15:42:40.098769,159071.03125,178933.40625,177043.890625,184056.875,162741.1875,175669.875,690823.25,190103.296875,0.07958984375,1.0078125,0.00341796875,-0.7629393935203552,-1.2817381620407104,1.9531248807907104,86.66667175292969,217252.0,1.0
15:42:40.098822,159132.171875,178943.15625,177054.53125,184057.953125,162747.625,175674.53125,690537.3125,190102.765625,0.07958984375,1.008056640625,0.00390625,-0.7324218153953552,-1.0681151151657104,1.9836424589157104,86.66667175292969,217253.0,1.0
15:42:40.100685,159219.34375,178952.453125,177059.890625,184070.734375,162758.703125,175671.3125,690961.75,190101.78125,0.079833984375,1.00732421875,-0.000244140625,-0.7019042372703552,-0.9155272841453552,1.9836424589157104,86.66667175292969,217254.0,1.0
15:42:40.103155,159161.0625,178947.09375,177049.421875,184033.359375,162752.890625,175673.453125,691381.125,190093.90625,0.07958984375,1.006591796875,0.0,-0.7324218153953552,-0.6408690810203552,1.9531248807907104,86.66667175292969,217255.0,1.0
15:42:40.109448,159074.15625,178927.328125,177036.640625,184050.171875,162734.03125,175669.875,690931.25,190096.140625,0.080810546875,1.005859375,0.001708984375,-0.6713866591453552,-0.4882812201976776,1.9531248807907104,86.66667175292969,217256.0,1.0
15:42:40.112515,159107.59375,178933.140625,177042.1875,184045.25,162734.203125,175671.390625,690530.875,190092.390625,0.081298828125,1.005615234375,0.001953125,-0.5187987685203552,-0.3051757514476776,1.9226073026657104,86.66667175292969,217257.0,1.0
15:42:40.112581,159207.640625,178943.515625,177047.640625,184064.125,162742.25,175665.234375,690876.4375,190089.34375,0.078369140625,1.006103515625,0.003662109375,-0.4577636420726776,-0.1525878757238388,1.8005369901657104,86.66667175292969,217258.0,1.0
15:42:40.119636,159165.890625,178936.71875,177031.09375,184017.8125,162730.625,175659.953125,691372.9375,190075.40625,0.0791015625,1.007080078125,0.00341796875,-0.4577636420726776,0.0,1.6479490995407104,86.66667175292969,217259.0,1.0
15:42:40.132480,159063.78125,178908.640625,177010.09375,184027.640625,162704.703125,175647.796875,691043.625,190075.046875,0.07958984375,1.008056640625,0.001708984375,-0.3356933295726776,0.1831054538488388,1.5869139432907104,86.66667175292969,217260.0,1.0
15:42:40.132500,159065.03125,178903.1875,177006.515625,184017.0,162695.3125,175640.375,690542.25,190068.15625,0.076904296875,1.0087890625,0.00244140625,-0.1831054538488388,0.3051757514476776,1.4038084745407104,86.66667175292969,217261.0,1.0
15:42:40.135097,159172.140625,178919.734375,177020.375,184042.3125,162710.78125,175639.125,690760.6875,190072.359375,0.0771484375,1.006103515625,0.00390625,-0.1831054538488388,0.3967284858226776,1.2207030057907104,86.66667175292969,217262.0,1.0
15:42:40.135143,159149.171875,178911.953125,177004.28125,183994.46875,162703.625,175630.625,691303.5625,190054.828125,0.076171875,1.0078125,0.00390625,-0.1220703050494194,0.6408690810203552,1.0986326932907104,86.66667175292969,217263.0,1.0
15:42:40.145067,159051.71875,178894.515625,176993.640625,184001.625,162691.734375,175630.71875,691142.4375,190061.265625,0.0771484375,1.007568359375,0.00439453125,-0.1831054538488388,0.7629393935203552,1.1291502714157104,86.66667175292969,217264.0,1.0
15:42:40.145104,159043.84375,178897.828125,177002.84375,184009.046875,162695.578125,175637.875,690581.3125,190068.875,0.075439453125,1.00830078125,0.00439453125,-0.1220703050494194,0.8544921278953552,1.0681151151657104,86.66667175292969,217265.0,1.0
15:42:40.146920,159156.3125,178917.765625,177023.5,184038.8125,162716.859375,175642.078125,690679.3125,190075.9375,0.075439453125,1.0068359375,0.0009765625,-0.1525878757238388,1.0070799589157104,1.0375975370407104,86.66667175292969,217266.0,1.0
15:42:40.157459,159176.703125,178923.75,177023.5,184016.015625,162725.171875,175644.578125,691234.6875,190070.21875,0.07470703125,1.005615234375,-0.000244140625,-0.1220703050494194,0.9460448622703552,0.7629393935203552,86.66667175292969,217267.0,1.0
15:42:40.157495,159082.828125,178909.09375,177013.578125,184013.609375,162715.34375,175644.75,691241.0625,190075.484375,0.07373046875,1.00341796875,-0.00146484375,0.0,1.0681151151657104,0.7019042372703552,86.66667175292969,217268.0,1.0
15:42:40.165114,159045.359375,178904.359375,177014.203125,184024.25,162710.34375,175647.265625,690647.375,190080.234375,0.0732421875,1.005126953125,0.001220703125,0.1525878757238388,1.1901854276657104,0.6408690810203552,86.66667175292969,217269.0,1.0
15:42:40.165192,159145.140625,178924.734375,177034.859375,184048.5625,162729.46875,175651.734375,690596.8125,190087.46875,0.072265625,1.00634765625,-0.000244140625,0.1831054538488388,1.2512205839157104,0.6713866591453552,86.66667175292969,217270.0,1.0
15:42:40.167513,159199.40625,178940.921875,177044.0625,184045.875,162747.0,175657.359375,691139.8125,190090.328125,0.0732421875,1.004150390625,-0.000732421875,0.2746581733226776,1.2207030057907104,0.7019042372703552,86.66667175292969,217271.0,1.0
15:42:40.167550,159118.953125,178935.015625,177038.25,184031.578125,162743.15625,175662.71875,691315.875,190096.046875,0.07373046875,1.005126953125,-0.00048828125,0.3051757514476776,1.2512205839157104,0.7324218153953552,86.66667175292969,217272.0,1.0
15:42:40.176958,159063.609375,178924.296875,177037.53125,184048.65625,162736.625,175663.625,690734.8125,190101.953125,0.073974609375,1.00732421875,-0.001953125,0.3662109076976776,1.1901854276657104,0.8239745497703552,86.66667175292969,217273.0,1.0
15:42:40.181453,159145.234375,178941.640625,177057.390625,184061.53125,162754.5,175670.140625,690556.375,190106.6875,0.073486328125,1.007080078125,-0.0029296875,0.4272460639476776,1.2817381620407104,0.8239745497703552,86.66667175292969,217274.0,1.0
15:42:40.181525,159222.296875,178960.0625,177067.671875,184068.6875,162769.875,175675.15625,691047.375,190108.84375,0.074951171875,1.00830078125,-0.001220703125,0.4272460639476776,1.1901854276657104,0.9460448622703552,86.66667175292969,217275.0,1.0
15:42:40.195670,159149.609375,178953.34375,177056.9375,184038.8125,162761.75,175678.8125,691387.25,190105.53125,0.07373046875,1.01123046875,-0.001953125,0.5187987685203552,1.1901854276657104,0.9460448622703552,86.66667175292969,217276.0,1.0
15:42:40.199406,159070.125,178933.765625,177045.3125,184057.59375,162744.9375,175673.640625,690857.25,190109.90625,0.072998046875,1.01171875,-0.001220703125,0.5798339247703552,1.1901854276657104,0.8544921278953552,86.66667175292969,217277.0,1.0
15:42:40.199460,159125.921875,178941.90625,177055.6875,184060.8125,162750.390625,175674.53125,690570.5625,190108.65625,0.0693359375,1.013671875,0.000244140625,0.4882812201976776,1.1596678495407104,0.9155272841453552,86.66667175292969,217278.0,1.0
15:42:40.199485,159223.015625,178959.703125,177068.296875,184084.421875,162767.5625,175677.484375,691014.125,190112.0625,0.06982421875,1.0146484375,0.0009765625,0.4882812201976776,1.1291502714157104,0.9155272841453552,86.66667175292969,217279.0,1.0
15:42:40.201938,159172.0625,178960.6875,177061.9375,184048.65625,162764.96875,175683.921875,691472.5,190107.765625,0.068359375,1.014892578125,0.001220703125,0.4577636420726776,1.0986326932907104,0.8850097060203552,86.66667175292969,217280.0,1.0
15:42:40.204442,159080.765625,178938.78125,177048.890625,184064.75,162745.5625,175677.75,691029.0625,190112.328125,0.0654296875,1.0166015625,0.000244140625,0.3356933295726776,1.0681151151657104,0.7629393935203552,86.66667175292969,217281.0,1.0
15:42:40.215653,159112.0625,178946.375,177058.28125,184065.375,162749.671875,175681.5,690622.0625,190112.59375,0.065673828125,1.01708984375,0.00146484375,0.1831054538488388,1.0070799589157104,0.7019042372703552,86.66667175292969,217282.0,1.0
15:42:40.220613,159214.703125,178957.28125,177070.34375,184092.015625,162763.984375,175677.203125,690914.5625,190115.359375,0.06591796875,1.017578125,0.001220703125,0.1525878757238388,1.0070799589157104,0.6103515028953552,86.66667175292969,217283.0,1.0
15:42:40.220688,159184.65625,178956.65625,177061.046875,184051.515625,162760.765625,175676.3125,691472.25,190108.21875,0.067626953125,1.01806640625,0.00048828125,0.03051757626235485,0.9765624403953552,0.5187987685203552,86.66667175292969,217284.0,1.0
15:42:40.220717,159082.640625,178929.390625,177038.078125,184055.09375,162731.703125,175662.546875,691167.625,190103.296875,0.06787109375,1.018310546875,-0.003173828125,0.0610351525247097,0.7934569716453552,0.4577636420726776,86.66667175292969,217285.0,1.0
15:42:40.225298,159069.421875,178912.140625,177023.859375,184035.78125,162710.515625,175646.1875,690655.0,190086.21875,0.069091796875,1.0185546875,-0.00146484375,-0.03051757626235485,0.7324218153953552,0.5493163466453552,86.66667175292969,217286.0,1.0
15:42:40.230739,159167.046875,178917.59375,177026.625,184053.65625,162716.0625,175637.609375,690840.875,190082.1875,0.070068359375,1.018310546875,-0.00146484375,-0.1525878757238388,0.7019042372703552,0.4272460639476776,86.66667175292969,217287.0,1.0
15:42:40.246386,159156.234375,178918.484375,177013.9375,184011.375,162712.390625,175637.15625,691429.25,190068.25,0.069091796875,1.018310546875,-0.005615234375,-0.1831054538488388,0.6408690810203552,0.3051757514476776,86.66667175292969,217288.0,1.0
15:42:40.246475,159047.6875,178893.0,176990.421875,184005.921875,162687.453125,175628.21875,691289.875,190063.515625,0.070068359375,1.017333984375,-0.001708984375,-0.3356933295726776,0.6408690810203552,0.3662109076976776,86.66667175292969,217289.0,1.0
15:42:40.249071,159027.578125,178890.9375,176993.28125,184007.890625,162683.96875,175630.984375,690712.75,190065.828125,0.07080078125,1.015625,-0.0068359375,-0.4272460639476776,0.6103515028953552,0.4577636420726776,86.66667175292969,217290.0,1.0
15:42:40.249166,159137.1875,178913.109375,177015.546875,184037.203125,162707.296875,175638.9375,690786.0625,190075.21875,0.0712890625,1.01416015625,-0.005126953125,-0.5187987685203552,0.5493163466453552,0.2441406100988388,86.66667175292969,217291.0,1.0
15:42:40.252005,159168.921875,178928.9375,177022.609375,184021.921875,162723.484375,175647.609375,691368.75,190075.578125,0.071533203125,1.013427734375,-0.0048828125,-0.5798339247703552,0.5187987685203552,0.2746581733226776,86.66667175292969,217292.0,1.0
15:42:40.264948,159073.890625,178912.40625,177008.65625,184011.546875,162707.828125,175642.34375,691416.4375,190074.6875,0.070556640625,1.01318359375,-0.005615234375,-0.6103515028953552,0.4272460639476776,0.3967284858226776,86.66667175292969,217293.0,1.0
15:42:40.264970,159036.25,178906.59375,177011.34375,184025.59375,162702.734375,175643.953125,690803.5,190082.015625,0.070556640625,1.012939453125,-0.005615234375,-0.5798339247703552,0.3967284858226776,0.4577636420726776,86.66667175292969,217294.0,1.0
15:42:40.267435,159133.078125,178924.65625,177031.453125,184045.171875,162719.09375,175647.53125,690734.1875,190086.484375,0.07080078125,1.012939453125,-0.004150390625,-0.5493163466453552,0.2746581733226776,0.3967284858226776,86.66667175292969,217295.0,1.0
15:42:40.267466,159189.40625,178938.234375,177036.640625,184040.609375,162732.859375,175648.875,691264.1875,190085.40625,0.069580078125,1.013427734375,-0.00341796875,-0.6103515028953552,0.3662109076976776,0.4272460639476776,86.66667175292969,217296.0,1.0
15:42:40.277471,159110.8125,178931.890625,177031.09375,184023.34375,162730.453125,175655.03125,691490.0625,190089.796875,0.069580078125,1.011962890625,-0.004150390625,-0.6103515028953552,0.2441406100988388,0.3662109076976776,86.66667175292969,217297.0,1.0
15:42:40.277488,159048.21875,178917.59375,177026.546875,184037.921875,162721.875,175653.25,690865.5625,190095.0625,0.070068359375,1.01220703125,-0.006103515625,-0.6408690810203552,0.2441406100988388,0.3356933295726776,86.66667175292969,217298.0,1.0
15:42:40.279423,159137.453125,178945.125,177056.9375,184062.78125,162748.875,175668.625,690681.375,190108.84375,0.069580078125,1.0107421875,-0.005859375,-0.7019042372703552,0.1220703050494194,0.3967284858226776,86.66667175292969,217299.0,1.0
15:42:40.287456,159226.328125,178969.0,177075.71875,184081.90625,162772.46875,175677.828125,691145.75,190116.4375,0.0693359375,1.010498046875,-0.00537109375,-0.6408690810203552,0.1831054538488388,0.3356933295726776,86.66667175292969,217300.0,1.0
15:42:40.287469,159156.859375,178960.859375,177063.90625,184047.9375,162762.640625,175677.65625,691521.25,190108.84375,0.07080078125,1.010009765625,-0.006103515625,-0.7324218153953552,0.0915527269244194,0.3356933295726776,86.66667175292969,217301.0,1.0
15:42:40.297476,159079.875,178945.75,177055.859375,184065.640625,162745.65625,175675.328125,690978.5625,190113.84375,0.07275390625,1.0107421875,-0.005126953125,-0.7324218153953552,0.1220703050494194,0.3051757514476776,86.66667175292969,217302.0,1.0
15:42:40.297494,159131.109375,178956.84375,177066.421875,184065.8125,162749.859375,175678.109375,690657.6875,190111.34375,0.07080078125,1.013671875,-0.0068359375,-0.7629393935203552,0.1831054538488388,0.3662109076976776,86.66667175292969,217303.0,1.0
15:42:40.325631,159227.484375,178972.75,177077.953125,184087.09375,162765.5,175680.078125,691039.0625,190113.484375,0.07080078125,1.01171875,-0.007080078125,-0.8239745497703552,0.03051757626235485,0.3662109076976776,86.66667175292969,217304.0,1.0
15:42:40.325674,159169.734375,178963.09375,177062.75,184043.015625,162755.046875,175675.59375,691535.3125,190103.203125,0.0703125,1.012451171875,-0.0068359375,-0.9155272841453552,0.1831054538488388,0.3051757514476776,86.66667175292969,217305.0,1.0
15:42:40.325684,159072.09375,178936.265625,177043.4375,184058.21875,162733.578125,175668.171875,691114.25,190107.046875,0.072265625,1.012451171875,-0.003662109375,-0.9460448622703552,0.03051757626235485,0.3051757514476776,86.66667175292969,217306.0,1.0
15:42:40.349634,159086.671875,178930.1875,177039.140625,184044.265625,162726.15625,175662.28125,690681.4375,190093.90625,0.07275390625,1.011962890625,-0.003173828125,-1.0070799589157104,0.0915527269244194,0.2441406100988388,86.66667175292969,217307.0,1.0
15:42:40.366229,159192.890625,178945.296875,177052.375,184068.0625,162742.515625,175662.90625,690949.75,190093.734375,0.0703125,1.012939453125,-0.00390625,-1.0070799589157104,0.1220703050494194,0.1831054538488388,86.66667175292969,217308.0,1.0
15:42:40.366280,159171.609375,178951.375,177050.046875,184033.546875,162747.625,175670.140625,691528.875,190089.4375,0.06982421875,1.012939453125,-0.00634765625,-1.0681151151657104,0.1525878757238388,0.03051757626235485,86.66667175292969,217309.0,1.0
15:42:40.368138,159070.21875,178927.875,177031.71875,184040.34375,162725.625,175663.625,691247.5625,190090.515625,0.070068359375,1.013427734375,-0.004638671875,-1.1596678495407104,0.1831054538488388,0.1220703050494194,86.66667175292969,217310.0,1.0
15:42:40.370695,159068.875,178930.015625,177035.5625,184037.03125,162724.28125,175667.640625,690725.375,190091.40625,0.069091796875,1.012451171875,-0.00634765625,-1.2512205839157104,0.2441406100988388,0.0,86.66667175292969,217311.0,1.0
15:42:40.373169,159171.96875,178943.875,177045.859375,184060.09375,162736.4375,175666.296875,690880.3125,190093.375,0.068603515625,1.01318359375,-0.007080078125,-1.2512205839157104,0.1525878757238388,-0.0915527269244194,86.66667175292969,217312.0,1.0
15:42:40.375636,159167.40625,178941.734375,177035.03125,184025.3125,162732.859375,175661.65625,691477.8125,190081.921875,0.067626953125,1.012451171875,-0.00732421875,-1.3427733182907104,0.2441406100988388,-0.1220703050494194,86.66667175292969,217313.0,1.0
15:42:40.378156,159066.015625,178920.53125,177018.046875,184022.90625,162714.53125,175655.578125,691372.8125,190083.171875,0.068603515625,1.010498046875,-0.009765625,-1.3122557401657104,0.03051757626235485,-0.1525878757238388,86.66667175292969,217314.0,1.0
15:42:40.380616,159033.46875,178909.1875,177012.859375,184020.40625,162704.53125,175651.546875,690769.4375,190082.1875,0.070556640625,1.009521484375,-0.008544921875,-1.3122557401657104,0.0,-0.2746581733226776,86.66667175292969,217315.0,1.0
15:42:40.383660,159128.25,178916.609375,177021.0,184034.34375,162713.828125,175646.984375,690808.75,190078.890625,0.071044921875,1.006103515625,-0.006591796875,-1.3427733182907104,0.0610351525247097,-0.4272460639476776,86.66667175292969,217316.0,1.0
15:42:40.385675,159168.296875,178935.734375,177029.125,184020.046875,162730.359375,175656.921875,691394.125,190078.890625,0.071533203125,1.008544921875,-0.0087890625,-1.3732908964157104,0.0,-0.4272460639476776,86.66667175292969,217317.0,1.0
15:42:40.388611,159077.015625,178922.421875,177017.953125,184010.75,162718.46875,175655.75,691479.0625,190079.59375,0.0712890625,1.00927734375,-0.007080078125,-1.2512205839157104,0.0915527269244194,-0.3967284858226776,86.66667175292969,217318.0,1.0
15:42:40.390601,159034.09375,178916.609375,177020.109375,184025.765625,162714.265625,175659.328125,690841.3125,190088.984375,0.071044921875,1.009033203125,-0.0068359375,-1.2817381620407104,0.1220703050494194,-0.3356933295726776,86.66667175292969,217319.0,1.0
15:42:40.393091,159125.828125,178934.484375,177038.875,184044.625,162729.921875,175664.421875,690751.4375,190093.8125,0.073486328125,1.009765625,-0.005615234375,-1.1901854276657104,0.0610351525247097,-0.3662109076976776,86.66667175292969,217320.0,1.0
15:42:40.399106,159189.046875,178951.828125,177049.34375,184048.296875,162746.546875,175669.4375,691278.5,190097.484375,0.072265625,1.00927734375,-0.00537109375,-1.1901854276657104,0.1831054538488388,-0.3967284858226776,86.66667175292969,217321.0,1.0
15:42:40.401911,159105.53125,178938.78125,177035.21875,184023.53125,162734.203125,175665.765625,691547.5625,190093.546875,0.0732421875,1.009033203125,-0.00830078125,-1.1596678495407104,0.2136230319738388,-0.3967284858226776,86.66667175292969,217322.0,1.0
15:42:40.405036,159027.9375,178911.5,177015.90625,184028.0,162707.203125,175648.59375,690922.6875,190086.125,0.07373046875,1.010986328125,-0.008544921875,-1.0986326932907104,0.3051757514476776,-0.3356933295726776,86.66667175292969,217323.0,1.0
15:42:40.405069,159095.078125,178920.8125,177027.4375,184032.03125,162715.4375,175647.703125,690708.1875,190085.328125,0.072021484375,1.012451171875,-0.006591796875,-1.1901854276657104,0.2746581733226776,-0.2441406100988388,86.66667175292969,217324.0,1.0
15:42:40.407484,159182.0625,178939.484375,177040.75,184049.1875,162734.46875,175651.640625,691158.375,190090.78125,0.072509765625,1.013916015625,-0.0087890625,-1.2817381620407104,0.3051757514476776,-0.2746581733226776,86.66667175292969,217325.0,1.0
15:42:40.407508,159122.171875,178941.453125,177035.390625,184020.484375,162732.859375,175659.421875,691579.375,190089.890625,0.0712890625,1.01318359375,-0.0078125,-1.2207030057907104,0.3356933295726776,-0.2136230319738388,86.66667175292969,217326.0,1.0
15:42:40.411137,159039.734375,178922.953125,177024.9375,184038.109375,162716.140625,175653.96875,691040.4375,190093.90625,0.07275390625,1.013427734375,-0.0068359375,-1.1901854276657104,0.3662109076976776,-0.0915527269244194,86.66667175292969,217327.0,1.0
15:42:40.411159,159107.328125,178952.1875,177056.578125,184059.5625,162742.078125,175676.046875,690706.75,190114.921875,0.0732421875,1.01416015625,-0.005859375,-1.3122557401657104,0.4882812201976776,0.03051757626235485,86.66667175292969,217328.0,1.0
15:42:40.411165,159210.859375,178972.03125,177074.015625,184087.90625,162763.71875,175679.625,691058.1875,190121.984375,0.072998046875,1.01318359375,-0.00537109375,-1.2817381620407104,0.5493163466453552,0.1831054538488388,86.66667175292969,217329.0,1.0
15:42:40.411170,159163.65625,178969.0,177062.65625,184048.109375,162757.90625,175681.140625,691580.4375,190112.5,0.072265625,1.011962890625,-0.004638671875,-1.2817381620407104,0.5493163466453552,0.2746581733226776,86.66667175292969,217330.0,1.0
15:42:40.414438,159111.4375,178990.453125,177089.21875,184104.796875,162779.53125,175719.3125,691193.5,190156.84375,0.072509765625,1.011962890625,-0.004150390625,-1.3122557401657104,0.5187987685203552,0.3967284858226776,86.66667175292969,217331.0,1.0
15:42:40.414470,159096.421875,178957.8125,177058.8125,184063.3125,162742.703125,175685.078125,690706.9375,190117.515625,0.073486328125,1.009765625,-0.005126953125,-1.3732908964157104,0.5493163466453552,0.3967284858226776,86.66667175292969,217332.0,1.0
15:42:40.415632,159186.265625,178956.65625,177054.796875,184071.546875,162740.015625,175667.203125,690953.0,190102.765625,0.072509765625,1.0146484375,-0.00830078125,-1.5258787870407104,0.5798339247703552,0.4577636420726776,86.66667175292969,217333.0,1.0
15:42:40.427458,159155.96875,178952.984375,177039.6875,184023.53125,162731.171875,175661.5625,691515.375,190083.53125,0.0693359375,1.01513671875,-0.00341796875,-1.4953612089157104,0.4882812201976776,0.4882812201976776,86.66667175292969,217334.0,1.0
15:42:40.427484,159066.015625,178939.671875,177032.0,184040.421875,162720.796875,175663.890625,691272.5,190093.109375,0.070556640625,1.015380859375,-0.003173828125,-1.7395018339157104,0.4882812201976776,0.5493163466453552,86.66667175292969,217335.0,1.0
15:42:40.430016,159054.03125,178927.875,177028.859375,184034.796875,162711.953125,175657.359375,690717.75,190089.796875,0.0712890625,1.015625,-0.00439453125,-1.7395018339157104,0.4882812201976776,0.6408690810203552,86.66667175292969,217336.0,1.0
15:42:40.430027,159160.796875,178942.078125,177043.171875,184059.828125,162725.890625,175655.484375,690839.0625,190092.921875,0.070556640625,1.013916015625,-0.00341796875,-1.8615721464157104,0.4577636420726776,0.5493163466453552,86.66667175292969,217337.0,1.0
15:42:40.440715,159170.71875,178950.578125,177041.734375,184033.0,162732.953125,175659.59375,691440.4375,190090.953125,0.0712890625,1.01416015625,-0.002685546875,-1.9226073026657104,0.3967284858226776,0.4882812201976776,86.66667175292969,217338.0,1.0
15:42:40.449919,159072.8125,178932.515625,177029.578125,184033.8125,162719.640625,175658.25,691383.8125,190096.953125,0.0712890625,1.015869140625,-0.00390625,-1.9836424589157104,0.3967284858226776,0.2746581733226776,86.66667175292969,217339.0,1.0
15:42:40.449945,159049.75,178930.734375,177033.953125,184042.125,162715.875,175662.09375,690781.75,190103.296875,0.070556640625,1.016357421875,-0.0048828125,-2.014159917831421,0.3967284858226776,0.1525878757238388,86.66667175292969,217340.0,1.0
15:42:40.449952,159146.578125,178940.03125,177045.140625,184059.203125,162727.140625,175657.265625,690792.4375,190104.09375,0.0703125,1.015625,-0.007080078125,-2.044677495956421,0.2441406100988388,0.1220703050494194,86.66667175292969,217341.0,1.0
15:42:40.452454,159182.421875,178947.984375,177046.5625,184042.578125,162741.0,175659.328125,691361.75,190102.21875,0.0673828125,1.0146484375,-0.003173828125,-2.105712652206421,0.1831054538488388,0.1525878757238388,86.66667175292969,217342.0,1.0
15:42:40.452538,159086.9375,178931.890625,177030.46875,184025.859375,162730.359375,175657.890625,691484.625,190100.34375,0.0693359375,1.01220703125,-0.004638671875,-2.197265386581421,0.1525878757238388,0.1220703050494194,86.66667175292969,217343.0,1.0
15:42:40.458120,159032.046875,178918.84375,177022.515625,184033.90625,162715.96875,175655.21875,690856.3125,190099.09375,0.069091796875,1.01220703125,-0.002685546875,-2.227782964706421,0.2746581733226776,-0.0610351525247097,86.66667175292969,217344.0,1.0
15:42:40.468891,159121.984375,178938.328125,177041.109375,184050.53125,162731.796875,175662.71875,690743.75,190101.953125,0.072021484375,1.010986328125,0.00048828125,-2.227782964706421,0.2136230319738388,-0.1831054538488388,86.66667175292969,217345.0,1.0
15:42:40.468917,159185.5625,178951.921875,177045.5,184048.390625,162742.796875,175665.234375,691255.0625,190098.109375,0.07080078125,1.009521484375,-0.002197265625,-2.136230230331421,0.2136230319738388,-0.1220703050494194,86.66667175292969,217346.0,1.0
15:42:40.477434,159099.1875,178936.546875,177026.890625,184012.890625,162727.328125,175660.765625,691550.5625,190087.734375,0.0732421875,1.010498046875,-0.00244140625,-2.166747808456421,0.1525878757238388,-0.1831054538488388,86.66667175292969,217347.0,1.0
15:42:40.477459,159026.046875,178919.28125,177017.875,184028.09375,162712.390625,175657.0,690953.3125,190090.515625,0.072998046875,1.009033203125,-0.004638671875,-2.105712652206421,0.2441406100988388,-0.2441406100988388,86.66667175292969,217348.0,1.0
15:42:40.479396,159081.03125,178919.28125,177020.546875,184022.90625,162710.78125,175647.890625,690710.125,190079.953125,0.072265625,1.009033203125,-0.005126953125,-2.014159917831421,0.1525878757238388,-0.2746581733226776,86.66667175292969,217349.0,1.0
15:42:40.481840,159170.625,178937.796875,177031.546875,184038.546875,162725.53125,175649.140625,691144.9375,190079.953125,0.07275390625,1.0087890625,-0.00341796875,-2.044677495956421,0.1220703050494194,-0.1831054538488388,86.66667175292969,217350.0,1.0
15:42:40.517488,159107.59375,178931.53125,177019.03125,183999.5625,162714.625,175648.234375,691584.3125,190070.125,0.072998046875,1.010009765625,-0.00439453125,-1.9836424589157104,0.1220703050494194,-0.2746581733226776,86.66667175292969,217351.0,1.0
15:42:40.517542,159023.375,178912.40625,177009.375,184019.6875,162699.96875,175644.84375,691065.375,190076.921875,0.072265625,1.010009765625,-0.0048828125,-1.9836424589157104,0.1525878757238388,-0.1831054538488388,86.66667175292969,217352.0,1.0
15:42:40.521218,159070.75,178926.078125,177026.1875,184025.3125,162711.234375,175653.421875,690707.0,190081.5625,0.074462890625,1.008056640625,-0.0048828125,-1.8615721464157104,0.2441406100988388,-0.2136230319738388,86.66667175292969,217353.0,1.0
15:42:40.521289,159183.859375,178951.921875,177049.515625,184059.734375,162736.71875,175661.390625,691057.6875,190092.5625,0.074951171875,1.009521484375,-0.0068359375,-1.7089842557907104,0.3051757514476776,-0.2136230319738388,86.66667175292969,217354.0,1.0
15:42:40.523119,159157.484375,178967.46875,177057.65625,184034.265625,162751.546875,175679.4375,691605.3125,190099.453125,0.072998046875,1.006591796875,-0.00244140625,-1.6174315214157104,0.2441406100988388,-0.2441406100988388,86.66667175292969,217355.0,1.0
15:42:40.523163,159067.8125,178952.984375,177049.875,184052.5,162738.859375,175681.234375,691214.9375,190106.421875,0.071533203125,1.005615234375,-0.001953125,-1.4953612089157104,0.3051757514476776,-0.1525878757238388,86.66667175292969,217356.0,1.0
15:42:40.523183,159076.75,178950.125,177048.71875,184039.890625,162730.984375,175677.125,690730.4375,190096.953125,0.070556640625,1.0048828125,-0.006103515625,-1.3732908964157104,0.3356933295726776,-0.1525878757238388,86.66667175292969,217357.0,1.0
15:42:40.533119,159194.5,178974.71875,177071.421875,184076.09375,162752.796875,175684.625,690955.375,190107.046875,0.06982421875,1.004150390625,-0.00634765625,-1.2207030057907104,0.3662109076976776,-0.1220703050494194,86.66667175292969,217358.0,1.0
15:42:40.533163,159180.8125,178977.40625,177065.609375,184042.3125,162753.609375,175686.15625,691552.125,190101.0625,0.070556640625,1.005126953125,-0.004638671875,-1.2207030057907104,0.3356933295726776,-0.2441406100988388,86.66667175292969,217359.0,1.0
15:42:40.533180,159076.03125,178950.40625,177045.859375,184046.78125,162731.703125,175677.390625,691333.6875,190102.40625,0.06982421875,1.004150390625,-0.002685546875,-1.0986326932907104,0.3967284858226776,-0.2136230319738388,86.66667175292969,217360.0,1.0
15:42:40.536385,159059.84375,178942.171875,177040.125,184040.78125,162720.53125,175673.0,690767.375,190098.46875,0.0693359375,1.004150390625,-0.004638671875,-0.9460448622703552,0.3051757514476776,-0.2136230319738388,86.66667175292969,217361.0,1.0
15:42:40.536428,159160.875,178950.40625,177047.8125,184061.265625,162728.21875,175666.296875,690861.875,190098.203125,0.06884765625,1.005615234375,-0.00390625,-0.8544921278953552,0.2441406100988388,-0.1831054538488388,86.66667175292969,217362.0,1.0
15:42:40.538126,159166.78125,178949.953125,177038.96875,184030.6875,162728.484375,175661.109375,691457.125,190089.796875,0.06787109375,1.005859375,-0.005126953125,-0.8239745497703552,0.2746581733226776,-0.1831054538488388,86.66667175292969,217363.0,1.0
15:42:40.540967,159067.09375,178927.78125,177020.8125,184024.421875,162709.890625,175653.96875,691432.125,190090.328125,0.068359375,1.0078125,-0.00390625,-0.8239745497703552,0.3051757514476776,-0.2441406100988388,86.66667175292969,217364.0,1.0
15:42:40.543298,159033.203125,178918.125,177014.203125,184025.765625,162695.765625,175649.21875,690811.1875,190087.5625,0.068359375,1.0078125,-0.003662109375,-0.7324218153953552,0.2136230319738388,-0.2746581733226776,86.66667175292969,217365.0,1.0
15:42:40.546920,159132.53125,178932.421875,177027.25,184043.734375,162706.046875,175648.234375,690801.875,190087.921875,0.068603515625,1.0087890625,-0.005859375,-0.8239745497703552,0.2136230319738388,-0.2441406100988388,86.66667175292969,217366.0,1.0
15:42:40.554459,159176.25,178946.109375,177031.453125,184030.234375,162717.40625,175653.34375,691365.3125,190082.8125,0.068603515625,1.009765625,-0.00390625,-0.7934569716453552,0.1831054538488388,-0.2746581733226776,86.66667175292969,217367.0,1.0
15:42:40.570931,159079.25,178927.875,177013.578125,184005.921875,162702.109375,175647.703125,691520.875,190077.359375,0.069580078125,1.01025390625,-0.002685546875,-0.7934569716453552,0.0610351525247097,-0.3662109076976776,86.66667175292969,217368.0,1.0
15:42:40.571131,159017.296875,178911.0625,177005.0,184014.59375,162687.1875,175642.078125,690880.125,190078.625,0.069091796875,1.010986328125,-0.0048828125,-0.7629393935203552,0.0915527269244194,-0.3051757514476776,86.66667175292969,217369.0,1.0
15:42:40.572654,159104.46875,178928.3125,177024.296875,184032.734375,162704.078125,175648.421875,690748.3125,190087.109375,0.067626953125,1.010498046875,-0.005126953125,-0.7019042372703552,0.0915527269244194,-0.4272460639476776,86.66667175292969,217370.0,1.0
15:42:40.572697,159175.09375,178939.84375,177032.4375,184039.984375,162720.703125,175648.6875,691242.8125,190088.90625,0.065673828125,1.01318359375,-0.005615234375,-0.7934569716453552,-0.0610351525247097,-0.4882812201976776,86.66667175292969,217371.0,1.0
15:42:40.574682,159097.3125,178931.171875,177020.109375,184009.046875,162711.40625,175647.890625,691567.8125,190083.625,0.06689453125,1.01318359375,-0.003662109375,-0.7629393935203552,-0.03051757626235485,-0.4577636420726776,86.66667175292969,217372.0,1.0
15:42:40.576900,159027.125,178917.765625,177012.765625,184026.21875,162696.484375,175645.65625,690979.5625,190087.375,0.066650390625,1.01416015625,-0.003173828125,-0.9460448622703552,-0.1831054538488388,-0.6408690810203552,86.66667175292969,217373.0,1.0
15:42:40.580822,159090.609375,178931.171875,177027.515625,184032.46875,162706.3125,175650.125,690716.5625,190089.171875,0.06689453125,1.015625,-0.0048828125,-1.0986326932907104,-0.1831054538488388,-0.5493163466453552,86.66667175292969,217374.0,1.0
15:42:40.590043,159182.34375,178949.234375,177040.671875,184051.0625,162726.609375,175655.125,691130.625,190093.640625,0.065673828125,1.017333984375,-0.005859375,-1.1291502714157104,-0.2441406100988388,-0.6408690810203552,86.66667175292969,217375.0,1.0
15:42:40.590111,159126.640625,178950.671875,177033.953125,184015.484375,162726.421875,175662.546875,691596.1875,190088.90625,0.06591796875,1.015869140625,-0.001953125,-1.1901854276657104,-0.2746581733226776,-0.5798339247703552,86.66667175292969,217376.0,1.0
15:42:40.597497,159038.296875,178929.125,177020.734375,184032.921875,162707.65625,175656.375,691094.6875,190090.421875,0.067626953125,1.01708984375,-0.004150390625,-1.3732908964157104,-0.3356933295726776,-0.5493163466453552,86.66667175292969,217377.0,1.0
15:42:40.597564,159076.484375,178938.953125,177033.421875,184033.28125,162714.53125,175662.28125,690707.1875,190091.40625,0.068603515625,1.017822265625,-0.004150390625,-1.4038084745407104,-0.4272460639476776,-0.3967284858226776,86.66667175292969,217378.0,1.0
15:42:40.600090,159186.8125,178961.578125,177054.078125,184066.265625,162739.125,175670.0625,691031.6875,190101.6875,0.067626953125,1.017578125,-0.0068359375,-1.5258787870407104,-0.3356933295726776,-0.3356933295726776,86.66667175292969,217379.0,1.0
15:42:40.600163,159159.0,178971.671875,177055.234375,184033.984375,162748.0625,175683.46875,691586.3125,190099.890625,0.068115234375,1.016845703125,-0.0048828125,-1.6174315214157104,-0.3967284858226776,-0.3662109076976776,86.66667175292969,217380.0,1.0
15:42:40.609449,159064.3125,178953.078125,177043.890625,184049.09375,162731.609375,175682.578125,691227.9375,190102.3125,0.069091796875,1.0166015625,-0.001953125,-1.6479490995407104,-0.4577636420726776,-0.3662109076976776,86.66667175292969,217381.0,1.0
15:42:40.613729,159075.40625,178957.109375,177051.390625,184047.484375,162729.5625,175685.609375,690725.4375,190101.15625,0.0673828125,1.0166015625,-0.000732421875,-1.7700194120407104,-0.6103515028953552,-0.2441406100988388,86.66667175292969,217382.0,1.0
15:42:40.613795,159185.015625,178973.015625,177065.875,184077.625,162744.484375,175683.921875,690922.5,190106.78125,0.064697265625,1.015625,-0.003173828125,-1.8005369901657104,-0.5798339247703552,-0.1831054538488388,86.66667175292969,217383.0,1.0
15:42:40.623180,159173.578125,178974.265625,177056.9375,184040.875,162745.109375,175684.0,691513.8125,190101.859375,0.0634765625,1.015380859375,-0.00439453125,-1.8310545682907104,-0.6408690810203552,-0.0915527269244194,86.66667175292969,217384.0,1.0
15:42:40.627467,159062.4375,178944.671875,177031.453125,184037.828125,162720.53125,175672.46875,691331.8125,190100.796875,0.06591796875,1.012939453125,-0.001953125,-1.9226073026657104,-0.7019042372703552,-0.0915527269244194,86.66667175292969,217385.0,1.0
15:42:40.627532,159040.984375,178937.078125,177026.359375,184031.21875,162710.78125,175668.265625,690752.875,190096.328125,0.065673828125,1.012451171875,-0.00439453125,-2.014159917831421,-0.6713866591453552,-0.0915527269244194,86.66667175292969,217386.0,1.0
15:42:40.633831,159146.484375,178951.109375,177040.578125,184055.8125,162723.03125,175666.296875,690824.9375,190098.828125,0.063720703125,1.0126953125,-0.005126953125,-2.044677495956421,-0.7324218153953552,-0.0610351525247097,86.66667175292969,217387.0,1.0
15:42:40.633899,159160.796875,178954.0625,177034.671875,184027.90625,162725.625,175664.25,691413.3125,190091.21875,0.06396484375,1.0126953125,-0.0048828125,-2.044677495956421,-0.7019042372703552,-0.1831054538488388,86.66667175292969,217388.0,1.0
15:42:40.638140,159053.953125,178927.328125,177012.234375,184014.40625,162703.984375,175653.515625,691419.4375,190087.921875,0.067138671875,1.0107421875,-0.00341796875,-1.9836424589157104,-0.7019042372703552,-0.1525878757238388,86.66667175292969,217389.0,1.0
15:42:40.641886,159012.640625,178915.0,177009.90625,184020.9375,162696.5625,175650.203125,690791.3125,190090.15625,0.06640625,1.01025390625,-0.002685546875,-1.9531248807907104,-0.8544921278953552,-0.1220703050494194,86.66667175292969,217390.0,1.0
15:42:40.657548,159111.703125,178934.75,177030.390625,184040.96875,162715.4375,175656.203125,690754.75,190096.140625,0.065673828125,1.009033203125,-0.0048828125,-1.9531248807907104,-0.8239745497703552,0.0,86.66667175292969,217391.0,1.0
15:42:40.657614,159158.203125,178943.25,177030.109375,184028.71875,162721.953125,175652.890625,691296.6875,190088.546875,0.066162109375,1.00927734375,-0.00439453125,-1.8920897245407104,-0.9155272841453552,0.0,86.66667175292969,217392.0,1.0
15:42:40.660086,159064.9375,178921.609375,177009.1875,184002.96875,162701.65625,175642.25,691486.1875,190079.6875,0.06689453125,1.0068359375,-0.005859375,-1.9226073026657104,-0.9765624403953552,0.0610351525247097,86.66667175292969,217393.0,1.0
15:42:40.660149,159000.75,178900.78125,177000.703125,184012.796875,162687.453125,175633.9375,690867.25,190081.5625,0.065185546875,1.007568359375,-0.006591796875,-1.8920897245407104,-0.9155272841453552,-0.0915527269244194,86.66667175292969,217394.0,1.0
15:42:40.662076,159077.1875,178912.765625,177016.34375,184021.65625,162700.046875,175634.828125,690695.5,190081.65625,0.064697265625,1.009765625,-0.007568359375,-1.8005369901657104,-0.8239745497703552,-0.1525878757238388,86.66667175292969,217395.0,1.0
15:42:40.664670,159158.375,178935.828125,177029.765625,184032.46875,162716.953125,175642.4375,691178.9375,190082.28125,0.067626953125,1.010986328125,-0.006591796875,-1.7089842557907104,-0.8850097060203552,-0.0915527269244194,86.66667175292969,217396.0,1.0
15:42:40.718199,159086.40625,178931.359375,177016.796875,184002.34375,162704.25,175642.34375,691532.4375,190074.78125,0.06982421875,1.011474609375,-0.004638671875,-1.7395018339157104,-0.8239745497703552,-0.1220703050494194,86.66667175292969,217397.0,1.0
15:42:40.721215,159007.453125,178911.59375,177004.90625,184018.796875,162685.578125,175635.015625,690961.625,190077.8125,0.068115234375,1.009765625,-0.005859375,-1.6479490995407104,-0.7019042372703552,-0.0610351525247097,86.66667175292969,217398.0,1.0
15:42:40.721247,159065.84375,178924.203125,177021.265625,184021.46875,162700.328125,175641.71875,690668.9375,190079.515625,0.068359375,1.008544921875,-0.006591796875,-1.7089842557907104,-0.7019042372703552,0.0,86.66667175292969,217399.0,1.0
15:42:40.723176,159165.796875,178945.84375,177040.046875,184045.96875,162723.484375,175648.78125,691065.75,190087.109375,0.067138671875,1.008056640625,-0.006103515625,-1.6784666776657104,-0.7629393935203552,0.0,86.66667175292969,217400.0,1.0
15:42:40.725720,159120.203125,178950.84375,177038.875,184015.84375,162724.8125,175658.171875,691541.625,190086.21875,0.0693359375,1.007568359375,-0.005859375,-1.7700194120407104,-0.5798339247703552,-0.1220703050494194,86.66667175292969,217401.0,1.0
15:42:40.728162,159038.21875,178938.59375,177035.03125,184041.6875,162717.046875,175663.796875,691079.75,190097.84375,0.06787109375,1.00830078125,-0.005126953125,-1.7089842557907104,-0.5798339247703552,-0.1220703050494194,86.66667175292969,217402.0,1.0
15:42:40.730683,159071.109375,178949.0625,177044.25,184035.875,162721.515625,175670.328125,690673.5625,190093.640625,0.06884765625,1.0107421875,-0.003662109375,-1.8005369901657104,-0.5187987685203552,-0.1525878757238388,86.66667175292969,217403.0,1.0
15:42:40.733088,159175.8125,178967.390625,177057.03125,184058.84375,162736.53125,175672.109375,690975.0625,190093.109375,0.06982421875,1.01123046875,-0.006103515625,-1.8005369901657104,-0.4882812201976776,-0.1525878757238388,86.66667175292969,217404.0,1.0
15:42:40.735663,159150.234375,178974.625,177055.328125,184026.21875,162741.1875,175681.6875,691536.0,190089.609375,0.069580078125,1.011962890625,-0.00634765625,-1.8615721464157104,-0.3967284858226776,-0.3356933295726776,86.66667175292969,217405.0,1.0
15:42:40.740717,159053.5,178951.203125,177037.09375,184040.25,162717.671875,175675.875,691216.375,190091.21875,0.0693359375,1.0146484375,-0.007568359375,-1.8005369901657104,-0.2441406100988388,-0.2746581733226776,86.66667175292969,217406.0,1.0
15:42:40.743217,159059.84375,178953.34375,177042.71875,184040.515625,162715.078125,175678.28125,690708.0,190093.1875,0.069580078125,1.011474609375,-0.007080078125,-1.8310545682907104,-0.0915527269244194,-0.2136230319738388,86.66667175292969,217407.0,1.0
15:42:40.745615,159160.25,178961.484375,177051.84375,184062.6875,162727.59375,175672.296875,690880.625,190094.796875,0.0673828125,1.012451171875,-0.00927734375,-1.8005369901657104,-0.0610351525247097,-0.1525878757238388,86.66667175292969,217408.0,1.0
15:42:40.748130,159148.265625,178960.234375,177040.75,184021.5625,162724.8125,175668.171875,691469.875,190084.078125,0.06884765625,1.0126953125,-0.009521484375,-1.7089842557907104,0.03051757626235485,-0.2136230319738388,86.66667175292969,217409.0,1.0
15:42:40.753102,159045.09375,178933.40625,177018.21875,184018.4375,162699.609375,175656.46875,691324.625,190080.9375,0.068359375,1.012451171875,-0.008544921875,-1.7089842557907104,0.03051757626235485,-0.2136230319738388,86.66667175292969,217410.0,1.0
15:42:40.755635,159015.953125,178918.21875,177010.71875,184009.21875,162685.921875,175646.1875,690731.0,190073.703125,0.06787109375,1.012451171875,-0.004638671875,-1.7395018339157104,0.0610351525247097,-0.3662109076976776,86.66667175292969,217411.0,1.0
15:42:40.758234,159115.453125,178930.109375,177025.640625,184032.109375,162700.5,175643.0625,690796.25,190080.046875,0.0673828125,1.012451171875,-0.006103515625,-1.7700194120407104,0.0915527269244194,-0.4272460639476776,86.66667175292969,217412.0,1.0
15:42:40.761940,159136.203125,178934.578125,177019.203125,184008.421875,162701.390625,175640.109375,691367.5,190072.625,0.063720703125,1.013427734375,-0.0048828125,-1.6784666776657104,0.1831054538488388,-0.7629393935203552,86.66667175292969,217413.0,1.0
15:42:40.761996,159039.734375,178914.015625,177001.59375,183999.84375,162682.171875,175632.328125,691408.9375,190070.65625,0.061767578125,1.01416015625,-0.0068359375,-1.7395018339157104,0.2441406100988388,-0.8239745497703552,86.66667175292969,217414.0,1.0
15:42:40.762018,158991.90625,178899.265625,176994.4375,184004.3125,162667.15625,175625.171875,690783.625,190068.15625,0.061279296875,1.014892578125,-0.005859375,-1.9226073026657104,0.1220703050494194,-0.9460448622703552,86.66667175292969,217415.0,1.0
15:42:40.764533,159085.59375,178914.8125,177010.171875,184021.828125,162679.84375,175626.96875,690716.125,190070.21875,0.06005859375,1.015625,-0.005126953125,-1.8920897245407104,0.0,-1.0986326932907104,86.66667175292969,217416.0,1.0
15:42:40.766894,159144.703125,178931.71875,177017.953125,184019.421875,162696.125,175632.953125,691248.625,190072.09375,0.06103515625,1.016357421875,-0.005859375,-1.9836424589157104,-0.0610351525247097,-1.2512205839157104,86.66667175292969,217417.0,1.0
