Timestamp,Fz,FC3,FCz,FC4,Cz,C3,C4
15:40:31.975192,160709.671875,181413.03125,177638.359375,187051.03125,169254.296875,178987.5,690668.5625,192562.96875,0.049072265625,1.00830078125,-0.01123046875,-2.685546636581421,0.2441406100988388,0.0610351525247097,93.33334350585938,185197.0,1.0
15:40:31.975222,160792.46875,181431.0,177651.046875,187058.0,169270.65625,178992.6875,690806.4375,192565.5625,0.046875,1.010009765625,-0.011474609375,-2.502441167831421,0.3967284858226776,-0.03051757626235485,93.33334350585938,185198.0,1.0
15:40:31.984678,160766.53125,181437.703125,177648.09375,187010.34375,169275.3125,178999.65625,691170.3125,192559.9375,0.046875,1.010498046875,-0.010009765625,-2.380370855331421,0.4882812201976776,-0.2136230319738388,93.33334350585938,185199.0,1.0
15:40:31.987209,160699.390625,181416.78125,177637.453125,187043.875,169262.890625,178991.609375,691016.0,192567.078125,0.04638671875,1.01171875,-0.0087890625,-2.288818120956421,0.4882812201976776,-0.3356933295726776,93.33334350585938,185200.0,1.0
15:40:31.997765,160695.015625,181409.359375,177635.765625,187053.53125,169259.84375,178984.828125,690682.1875,192566.453125,0.045166015625,1.011474609375,-0.005615234375,-2.136230230331421,0.5493163466453552,-0.3967284858226776,93.33334350585938,185201.0,1.0
15:40:31.997802,160779.328125,181426.171875,177649.890625,187063.90625,169273.875,178989.296875,690752.0625,192568.6875,0.044677734375,1.01171875,-0.0048828125,-2.075195074081421,0.5187987685203552,-0.4577636420726776,93.33334350585938,185202.0,1.0
15:40:32.009001,160772.265625,181432.78125,177647.109375,187019.734375,169277.015625,178992.953125,691112.5,192560.109375,0.04296875,1.012451171875,-0.007080078125,-2.075195074081421,0.5187987685203552,-0.6713866591453552,93.33334350585938,185203.0,1.0
15:40:32.009038,160701.984375,181416.25,177636.75,187034.40625,169264.140625,178988.046875,691074.3125,192563.78125,0.042236328125,1.015380859375,-0.01123046875,-2.075195074081421,0.5493163466453552,-0.8239745497703552,93.33334350585938,185204.0,1.0
15:40:32.013030,160682.671875,181405.15625,177631.734375,187050.765625,169254.84375,178982.140625,690700.0625,192563.234375,0.041748046875,1.014404296875,-0.010009765625,-1.9836424589157104,0.5187987685203552,-1.0070799589157104,93.33334350585938,185205.0,1.0
15:40:32.013058,160762.609375,181423.671875,177648.09375,187056.03125,169271.640625,178989.375,690710.125,192566.015625,0.04150390625,1.012939453125,-0.012451171875,-2.044677495956421,0.5493163466453552,-1.1291502714157104,93.33334350585938,185206.0,1.0
15:40:32.017206,160784.0625,181437.96875,177652.65625,187026.171875,169282.203125,178997.78125,691046.75,192561.546875,0.04248046875,1.014404296875,-0.01318359375,-2.014159917831421,0.5187987685203552,-1.4648436307907104,93.33334350585938,185207.0,1.0
15:40:32.022341,160718.265625,181428.9375,177645.765625,187028.765625,169274.0625,178999.3125,691132.0,192565.390625,0.04248046875,1.01318359375,-0.018310546875,-2.014159917831421,0.5493163466453552,-1.7089842557907104,93.33334350585938,185208.0,1.0
15:40:32.022373,160696.0,181424.375,177649.078125,187071.5,169273.171875,179002.4375,690747.875,192577.90625,0.0478515625,1.01220703125,-0.018798828125,-1.9836424589157104,0.5493163466453552,-1.7700194120407104,93.33334350585938,185209.0,1.0
15:40:32.027272,160763.59375,181439.484375,177664.640625,187073.03125,169287.109375,179008.15625,690687.1875,192579.78125,0.047119140625,1.011474609375,-0.015625,-1.9836424589157104,0.7019042372703552,-1.9226073026657104,93.33334350585938,185210.0,1.0
15:40:32.037756,160803.640625,181451.375,177669.203125,187052.375,169297.125,179010.84375,690979.375,192573.609375,0.046630859375,1.009033203125,-0.014892578125,-1.9226073026657104,0.8850097060203552,-2.014159917831421,93.33334350585938,185211.0,1.0
15:40:32.037775,160737.75,181443.0625,177659.625,187029.578125,169288.359375,179010.65625,691178.75,192569.9375,0.0478515625,1.0078125,-0.017333984375,-1.8005369901657104,1.0070799589157104,-2.014159917831421,93.33334350585938,185212.0,1.0
15:40:32.050323,160686.34375,181416.6875,177644.078125,187064.984375,169266.453125,178994.203125,690810.75,192569.765625,0.046142578125,1.0068359375,-0.017822265625,-1.8615721464157104,1.0986326932907104,-1.9836424589157104,93.33334350585938,185213.0,1.0
15:40:32.050341,160733.015625,181422.859375,177649.796875,187059.609375,169269.765625,178992.515625,690671.25,192564.578125,0.048583984375,1.00634765625,-0.01416015625,-1.8005369901657104,1.1596678495407104,-1.9531248807907104,93.33334350585938,185214.0,1.0
15:40:32.052733,160792.90625,181435.46875,177656.046875,187049.328125,169281.03125,178994.65625,690920.6875,192559.9375,0.0498046875,1.00537109375,-0.0126953125,-1.6784666776657104,1.3122557401657104,-1.9226073026657104,93.33334350585938,185215.0,1.0
15:40:32.052759,160742.671875,181440.03125,177653.546875,187014.46875,169283.71875,179005.03125,691210.75,192558.859375,0.04736328125,1.0078125,-0.015869140625,-1.6479490995407104,1.3732908964157104,-1.8920897245407104,93.33334350585938,185216.0,1.0
15:40:32.077379,160696.984375,181423.125,177647.65625,187064.984375,169271.828125,178999.84375,690881.125,192571.1875,0.04638671875,1.00830078125,-0.014404296875,-1.5258787870407104,1.4038084745407104,-1.9531248807907104,93.33334350585938,185217.0,1.0
15:40:32.100930,160719.0625,181419.375,177644.875,187052.734375,169264.671875,178991.078125,690665.875,192560.640625,0.04541015625,1.008544921875,-0.01318359375,-1.4648436307907104,1.4648436307907104,-1.8920897245407104,93.33334350585938,185218.0,1.0
15:40:32.103980,160793.359375,181433.234375,177654.265625,187054.96875,169277.1875,178992.875,690852.0625,192560.203125,0.044921875,1.008544921875,-0.0146484375,-1.4343260526657104,1.6174315214157104,-1.9836424589157104,93.33334350585938,185219.0,1.0
15:40:32.104002,160750.265625,181434.84375,177649.703125,187009.09375,169276.828125,178998.234375,691191.625,192554.75,0.044189453125,1.00830078125,-0.017822265625,-1.3427733182907104,1.8005369901657104,-1.9836424589157104,93.33334350585938,185220.0,1.0
15:40:32.107125,160698.40625,181420.890625,177646.84375,187059.515625,169267.890625,178994.65625,690950.6875,192570.390625,0.04296875,1.01025390625,-0.013916015625,-1.3732908964157104,1.8310545682907104,-2.075195074081421,93.33334350585938,185221.0,1.0
15:40:32.107146,160710.65625,181419.46875,177648.453125,187059.078125,169262.4375,178990.1875,690675.8125,192567.703125,0.042724609375,1.011962890625,-0.013671875,-1.4343260526657104,1.8310545682907104,-1.9836424589157104,93.33334350585938,185222.0,1.0
15:40:32.107152,160792.28125,181432.15625,177658.828125,187063.71875,169273.25,178990.546875,690799.1875,192567.078125,0.04150390625,1.014404296875,-0.012451171875,-1.4343260526657104,1.8005369901657104,-1.9836424589157104,93.33334350585938,185223.0,1.0
15:40:32.109656,160766.1875,181436.359375,177655.703125,187016.15625,169274.953125,178995.109375,691167.5625,192560.015625,0.041748046875,1.015625,-0.0107421875,-1.4648436307907104,1.8005369901657104,-2.014159917831421,93.33334350585938,185224.0,1.0
15:40:32.120586,160701.546875,181417.40625,177646.21875,187050.046875,169259.484375,178987.6875,691016.5625,192567.53125,0.041748046875,1.014404296875,-0.014404296875,-1.4953612089157104,1.9226073026657104,-2.044677495956421,93.33334350585938,185225.0,1.0
15:40:32.120654,160702.34375,181416.875,177649.34375,187064.171875,169257.15625,178989.109375,690686.75,192569.046875,0.039794921875,1.012451171875,-0.012451171875,-1.6479490995407104,1.9836424589157104,-2.075195074081421,93.33334350585938,185226.0,1.0
15:40:32.125905,160787.375,181433.234375,177662.671875,187070.34375,169270.9375,178993.3125,690754.125,192569.59375,0.03857421875,1.01318359375,-0.0146484375,-1.6174315214157104,2.075195074081421,-2.136230230331421,93.33334350585938,185227.0,1.0
15:40:32.128423,160782.625,181441.546875,177660.078125,187025.375,169274.78125,178998.5,691119.5625,192559.390625,0.03955078125,1.01416015625,-0.014892578125,-1.6479490995407104,2.105712652206421,-2.258300542831421,93.33334350585938,185228.0,1.0
15:40:32.131012,160714.328125,181427.0625,177650.515625,187040.5625,169262.609375,178995.8125,691102.0,192563.234375,0.038818359375,1.013671875,-0.015625,-1.6479490995407104,2.105712652206421,-2.166747808456421,93.33334350585938,185229.0,1.0
15:40:32.133405,160698.859375,181420.09375,177649.703125,187066.046875,169258.140625,178993.40625,690729.1875,192569.3125,0.039306640625,1.01220703125,-0.01708984375,-1.7089842557907104,2.014159917831421,-1.9836424589157104,93.33334350585938,185230.0,1.0
15:40:32.135942,160774.5,181434.03125,177662.40625,187068.734375,169270.9375,178995.28125,690729.375,192570.921875,0.039794921875,1.01123046875,-0.01611328125,-1.6784666776657104,2.075195074081421,-2.044677495956421,93.33334350585938,185231.0,1.0
15:40:32.138380,160789.875,181438.78125,177658.46875,187032.96875,169271.640625,178992.59375,691058.6875,192560.5625,0.03759765625,1.010009765625,-0.016357421875,-1.6174315214157104,2.136230230331421,-1.9226073026657104,93.33334350585938,185232.0,1.0
15:40:32.140902,160726.578125,181429.75,177654.09375,187034.40625,169264.5,178992.59375,691155.9375,192564.578125,0.037109375,1.009521484375,-0.015380859375,-1.4953612089157104,2.166747808456421,-1.8920897245407104,93.33334350585938,185233.0,1.0
15:40:32.147139,160703.5,181422.6875,177655.96875,187077.046875,169260.015625,178992.421875,690760.9375,192575.75,0.03662109375,1.009765625,-0.013671875,-1.4648436307907104,2.227782964706421,-1.8310545682907104,93.33334350585938,185234.0,1.0
15:40:32.157146,160763.859375,181433.234375,177665.171875,187071.421875,169267.796875,178994.921875,690698.5,192570.484375,0.03369140625,1.007568359375,-0.0146484375,-1.3732908964157104,2.136230230331421,-1.7700194120407104,93.33334350585938,185235.0,1.0
15:40:32.162123,160806.859375,181448.25,177669.90625,187050.046875,169278.171875,179002.078125,690993.8125,192564.125,0.0341796875,1.011474609375,-0.01513671875,-1.4343260526657104,2.136230230331421,-1.6479490995407104,93.33334350585938,185236.0,1.0
15:40:32.164666,160742.671875,181441.09375,177660.96875,187023.84375,169269.859375,179002.703125,691200.625,192559.75,0.03125,1.011962890625,-0.014892578125,-1.3122557401657104,2.044677495956421,-1.4953612089157104,93.33334350585938,185237.0,1.0
15:40:32.173445,160701.8125,181424.5625,177654.0,187070.78125,169257.78125,178995.90625,690823.0625,192568.875,0.030029296875,1.010986328125,-0.014404296875,-1.1901854276657104,1.8310545682907104,-1.2817381620407104,93.33334350585938,185238.0,1.0
15:40:32.176491,160749.109375,181433.59375,177661.953125,187064.796875,169263.328125,178998.5,690687.625,192566.09375,0.030029296875,1.01318359375,-0.0126953125,-1.2512205839157104,1.8005369901657104,-1.2207030057907104,93.33334350585938,185239.0,1.0
15:40:32.176510,160812.671875,181450.84375,177671.609375,187058.546875,169277.90625,179004.9375,690931.25,192566.640625,0.02783203125,1.012451171875,-0.011474609375,-1.2207030057907104,1.8615721464157104,-1.0375975370407104,93.33334350585938,185240.0,1.0
15:40:32.178406,160759.65625,181451.828125,177667.140625,187022.421875,169274.59375,179010.03125,691224.0,192563.421875,0.0302734375,1.01416015625,-0.013916015625,-1.1596678495407104,1.7089842557907104,-0.7934569716453552,93.33334350585938,185241.0,1.0
15:40:32.180914,160704.9375,181428.765625,177655.515625,187069.890625,169257.515625,178996.890625,690890.0625,192569.59375,0.029052734375,1.0146484375,-0.01171875,-1.1596678495407104,1.5258787870407104,-0.5493163466453552,93.33334350585938,185242.0,1.0
15:40:32.183412,160735.328125,181434.578125,177661.0625,187065.609375,169259.9375,178999.125,690675.75,192568.609375,0.028076171875,1.014892578125,-0.01025390625,-1.1901854276657104,1.4038084745407104,-0.3967284858226776,93.33334350585938,185243.0,1.0
15:40:32.185844,160812.3125,181451.296875,177671.078125,187069.09375,169275.3125,179004.3125,690852.875,192570.03125,0.02880859375,1.015625,-0.01123046875,-1.1901854276657104,1.1596678495407104,-0.2136230319738388,93.33334350585938,185244.0,1.0
15:40:32.189067,160767.796875,181449.328125,177663.296875,187021.796875,169274.15625,179006.375,691207.875,192562.703125,0.02685546875,1.015869140625,-0.01318359375,-1.1596678495407104,0.9460448622703552,-0.1525878757238388,93.33334350585938,185245.0,1.0
15:40:32.189086,160708.78125,181429.65625,177655.25,187067.03125,169262.96875,178999.3125,690965.125,192574.859375,0.0263671875,1.014404296875,-0.014404296875,-1.1596678495407104,0.8239745497703552,0.03051757626235485,93.33334350585938,185246.0,1.0
15:40:32.190930,160717.8125,181426.796875,177655.15625,187066.3125,169260.015625,178996.4375,690678.9375,192573.609375,0.0263671875,1.013427734375,-0.01416015625,-1.1901854276657104,0.6103515028953552,0.1831054538488388,93.33334350585938,185247.0,1.0
15:40:32.195902,160803.90625,181446.015625,177669.90625,187074.8125,169276.921875,179002.875,690803.125,192577.1875,0.02490234375,1.013916015625,-0.015380859375,-1.0986326932907104,0.4577636420726776,0.3356933295726776,93.33334350585938,185248.0,1.0
15:40:32.198406,160784.78125,181455.671875,177669.90625,187030.015625,169282.546875,179012.359375,691171.125,192570.84375,0.025634765625,1.0126953125,-0.01611328125,-1.1596678495407104,0.2746581733226776,0.5798339247703552,93.33334350585938,185249.0,1.0
15:40:32.201484,160718.34375,181435.203125,177661.953125,187062.734375,169270.125,179004.3125,691026.8125,192578.53125,0.0244140625,1.01220703125,-0.0146484375,-1.1596678495407104,0.1831054538488388,0.6408690810203552,93.33334350585938,185250.0,1.0
15:40:32.201494,160715.9375,181430.28125,177663.296875,187076.875,169270.578125,179002.4375,690681.1875,192579.15625,0.0244140625,1.011962890625,-0.01416015625,-1.1596678495407104,-0.03051757626235485,0.8544921278953552,93.33334350585938,185251.0,1.0
15:40:32.203395,160796.046875,181444.140625,177673.40625,187078.5625,169285.765625,179003.234375,690749.3125,192576.296875,0.02587890625,1.01171875,-0.014404296875,-1.1596678495407104,-0.2746581733226776,0.8544921278953552,93.33334350585938,185252.0,1.0
15:40:32.206458,160792.375,181451.375,177669.28125,187033.328125,169286.21875,179005.65625,691102.5625,192564.578125,0.025634765625,1.01025390625,-0.013916015625,-1.0375975370407104,-0.4577636420726776,0.9460448622703552,93.33334350585938,185253.0,1.0
15:40:32.206473,160723.890625,181437.609375,177659.625,187046.921875,169274.234375,179004.21875,691091.3125,192567.53125,0.02880859375,1.009033203125,-0.0146484375,-0.8850097060203552,-0.6713866591453552,1.0375975370407104,93.33334350585938,185254.0,1.0
15:40:32.208470,160704.40625,181428.671875,177656.140625,187070.34375,169266.8125,179000.734375,690706.875,192568.875,0.028564453125,1.006103515625,-0.0185546875,-0.7934569716453552,-0.7324218153953552,1.0070799589157104,93.33334350585938,185255.0,1.0
15:40:32.214585,160773.953125,181437.875,177662.9375,187065.78125,169273.96875,178999.578125,690702.75,192563.15625,0.02783203125,1.005615234375,-0.01806640625,-0.8239745497703552,-0.8544921278953552,1.1596678495407104,93.33334350585938,185256.0,1.0
15:40:32.217752,160796.21875,181449.5,177664.8125,187034.484375,169278.796875,179004.84375,691033.5625,192556.53125,0.028076171875,1.005859375,-0.016357421875,-0.5798339247703552,-1.0375975370407104,1.1901854276657104,93.33334350585938,185257.0,1.0
15:40:32.217763,160730.59375,181440.203125,177660.703125,187033.59375,169270.65625,179006.546875,691145.3125,192561.546875,0.02880859375,1.006103515625,-0.016845703125,-0.3662109076976776,-1.1291502714157104,1.2817381620407104,93.33334350585938,185258.0,1.0
15:40:32.220913,160700.109375,181425.0,177655.15625,187072.578125,169258.859375,178996.984375,690749.5,192568.15625,0.028564453125,1.006591796875,-0.01806640625,-0.3051757514476776,-1.3122557401657104,1.4038084745407104,93.33334350585938,185259.0,1.0
15:40:32.236472,160765.203125,181439.125,177668.03125,187071.859375,169268.78125,178999.84375,690672.25,192567.53125,0.030029296875,1.00927734375,-0.018310546875,-0.1831054538488388,-1.3732908964157104,1.4343260526657104,93.33334350585938,185260.0,1.0
15:40:32.236498,160811.875,181454.0625,177674.46875,187056.296875,169282.015625,179005.734375,690962.625,192565.296875,0.030517578125,1.007568359375,-0.0185546875,-0.1220703050494194,-1.3732908964157104,1.4343260526657104,93.33334350585938,185261.0,1.0
15:40:32.238770,160744.453125,181442.703125,177662.484375,187026.703125,169268.96875,179001.625,691177.0625,192557.6875,0.0322265625,1.0087890625,-0.01611328125,-0.0610351525247097,-1.4343260526657104,1.3732908964157104,93.33334350585938,185262.0,1.0
15:40:32.246902,160699.484375,181423.21875,177652.65625,187072.125,169253.046875,178990.359375,690804.9375,192563.59375,0.0341796875,1.009521484375,-0.016357421875,0.1220703050494194,-1.5869139432907104,1.4038084745407104,93.33334350585938,185263.0,1.0
15:40:32.246972,160741.421875,181429.46875,177657.390625,187064.984375,169256.625,178991.078125,690649.25,192558.859375,0.0341796875,1.0078125,-0.017578125,0.1831054538488388,-1.6479490995407104,1.4343260526657104,93.33334350585938,185264.0,1.0
15:40:32.248405,160801.5,181440.65625,177661.328125,187059.171875,169265.484375,178992.0625,690874.375,192557.34375,0.036865234375,1.007568359375,-0.019287109375,0.1525878757238388,-1.5258787870407104,1.3732908964157104,93.33334350585938,185265.0,1.0
15:40:32.255913,160741.6875,181433.046875,177647.5625,187014.46875,169254.125,178990.984375,691167.0,192548.3125,0.036376953125,1.00830078125,-0.01953125,0.1220703050494194,-1.6174315214157104,1.3122557401657104,93.33334350585938,185266.0,1.0
15:40:32.260432,160688.3125,181411.6875,177636.828125,187061.765625,169236.859375,178981.515625,690854.125,192555.28125,0.037841796875,1.009765625,-0.016845703125,0.03051757626235485,-1.5563963651657104,1.3427733182907104,93.33334350585938,185267.0,1.0
15:40:32.260501,160717.0,181416.25,177640.40625,187057.28125,169237.5,178981.609375,690634.3125,192550.71875,0.037841796875,1.01416015625,-0.016845703125,0.1525878757238388,-1.6174315214157104,1.3122557401657104,93.33334350585938,185268.0,1.0
15:40:32.261078,160795.5,181431.53125,177651.5,187061.671875,169251.53125,178983.921875,690818.0625,192551.609375,0.04052734375,1.013671875,-0.018798828125,0.1525878757238388,-1.6479490995407104,1.3122557401657104,93.33334350585938,185269.0,1.0
15:40:32.274721,160750.71875,181430.28125,177644.609375,187011.15625,169248.3125,178986.25,691158.6875,192542.578125,0.04052734375,1.015869140625,-0.017578125,0.2441406100988388,-1.5258787870407104,1.2817381620407104,93.33334350585938,185270.0,1.0
15:40:32.277707,160691.703125,181411.59375,177636.109375,187055.40625,169234.0,178979.09375,690937.0625,192552.953125,0.04052734375,1.01513671875,-0.01708984375,0.0915527269244194,-1.4343260526657104,1.4038084745407104,93.33334350585938,185271.0,1.0
15:40:32.277720,160704.40625,181415.96875,177640.40625,187059.703125,169235.171875,178983.125,690653.375,192553.9375,0.03955078125,1.01318359375,-0.0224609375,0.2136230319738388,-1.2512205839157104,1.3732908964157104,93.33334350585938,185272.0,1.0
15:40:32.280205,160793.1875,181437.4375,177657.75,187070.078125,169255.46875,178992.0625,690773.875,192560.828125,0.0419921875,1.01318359375,-0.019287109375,0.1220703050494194,-1.2817381620407104,1.3732908964157104,93.33334350585938,185273.0,1.0
15:40:32.280221,160769.578125,181437.875,177650.421875,187020.265625,169254.21875,178992.59375,691133.3125,192550.1875,0.0400390625,1.013916015625,-0.0185546875,0.1220703050494194,-1.2207030057907104,1.3122557401657104,93.33334350585938,185274.0,1.0
15:40:32.285927,160700.921875,181414.71875,177636.296875,187048.609375,169237.5,178981.78125,691012.1875,192553.9375,0.03955078125,1.013916015625,-0.0205078125,-0.03051757626235485,-1.2207030057907104,1.2817381620407104,93.33334350585938,185275.0,1.0
15:40:32.296470,160694.75,181409.984375,177635.9375,187064.34375,169233.640625,178980.96875,690674.125,192556.984375,0.0400390625,1.01416015625,-0.021240234375,-0.1831054538488388,-1.1596678495407104,1.2817381620407104,93.33334350585938,185276.0,1.0
15:40:32.296496,160775.03125,181424.375,177648.71875,187071.234375,169246.796875,178983.921875,690730.0,192556.359375,0.038818359375,1.016845703125,-0.02001953125,-0.2136230319738388,-1.0986326932907104,1.2207030057907104,93.33334350585938,185277.0,1.0
15:40:32.299011,160777.359375,181432.78125,177648.0,187032.796875,169252.328125,178987.59375,691085.375,192546.96875,0.039306640625,1.018310546875,-0.019287109375,-0.3662109076976776,-1.0986326932907104,1.0070799589157104,93.33334350585938,185278.0,1.0
15:40:32.299022,160708.875,181417.40625,177638.171875,187044.6875,169240.625,178981.328125,691087.625,192550.8125,0.038330078125,1.01806640625,-0.0185546875,-0.5493163466453552,-0.9155272841453552,0.8239745497703552,93.33334350585938,185279.0,1.0
15:40:32.303398,160686.515625,181404.796875,177633.25,187070.34375,169230.703125,178973.640625,690711.5,192554.203125,0.038330078125,1.016357421875,-0.0205078125,-0.6103515028953552,-0.9460448622703552,0.7019042372703552,93.33334350585938,185280.0,1.0
15:40:32.307142,160763.5,181421.34375,177647.921875,187073.296875,169244.640625,178978.5625,690696.5,192556.078125,0.037841796875,1.015869140625,-0.021484375,-0.7019042372703552,-1.0375975370407104,0.5798339247703552,93.33334350585938,185281.0,1.0
15:40:32.317201,160792.46875,181435.015625,177652.828125,187043.34375,169255.109375,178983.75,691020.0625,192551.25,0.037841796875,1.014404296875,-0.021484375,-0.8239745497703552,-0.8850097060203552,0.3356933295726776,93.33334350585938,185282.0,1.0
15:40:32.324023,160724.96875,181424.203125,177643.984375,187032.078125,169244.46875,178982.3125,691142.0,192550.28125,0.03955078125,1.013427734375,-0.021728515625,-0.9460448622703552,-0.9155272841453552,0.2746581733226776,93.33334350585938,185283.0,1.0
15:40:32.324039,160691.890625,181410.703125,177638.171875,187071.859375,169232.9375,178976.0625,690754.5625,192557.15625,0.0400390625,1.014404296875,-0.021240234375,-1.0070799589157104,-0.8239745497703552,0.2136230319738388,93.33334350585938,185284.0,1.0
15:40:32.325873,160753.3125,181423.3125,177648.90625,187070.609375,169243.65625,178981.515625,690679.125,192555.90625,0.040283203125,1.01611328125,-0.022216796875,-1.1291502714157104,-0.7934569716453552,0.2441406100988388,93.33334350585938,185285.0,1.0
15:40:32.333434,160800.15625,181437.609375,177655.875,187054.6875,169256.265625,178988.125,690966.125,192552.953125,0.039306640625,1.017578125,-0.022216796875,-1.1291502714157104,-0.7324218153953552,0.1525878757238388,93.33334350585938,185286.0,1.0
15:40:32.337801,160736.59375,181432.6875,177650.328125,187027.875,169251.625,178990.984375,691186.875,192550.453125,0.04150390625,1.0185546875,-0.02099609375,-1.2817381620407104,-0.6713866591453552,0.1831054538488388,93.33334350585938,185287.0,1.0
15:40:32.337822,160694.5625,181414.28125,177643.625,187075.265625,169240.265625,178983.65625,690824.6875,192559.75,0.04150390625,1.017333984375,-0.018310546875,-1.4038084745407104,-0.5493163466453552,0.0610351525247097,93.33334350585938,185288.0,1.0
15:40:32.344619,160737.84375,181419.375,177648.640625,187068.015625,169244.203125,178982.859375,690667.25,192554.75,0.04052734375,1.0146484375,-0.01904296875,-1.4038084745407104,-0.4577636420726776,0.03051757626235485,93.33334350585938,185289.0,1.0
15:40:32.352743,160801.671875,181432.421875,177655.96875,187062.203125,169255.546875,178986.25,690904.4375,192551.609375,0.039794921875,1.013671875,-0.0224609375,-1.5258787870407104,-0.3356933295726776,0.0915527269244194,93.33334350585938,185290.0,1.0
15:40:32.352755,160741.765625,181424.921875,177643.265625,187017.40625,169247.234375,178983.921875,691197.125,192542.671875,0.040771484375,1.01123046875,-0.02294921875,-1.6784666776657104,-0.2746581733226776,0.1220703050494194,93.33334350585938,185291.0,1.0
15:40:32.355158,160689.921875,181404.359375,177633.34375,187068.109375,169232.3125,178972.484375,690878.625,192552.859375,0.039306640625,1.0107421875,-0.0205078125,-1.6479490995407104,-0.1525878757238388,0.2136230319738388,93.33334350585938,185292.0,1.0
15:40:32.355169,160718.4375,181410.609375,177640.3125,187064.4375,169235.25,178975.25,690659.9375,192550.90625,0.0400390625,1.013671875,-0.01953125,-1.8005369901657104,-0.1525878757238388,0.0610351525247097,93.33334350585938,185293.0,1.0
15:40:32.362149,160797.203125,181427.859375,177652.75,187067.484375,169250.375,178981.25,690841.5625,192551.171875,0.040283203125,1.0146484375,-0.019287109375,-1.8310545682907104,-0.1525878757238388,0.1220703050494194,93.33334350585938,185294.0,1.0
15:40:32.378201,160758.5,181430.1875,177647.109375,187017.6875,169248.125,178986.609375,691189.375,192541.59375,0.039794921875,1.015625,-0.01708984375,-1.8615721464157104,-0.03051757626235485,0.0,93.33334350585938,185295.0,1.0
15:40:32.378223,160699.390625,181410.609375,177636.921875,187060.234375,169234.0,178979.28125,690965.6875,192549.734375,0.0380859375,1.01513671875,-0.016845703125,-1.9226073026657104,0.0610351525247097,-0.03051757626235485,93.33334350585938,185296.0,1.0
15:40:32.379658,160707.34375,181408.28125,177637.546875,187063.453125,169230.4375,178976.78125,690672.3125,192547.859375,0.036865234375,1.015625,-0.01708984375,-2.044677495956421,0.0610351525247097,-0.03051757626235485,93.33334350585938,185297.0,1.0
15:40:32.382181,160782.625,181416.421875,177643.0,187064.890625,169239.453125,178972.75,690777.625,192544.28125,0.0341796875,1.014892578125,-0.018310546875,-2.075195074081421,-0.0610351525247097,0.0610351525247097,93.33334350585938,185298.0,1.0
15:40:32.387198,160765.640625,181423.84375,177642.015625,187019.640625,169243.296875,178979.359375,691148.0,192538.46875,0.035400390625,1.013671875,-0.018310546875,-2.197265386581421,0.0915527269244194,0.03051757626235485,93.33334350585938,185299.0,1.0
15:40:32.389675,160701.359375,181405.6875,177632.453125,187050.5,169230.78125,178974.09375,691041.875,192546.703125,0.037109375,1.0146484375,-0.016845703125,-2.258300542831421,0.0915527269244194,0.0610351525247097,93.33334350585938,185300.0,1.0
15:40:32.392163,160694.5625,181399.796875,177629.671875,187063.8125,169223.640625,178969.359375,690693.4375,192547.234375,0.036376953125,1.013916015625,-0.017333984375,-2.227782964706421,0.0915527269244194,0.0915527269244194,93.33334350585938,185301.0,1.0
15:40:32.396620,160774.046875,181414.453125,177640.40625,187066.9375,169233.734375,178970.96875,690731.9375,192546.078125,0.03515625,1.013916015625,-0.015869140625,-2.197265386581421,-0.03051757626235485,0.0610351525247097,93.33334350585938,185302.0,1.0
15:40:32.396631,160779.328125,181425.625,177641.484375,187026.984375,169239.640625,178976.78125,691092.4375,192539.359375,0.03369140625,1.013427734375,-0.01904296875,-2.319335699081421,0.0,0.03051757626235485,93.33334350585938,185303.0,1.0
15:40:32.407005,160707.171875,181408.90625,177630.484375,187034.40625,169226.234375,178970.6875,691106.125,192540.4375,0.0322265625,1.01171875,-0.01611328125,-2.319335699081421,0.0610351525247097,0.03051757626235485,93.33334350585938,185304.0,1.0
15:40:32.415226,160684.1875,181397.015625,177624.578125,187059.25,169217.109375,178965.59375,690719.1875,192542.3125,0.0322265625,1.0126953125,-0.018310546875,-2.349853277206421,0.0915527269244194,0.0,93.33334350585938,185305.0,1.0
15:40:32.415245,160759.65625,181415.53125,177639.96875,187060.421875,169231.859375,178973.375,690707.125,192542.9375,0.031982421875,1.0126953125,-0.0166015625,-2.349853277206421,-0.0610351525247097,0.0,93.33334350585938,185306.0,1.0
15:40:32.417809,160787.375,181429.296875,177644.34375,187031.0,169241.0625,178978.734375,691031.375,192536.5,0.031982421875,1.01318359375,-0.017578125,-2.288818120956421,-0.03051757626235485,-0.03051757626235485,93.33334350585938,185307.0,1.0
15:40:32.417828,160716.296875,181416.515625,177632.265625,187018.125,169228.28125,178974.8125,691163.0,192532.296875,0.031982421875,1.01416015625,-0.015625,-2.288818120956421,-0.0915527269244194,0.03051757626235485,93.33334350585938,185308.0,1.0
15:40:32.462359,160684.1875,181403.015625,177626.640625,187058.359375,169217.375,178970.25,690774.5,192538.03125,0.03271484375,1.013671875,-0.015625,-2.227782964706421,-0.1220703050494194,-0.0610351525247097,93.33334350585938,185309.0,1.0
15:40:32.465822,160746.0625,181415.34375,177639.515625,187055.59375,169226.9375,178974.8125,690688.875,192537.578125,0.033935546875,1.01416015625,-0.013427734375,-2.166747808456421,-0.1831054538488388,-0.0610351525247097,93.33334350585938,185310.0,1.0
15:40:32.465833,160793.453125,181427.234375,177643.890625,187039.3125,169237.21875,178977.40625,690965.5625,192533.734375,0.033935546875,1.010498046875,-0.015380859375,-2.075195074081421,-0.1831054538488388,0.0,93.33334350585938,185311.0,1.0
15:40:32.465837,160729.171875,181418.75,177633.875,187009.546875,169229.453125,178978.390625,691205.125,192530.6875,0.03369140625,1.0107421875,-0.016357421875,-2.075195074081421,-0.1525878757238388,0.0915527269244194,93.33334350585938,185312.0,1.0
15:40:32.469551,160679.359375,181395.046875,177621.8125,187053.171875,169214.0625,178966.671875,690835.3125,192538.46875,0.03271484375,1.011474609375,-0.017578125,-2.044677495956421,-0.2746581733226776,0.0915527269244194,93.33334350585938,185313.0,1.0
15:40:32.469585,160718.53125,181400.78125,177627.796875,187046.5625,169218.1875,178967.125,690676.1875,192535.171875,0.03369140625,1.01171875,-0.02001953125,-1.9226073026657104,-0.1525878757238388,0.03051757626235485,93.33334350585938,185314.0,1.0
15:40:32.469596,160784.15625,181413.5625,177634.6875,187039.859375,169229.453125,178969.4375,690902.5625,192532.65625,0.0361328125,1.011962890625,-0.018310546875,-1.8615721464157104,-0.2136230319738388,0.0610351525247097,93.33334350585938,185315.0,1.0
15:40:32.477124,160731.9375,181413.296875,177628.0625,186996.578125,169226.5,178973.28125,691210.3125,192525.953125,0.035888671875,1.01025390625,-0.017822265625,-1.7395018339157104,-0.2441406100988388,0.1831054538488388,93.33334350585938,185316.0,1.0
15:40:32.477198,160680.171875,181395.046875,177621.09375,187047.359375,169214.609375,178966.046875,690906.9375,192536.0625,0.03515625,1.01123046875,-0.017578125,-1.6784666776657104,-0.1831054538488388,0.0915527269244194,93.33334350585938,185317.0,1.0
15:40:32.477202,160700.921875,181394.78125,177622.609375,187040.484375,169212.8125,178963.28125,690669.5,192529.703125,0.036376953125,1.01171875,-0.013671875,-1.6174315214157104,-0.1525878757238388,0.03051757626235485,93.33334350585938,185318.0,1.0
15:40:32.480114,160780.046875,181409.984375,177634.0625,187045.578125,169227.65625,178967.65625,690838.125,192531.671875,0.0361328125,1.013427734375,-0.017333984375,-1.5258787870407104,-0.1831054538488388,0.0610351525247097,93.33334350585938,185319.0,1.0
15:40:32.482144,160741.953125,181410.875,177627.53125,186995.5,169225.875,178971.234375,691194.125,192523.90625,0.03564453125,1.014404296875,-0.01611328125,-1.4648436307907104,-0.0915527269244194,0.0915527269244194,93.33334350585938,185320.0,1.0
15:40:32.484640,160679.015625,181390.3125,177615.828125,187034.484375,169209.78125,178962.640625,690976.5,192532.03125,0.03564453125,1.012451171875,-0.019775390625,-1.4953612089157104,-0.1525878757238388,-0.0915527269244194,93.33334350585938,185321.0,1.0
15:40:32.487121,160683.484375,181386.203125,177614.484375,187036.09375,169203.703125,178958.171875,690672.875,192529.265625,0.035888671875,1.013427734375,-0.020751953125,-1.5563963651657104,0.0,-0.0610351525247097,93.33334350585938,185322.0,1.0
15:40:32.520975,160769.578125,181404.890625,177630.578125,187046.296875,169221.75,178964.4375,690787.6875,192534.1875,0.036376953125,1.013671875,-0.019775390625,-1.5869139432907104,0.1525878757238388,0.0,93.33334350585938,185323.0,1.0
15:40:32.523392,160755.0,181412.40625,177629.859375,187001.671875,169225.953125,178970.78125,691152.5625,192527.390625,0.037353515625,1.012939453125,-0.01953125,-1.5869139432907104,0.2136230319738388,0.0,93.33334350585938,185324.0,1.0
15:40:32.525886,160691.703125,181394.875,177622.265625,187031.0,169212.90625,178965.328125,691051.0625,192534.09375,0.038818359375,1.01513671875,-0.018310546875,-1.6784666776657104,0.1831054538488388,-0.1831054538488388,93.33334350585938,185325.0,1.0
15:40:32.528367,160677.671875,181383.96875,177616.625,187043.609375,169203.609375,178958.71875,690694.125,192532.65625,0.037841796875,1.013427734375,-0.019287109375,-1.7700194120407104,0.3051757514476776,-0.1831054538488388,93.33334350585938,185326.0,1.0
15:40:32.530902,160755.0,181395.6875,177625.65625,187045.046875,169214.6875,178960.0625,690734.75,192531.140625,0.037353515625,1.01513671875,-0.0185546875,-1.8310545682907104,0.3967284858226776,-0.3051757514476776,93.33334350585938,185327.0,1.0
15:40:32.533330,160762.96875,181407.75,177628.515625,187008.375,169224.0,178969.078125,691093.0,192526.9375,0.037353515625,1.017333984375,-0.02099609375,-1.9836424589157104,0.4577636420726776,-0.3662109076976776,93.33334350585938,185328.0,1.0
15:40:32.535911,160694.125,181393.625,177620.734375,187017.5,169214.15625,178967.03125,691115.6875,192529.796875,0.038818359375,1.015625,-0.02099609375,-2.075195074081421,0.6103515028953552,-0.3356933295726776,93.33334350585938,185329.0,1.0
15:40:32.538380,160671.40625,181382.53125,177615.734375,187045.484375,169205.484375,178962.296875,690719.125,192532.578125,0.03759765625,1.014892578125,-0.021240234375,-2.258300542831421,0.7629393935203552,-0.3967284858226776,93.33334350585938,185330.0,1.0
15:40:32.540936,160743.921875,181399.4375,177630.578125,187045.390625,169218.984375,178966.765625,690704.9375,192533.5625,0.036865234375,1.017578125,-0.020263671875,-2.380370855331421,0.7324218153953552,-0.4882812201976776,93.33334350585938,185331.0,1.0
15:40:32.543368,160777.53125,181416.15625,177639.25,187020.359375,169234.28125,178977.84375,691030.0625,192531.40625,0.036865234375,1.017822265625,-0.020263671875,-2.441406011581421,0.8239745497703552,-0.4577636420726776,93.33334350585938,185332.0,1.0
15:40:32.545935,160712.71875,181409.625,177634.328125,187009.90625,169230.609375,178981.515625,691171.25,192532.921875,0.035888671875,1.01904296875,-0.02099609375,-2.593993902206421,0.9155272841453552,-0.5493163466453552,93.33334350585938,185333.0,1.0
15:40:32.548417,160687.59375,181404.0,177636.75,187057.828125,169229.0,178982.40625,690782.375,192546.34375,0.036865234375,1.01953125,-0.02001953125,-2.868652105331421,1.0986326932907104,-0.5493163466453552,93.33334350585938,185334.0,1.0
15:40:32.551377,160746.515625,181416.875,177648.09375,187053.171875,169238.390625,178985.984375,690690.9375,192545.625,0.03662109375,1.02197265625,-0.0205078125,-3.082275152206421,1.1901854276657104,-0.5187987685203552,93.33334350585938,185335.0,1.0
15:40:32.553349,160791.125,181425.453125,177647.03125,187034.40625,169245.09375,178985.09375,690962.5625,192538.296875,0.034423828125,1.0224609375,-0.01953125,-3.295898199081421,1.1901854276657104,-0.4577636420726776,93.33334350585938,185336.0,1.0
15:40:32.556619,160728.90625,181420.890625,177637.640625,187003.015625,169238.5625,178987.6875,691202.9375,192533.5625,0.035400390625,1.022705078125,-0.01708984375,-3.601073980331421,1.2207030057907104,-0.4882812201976776,93.33334350585938,185337.0,1.0
15:40:32.556640,160687.40625,181407.484375,177636.828125,187055.765625,169233.296875,178984.546875,690832.375,192548.03125,0.036376953125,1.025146484375,-0.016845703125,-3.784179449081421,1.3122557401657104,-0.3662109076976776,93.33334350585938,185338.0,1.0
15:40:32.559015,160731.3125,181415.890625,177648.640625,187055.046875,169240.359375,178986.609375,690669.1875,192548.484375,0.03369140625,1.0244140625,-0.017578125,-4.028319835662842,1.4343260526657104,-0.3356933295726776,93.33334350585938,185339.0,1.0
15:40:32.559039,160802.75,181430.1875,177657.75,187056.75,169249.921875,178986.34375,690896.625,192547.6875,0.035400390625,1.025146484375,-0.018310546875,-4.272460460662842,1.5258787870407104,-0.3662109076976776,93.33334350585938,185340.0,1.0
15:40:32.560853,160753.390625,181431.265625,177654.171875,187016.25,169249.03125,178990.28125,691210.125,192542.765625,0.035888671875,1.02490234375,-0.019287109375,-4.486083507537842,1.5258787870407104,-0.2136230319738388,93.33334350585938,185341.0,1.0
15:40:32.563528,160702.875,181414.8125,177651.046875,187068.640625,169241.421875,178985.265625,690912.5625,192556.71875,0.035400390625,1.02490234375,-0.0185546875,-4.638671398162842,1.5258787870407104,-0.1831054538488388,93.33334350585938,185342.0,1.0
15:40:32.566463,160729.34375,181419.1875,177657.84375,187067.921875,169245.625,178987.0625,690670.375,192558.140625,0.034912109375,1.0234375,-0.0146484375,-4.852294445037842,1.6479490995407104,-0.2136230319738388,93.33334350585938,185343.0,1.0
15:40:32.566479,160806.140625,181430.546875,177666.78125,187072.046875,169258.5,178985.890625,690820.125,192557.96875,0.03515625,1.02392578125,-0.01708984375,-5.126952648162842,1.6479490995407104,-0.2136230319738388,93.33334350585938,185344.0,1.0
15:40:32.568398,160769.75,181429.03125,177660.703125,187024.828125,169255.546875,178986.15625,691186.4375,192549.109375,0.03515625,1.023681640625,-0.019287109375,-5.401610851287842,1.7395018339157104,-0.0915527269244194,93.33334350585938,185345.0,1.0
15:40:32.570975,160707.984375,181408.203125,177651.5,187067.125,169242.859375,178978.296875,690979.4375,192559.296875,0.034912109375,1.02294921875,-0.019287109375,-5.584716320037842,1.8005369901657104,-0.0915527269244194,93.33334350585938,185346.0,1.0
15:40:32.575228,160714.328125,181408.203125,177652.75,187073.65625,169241.25,178978.734375,690673.3125,192561.71875,0.0341796875,1.02294921875,-0.01708984375,-5.737304210662842,1.8615721464157104,0.0,93.33334350585938,185347.0,1.0
15:40:32.575243,160795.59375,181422.5,177661.421875,187078.296875,169251.53125,178980.625,690769.6875,192560.640625,0.033447265625,1.021484375,-0.0185546875,-6.011962413787842,1.8615721464157104,0.1220703050494194,93.33334350585938,185348.0,1.0
15:40:32.590287,160772.796875,181423.84375,177651.578125,187025.640625,169247.5,178981.25,691145.125,192545.890625,0.03271484375,1.02001953125,-0.01513671875,-6.042479991912842,1.9531248807907104,0.0610351525247097,93.33334350585938,185349.0,1.0
15:40:32.590308,160709.859375,181409.09375,177644.609375,187053.625,169235.609375,178977.9375,691059.3125,192552.0625,0.0341796875,1.021728515625,-0.013916015625,-6.134032726287842,1.8615721464157104,0.1220703050494194,93.33334350585938,185350.0,1.0
15:40:32.592745,160704.9375,181406.671875,177646.390625,187074.1875,169232.75,178978.296875,690699.0625,192555.640625,0.034912109375,1.018310546875,-0.013916015625,-6.225585460662842,1.8310545682907104,0.1525878757238388,93.33334350585938,185351.0,1.0
15:40:32.592758,160780.9375,181418.296875,177656.046875,187074.453125,169242.40625,178977.21875,690738.6875,192552.15625,0.036376953125,1.01806640625,-0.013916015625,-6.317138195037842,1.9836424589157104,0.3051757514476776,93.33334350585938,185352.0,1.0
15:40:32.594684,160782.90625,181422.765625,177651.140625,187031.0,169243.9375,178976.5,691088.8125,192541.15625,0.03662109375,1.01806640625,-0.01318359375,-6.500243663787842,2.105712652206421,0.3356933295726776,93.33334350585938,185353.0,1.0
15:40:32.607345,160715.21875,181408.28125,177642.640625,187039.5,169232.3125,178972.578125,691125.375,192545.359375,0.037841796875,1.016845703125,-0.013671875,-6.561278820037842,2.166747808456421,0.2136230319738388,93.33334350585938,185354.0,1.0
15:40:32.610902,160693.9375,181398.625,177640.140625,187072.390625,169223.71875,178967.65625,690734.5625,192551.703125,0.037353515625,1.01708984375,-0.012939453125,-6.591796398162842,2.197265386581421,0.1831054538488388,93.33334350585938,185355.0,1.0
15:40:32.614003,160765.015625,181411.421875,177651.140625,187070.25,169235.25,178971.859375,690710.125,192552.15625,0.036865234375,1.015625,-0.01318359375,-6.591796398162842,2.258300542831421,0.2441406100988388,93.33334350585938,185356.0,1.0
15:40:32.614016,160791.125,181418.75,177650.421875,187040.03125,169241.34375,178972.84375,691029.6875,192544.46875,0.0341796875,1.014892578125,-0.0126953125,-6.469726085662842,2.288818120956421,0.2746581733226776,93.33334350585938,185357.0,1.0
15:40:32.615954,160723.171875,181408.90625,177641.03125,187027.0625,169230.703125,178971.59375,691181.5,192542.9375,0.03369140625,1.013671875,-0.01123046875,-6.591796398162842,2.319335699081421,0.3967284858226776,93.33334350585938,185358.0,1.0
15:40:32.620197,160688.578125,181394.515625,177634.5,187071.765625,169218.625,178965.78125,690780.8125,192550.71875,0.034912109375,1.012451171875,-0.01025390625,-6.469726085662842,2.349853277206421,0.3662109076976776,93.33334350585938,185359.0,1.0
15:40:32.629000,160744.1875,181405.609375,177644.078125,187069.265625,169225.0625,178969.0,690678.5,192548.75,0.03564453125,1.010986328125,-0.00830078125,-6.317138195037842,2.349853277206421,0.4272460639476776,93.33334350585938,185360.0,1.0
15:40:32.629029,160797.03125,181419.375,177651.046875,187055.40625,169235.53125,178972.296875,690948.625,192545.171875,0.0341796875,1.009033203125,-0.007080078125,-6.317138195037842,2.319335699081421,0.3662109076976776,93.33334350585938,185361.0,1.0
15:40:32.634672,160737.296875,181416.421875,177644.96875,187022.234375,169231.40625,178976.328125,691209.875,192542.5,0.033935546875,1.009521484375,-0.005859375,-6.225585460662842,2.288818120956421,0.3051757514476776,93.33334350585938,185362.0,1.0
15:40:32.641491,160690.8125,181398.359375,177638.171875,187067.921875,169218.890625,178969.625,690847.125,192550.8125,0.03466796875,1.007568359375,-0.0068359375,-6.164550304412842,2.380370855331421,0.4882812201976776,93.33334350585938,185363.0,1.0
15:40:32.641508,160732.03125,181408.015625,177649.703125,187067.125,169227.125,178974.8125,690674.8125,192551.53125,0.03271484375,1.0087890625,-0.008056640625,-6.134032726287842,2.319335699081421,0.4272460639476776,93.33334350585938,185364.0,1.0
15:40:32.651509,160798.640625,181419.734375,177657.84375,187063.90625,169239.640625,178975.875,690891.9375,192550.09375,0.030517578125,1.008544921875,-0.007568359375,-6.011962413787842,2.319335699081421,0.4577636420726776,93.33334350585938,185365.0,1.0
15:40:32.651542,160747.578125,181418.390625,177650.328125,187017.234375,169236.515625,178978.03125,691208.625,192542.765625,0.031982421875,1.008056640625,-0.005615234375,-5.920409679412842,2.288818120956421,0.3967284858226776,93.33334350585938,185366.0,1.0
15:40:32.653507,160692.328125,181396.390625,177640.234375,187064.796875,169221.21875,178967.390625,690916.5,192551.96875,0.03173828125,1.0087890625,-0.0048828125,-5.798339366912842,2.197265386581421,0.4577636420726776,93.33334350585938,185367.0,1.0
15:40:32.659689,160711.640625,181397.734375,177642.546875,187062.296875,169220.0625,178966.9375,690666.3125,192548.3125,0.030029296875,1.009521484375,-0.00341796875,-5.676269054412842,2.075195074081421,0.5493163466453552,93.33334350585938,185368.0,1.0
15:40:32.667679,160789.609375,181412.671875,177651.046875,187063.28125,169232.9375,178969.890625,690822.25,192546.96875,0.030517578125,1.008544921875,-0.00634765625,-5.584716320037842,2.075195074081421,0.5493163466453552,93.33334350585938,185369.0,1.0
15:40:32.667700,160754.015625,181416.0625,177644.4375,187009.28125,169231.6875,178974.265625,691179.1875,192536.5,0.030029296875,1.010009765625,-0.0078125,-5.493163585662842,1.9226073026657104,0.5493163466453552,93.33334350585938,185370.0,1.0
15:40:32.671505,160693.765625,181397.921875,177635.9375,187048.171875,169219.515625,178967.5625,690982.375,192544.546875,0.028076171875,1.0107421875,-0.0048828125,-5.462646007537842,1.8920897245407104,0.5493163466453552,93.33334350585938,185371.0,1.0
15:40:32.671522,160700.015625,181395.5,177638.796875,187054.15625,169218.453125,178966.3125,690669.75,192543.390625,0.029541015625,1.010009765625,-0.00390625,-5.401610851287842,1.8615721464157104,0.5493163466453552,93.33334350585938,185372.0,1.0
15:40:32.696079,160784.515625,181411.765625,177655.078125,187062.03125,169235.171875,178970.25,690755.5,192546.78125,0.03076171875,1.00927734375,-0.00732421875,-5.371093273162842,1.8005369901657104,0.6713866591453552,93.33334350585938,185373.0,1.0
15:40:32.699546,160772.53125,181421.34375,177655.609375,187018.9375,169241.609375,178977.046875,691125.4375,192541.328125,0.028564453125,1.00927734375,-0.0068359375,-5.279540538787842,1.6784666776657104,0.8239745497703552,93.33334350585938,185374.0,1.0
15:40:32.699565,160709.3125,181404.796875,177646.578125,187045.9375,169229.453125,178971.40625,691051.0,192547.234375,0.029052734375,1.00927734375,-0.004150390625,-5.157470226287842,1.5258787870407104,0.8544921278953552,93.33334350585938,185375.0,1.0
15:40:32.699572,160696.890625,181394.609375,177641.484375,187061.3125,169220.0625,178965.0625,690692.375,192546.25,0.02783203125,1.008544921875,-0.004150390625,-5.157470226287842,1.4343260526657104,0.9460448622703552,93.33334350585938,185376.0,1.0
15:40:32.703059,160773.515625,181406.140625,177652.828125,187063.8125,169230.96875,178967.296875,690726.5,192544.46875,0.029296875,1.0087890625,-0.005126953125,-5.065917491912842,1.2512205839157104,0.9765624403953552,93.33334350585938,185377.0,1.0
15:40:32.703079,160784.953125,181418.203125,177654.890625,187029.484375,169239.734375,178974.984375,691076.5625,192540.0,0.02978515625,1.01025390625,-0.003662109375,-5.035399913787842,1.0986326932907104,1.0070799589157104,93.33334350585938,185378.0,1.0
15:40:32.704963,160723.359375,181410.609375,177652.75,187041.015625,169235.53125,178978.390625,691122.125,192548.84375,0.02880859375,1.010498046875,-0.00146484375,-4.974364757537842,0.9460448622703552,1.0681151151657104,93.33334350585938,185379.0,1.0
15:40:32.707217,160696.359375,181395.40625,177644.96875,187068.734375,169222.46875,178970.0625,690724.4375,192548.9375,0.029052734375,1.01025390625,-0.00244140625,-4.913329601287842,0.9155272841453552,1.1596678495407104,93.33334350585938,185380.0,1.0
15:40:32.709632,160758.765625,181403.453125,177651.3125,187061.046875,169228.28125,178968.015625,690691.3125,192542.765625,0.030029296875,1.011474609375,0.00048828125,-4.852294445037842,0.7324218153953552,1.3122557401657104,93.33334350585938,185381.0,1.0
15:40:32.713510,160788.4375,181413.5625,177652.203125,187035.203125,169235.609375,178971.328125,691002.9375,192538.03125,0.030029296875,1.011474609375,-0.0009765625,-4.882812023162842,0.6103515028953552,1.3427733182907104,93.33334350585938,185382.0,1.0
15:40:32.720988,160721.484375,181403.734375,177642.546875,187020.546875,169226.234375,178969.625,691158.5,192537.3125,0.028564453125,1.012939453125,0.00048828125,-4.821776866912842,0.4577636420726776,1.4648436307907104,93.33334350585938,185383.0,1.0
15:40:32.734477,160686.078125,181387.8125,177636.921875,187065.25,169214.609375,178961.390625,690781.875,192545.53125,0.0302734375,1.0126953125,0.001708984375,-4.730224132537842,0.3356933295726776,1.4953612089157104,93.33334350585938,185384.0,1.0
15:40:32.734563,160740.703125,181397.828125,177648.0,187060.15625,169222.734375,178963.359375,690666.625,192544.28125,0.028076171875,1.011962890625,0.0029296875,-4.638671398162842,0.1831054538488388,1.6479490995407104,93.33334350585938,185385.0,1.0
15:40:32.737092,160796.765625,181413.921875,177655.78125,187050.40625,169236.15625,178969.171875,690932.75,192543.65625,0.027587890625,1.01318359375,0.00390625,-4.760741710662842,0.0610351525247097,1.7089842557907104,93.33334350585938,185386.0,1.0
15:40:32.737117,160733.015625,181405.875,177643.265625,187012.9375,169224.890625,178968.015625,691187.4375,192535.171875,0.029296875,1.010986328125,0.000732421875,-4.760741710662842,-0.0610351525247097,1.7700194120407104,93.33334350585938,185387.0,1.0
15:40:32.737122,160683.484375,181383.78125,177631.109375,187059.609375,169206.375,178956.484375,690829.3125,192540.96875,0.027587890625,1.01416015625,0.0009765625,-4.699706554412842,-0.1831054538488388,1.8920897245407104,93.33334350585938,185388.0,1.0
15:40:32.739625,160719.25,181390.671875,177638.078125,187055.328125,169210.578125,178958.0,690641.0625,192537.75,0.0302734375,1.01220703125,0.001953125,-4.638671398162842,-0.3356933295726776,1.9226073026657104,93.33334350585938,185389.0,1.0
15:40:32.742258,160786.65625,181404.53125,177644.4375,187051.75,169219.078125,178958.265625,690846.3125,192533.734375,0.031494140625,1.012939453125,0.002685546875,-4.577636241912842,-0.4577636420726776,2.075195074081421,93.33334350585938,185390.0,1.0
15:40:32.752146,160739.8125,181404.890625,177636.390625,187005.4375,169213.265625,178961.21875,691167.5625,192524.609375,0.03271484375,1.013427734375,0.00244140625,-4.608153820037842,-0.5493163466453552,2.105712652206421,93.33334350585938,185391.0,1.0
15:40:32.755211,160687.140625,181385.390625,177627.796875,187053.796875,169199.234375,178953.96875,690896.75,192534.453125,0.03173828125,1.01416015625,0.003662109375,-4.608153820037842,-0.6103515028953552,2.166747808456421,93.33334350585938,185392.0,1.0
15:40:32.755222,160704.671875,181387.546875,177630.390625,187050.21875,169198.515625,178953.265625,690646.5,192532.65625,0.03076171875,1.01318359375,0.00537109375,-4.608153820037842,-0.7324218153953552,2.136230230331421,93.33334350585938,185393.0,1.0
15:40:32.757185,160781.5625,181399.703125,177639.515625,187054.515625,169209.421875,178954.15625,690818.0,192532.03125,0.032958984375,1.012939453125,0.00634765625,-4.608153820037842,-0.8544921278953552,2.136230230331421,93.33334350585938,185394.0,1.0
15:40:32.768499,160744.90625,181399.96875,177631.46875,187002.390625,169207.09375,178956.484375,691166.375,192521.65625,0.033203125,1.01220703125,0.004638671875,-4.699706554412842,-0.9460448622703552,2.288818120956421,93.33334350585938,185395.0,1.0
15:40:32.773176,160681.875,181381.203125,177622.265625,187040.5625,169195.03125,178950.484375,690986.0,192533.375,0.032958984375,1.0146484375,0.001708984375,-4.821776866912842,-1.0681151151657104,2.502441167831421,93.33334350585938,185396.0,1.0
15:40:32.773211,160680.171875,181371.984375,177615.46875,187042.625,169183.578125,178940.296875,690660.4375,192527.03125,0.03466796875,1.014892578125,0.00341796875,-4.791259288787842,-1.1291502714157104,2.380370855331421,93.33334350585938,185397.0,1.0
15:40:32.782300,160766.265625,181386.5625,177628.703125,187049.234375,169196.8125,178941.546875,690752.1875,192527.203125,0.033447265625,1.016845703125,0.001708984375,-4.669188976287842,-1.2817381620407104,2.502441167831421,93.33334350585938,185398.0,1.0
15:40:32.786466,160761.71875,181400.421875,177635.046875,187007.9375,169208.171875,178952.71875,691116.75,192522.734375,0.033203125,1.01708984375,0.002197265625,-4.699706554412842,-1.4038084745407104,2.563476324081421,93.33334350585938,185399.0,1.0
15:40:32.786487,160697.0625,181385.484375,177629.40625,187033.859375,169200.390625,178950.40625,691048.5,192530.609375,0.032958984375,1.01708984375,0.0048828125,-4.791259288787842,-1.4343260526657104,2.563476324081421,93.33334350585938,185400.0,1.0
15:40:32.811481,160684.90625,181376.453125,177626.375,187055.046875,169192.96875,178945.21875,690679.9375,192533.375,0.035888671875,1.016845703125,0.00732421875,-4.821776866912842,-1.4953612089157104,2.685546636581421,93.33334350585938,185401.0,1.0
15:40:32.811502,160760.734375,181386.296875,177636.109375,187057.015625,169202.890625,178944.859375,690696.125,192532.03125,0.036865234375,1.016845703125,0.005859375,-4.852294445037842,-1.6174315214157104,2.746581792831421,93.33334350585938,185402.0,1.0
15:40:32.836596,160769.484375,181393.171875,177635.671875,187020.359375,169210.84375,178947.53125,691039.375,192525.421875,0.035400390625,1.01611328125,0.0087890625,-4.821776866912842,-1.6174315214157104,2.685546636581421,93.33334350585938,185403.0,1.0
15:40:32.838374,160702.703125,181381.375,177627.984375,187022.515625,169201.015625,178945.75,691098.5625,192529.796875,0.035400390625,1.01611328125,0.0048828125,-4.852294445037842,-1.6784666776657104,2.716064214706421,93.33334350585938,185404.0,1.0
15:40:32.840913,160678.03125,181372.171875,177624.671875,187056.390625,169191.453125,178941.90625,690713.125,192536.953125,0.036865234375,1.013916015625,0.00439453125,-4.943847179412842,-1.6784666776657104,2.807616949081421,93.33334350585938,185405.0,1.0
15:40:32.843449,160748.296875,181388.4375,177638.890625,187055.328125,169204.59375,178948.703125,690681.5625,192538.734375,0.03662109375,1.015625,0.00439453125,-5.004882335662842,-1.7395018339157104,2.777099370956421,93.33334350585938,185406.0,1.0
15:40:32.845865,160783.171875,181399.4375,177642.640625,187028.859375,169214.96875,178952.28125,690994.3125,192532.484375,0.035400390625,1.013916015625,0.00390625,-4.943847179412842,-1.8005369901657104,2.807616949081421,93.33334350585938,185407.0,1.0
15:40:32.848407,160716.109375,181390.3125,177633.34375,187009.359375,169206.734375,178952.71875,691159.0625,192529.359375,0.035888671875,1.0126953125,0.00537109375,-4.852294445037842,-1.9226073026657104,2.746581792831421,93.33334350585938,185408.0,1.0
15:40:32.850891,160677.84375,181374.046875,177625.203125,187051.390625,169192.96875,178945.75,690768.8125,192534.71875,0.036865234375,1.011474609375,0.005126953125,-4.852294445037842,-1.9836424589157104,2.746581792831421,93.33334350585938,185409.0,1.0
15:40:32.853407,160730.953125,181385.046875,177635.140625,187046.828125,169199.40625,178950.125,690663.1875,192531.859375,0.038330078125,1.010986328125,0.004638671875,-4.760741710662842,-2.044677495956421,2.746581792831421,93.33334350585938,185410.0,1.0
15:40:32.855983,160790.234375,181402.390625,177646.21875,187038.15625,169215.953125,178957.1875,690933.9375,192533.375,0.03955078125,1.009521484375,0.00634765625,-4.699706554412842,-1.9531248807907104,2.624511480331421,93.33334350585938,185411.0,1.0
15:40:32.858400,160732.5625,181400.78125,177641.921875,187006.140625,169214.15625,178962.734375,691189.125,192532.84375,0.03955078125,1.00830078125,0.0078125,-4.760741710662842,-1.9531248807907104,2.532958745956421,93.33334350585938,185412.0,1.0
15:40:32.860883,160683.65625,181378.875,177631.828125,187053.171875,169198.953125,178951.921875,690840.25,192540.0,0.0400390625,1.007568359375,0.00634765625,-4.638671398162842,-1.9531248807907104,2.593993902206421,93.33334350585938,185413.0,1.0
15:40:32.863437,160720.859375,181386.828125,177640.3125,187049.0625,169204.40625,178953.4375,690650.9375,192537.125,0.038818359375,1.006591796875,0.0078125,-4.516601085662842,-1.8920897245407104,2.593993902206421,93.33334350585938,185414.0,1.0
15:40:32.865877,160794.796875,181404.4375,177653.015625,187051.390625,169221.40625,178958.453125,690869.9375,192537.671875,0.03759765625,1.008544921875,0.00634765625,-4.302978038787842,-1.9531248807907104,2.655029058456421,93.33334350585938,185415.0,1.0
15:40:32.868973,160745.4375,181403.375,177645.0625,187003.828125,169216.484375,178960.859375,691189.8125,192528.015625,0.037353515625,1.010498046875,0.0068359375,-4.302978038787842,-1.9836424589157104,2.502441167831421,93.33334350585938,185416.0,1.0
15:40:32.868983,160690.90625,181384.5,177636.75,187056.9375,169202.984375,178953.078125,690919.25,192538.65625,0.0380859375,1.009033203125,0.007080078125,-4.211425304412842,-2.014159917831421,2.319335699081421,93.33334350585938,185417.0,1.0
15:40:32.871118,160710.921875,181387.1875,177641.21875,187071.765625,169202.625,178953.796875,690658.5625,192535.703125,0.040771484375,1.007080078125,0.00537109375,-4.028319835662842,-2.014159917831421,2.319335699081421,93.33334350585938,185418.0,1.0
15:40:32.874177,160792.28125,181404.171875,177654.171875,187081.96875,169219.609375,178957.8125,690813.125,192535.25,0.041259765625,1.006103515625,0.008056640625,-3.936767339706421,-1.9226073026657104,2.227782964706421,93.33334350585938,185419.0,1.0
15:40:32.874200,160764.125,181409.09375,177651.9375,187036.09375,169223.015625,178962.296875,691169.0,192528.453125,0.04345703125,1.00634765625,0.008544921875,-3.753661870956421,-1.8920897245407104,2.288818120956421,93.33334350585938,185420.0,1.0
15:40:32.875924,160707.078125,181393.625,177647.296875,187079.8125,169213.078125,178958.453125,690991.5,192540.96875,0.04296875,1.007080078125,0.008544921875,-3.692626714706421,-1.8615721464157104,2.258300542831421,93.33334350585938,185421.0,1.0
15:40:32.878989,160711.546875,181393.265625,177651.765625,187092.6875,169212.8125,178960.5,690669.5,192545.359375,0.04296875,1.006591796875,0.009765625,-3.662109136581421,-1.6784666776657104,2.197265386581421,93.33334350585938,185422.0,1.0
15:40:32.879033,160793.0,181408.375,177664.28125,187099.484375,169229.171875,178964.25,690749.25,192547.234375,0.044189453125,1.00537109375,0.00830078125,-3.570556402206421,-1.7700194120407104,2.166747808456421,93.33334350585938,185423.0,1.0
15:40:32.881505,160778.4375,181409.984375,177656.859375,187047.984375,169227.75,178963.984375,691115.1875,192535.4375,0.0419921875,1.00732421875,0.00537109375,-3.479003667831421,-1.6174315214157104,2.105712652206421,93.33334350585938,185424.0,1.0
15:40:32.881528,160710.5625,181391.65625,177645.421875,187067.65625,169212.640625,178957.375,691060.875,192540.265625,0.044677734375,1.00732421875,0.001220703125,-3.479003667831421,-1.6174315214157104,2.105712652206421,93.33334350585938,185425.0,1.0
15:40:32.897368,160695.90625,181381.640625,177639.875,187087.953125,169204.046875,178952.359375,690692.875,192542.9375,0.04541015625,1.0068359375,0.006103515625,-3.326415777206421,-1.5258787870407104,2.014159917831421,93.33334350585938,185426.0,1.0
15:40:32.900240,160776.375,181398.8125,177656.046875,187094.296875,169220.6875,178960.234375,690719.8125,192548.21875,0.04345703125,1.010498046875,0.0087890625,-3.204345464706421,-1.5563963651657104,2.075195074081421,93.33334350585938,185427.0,1.0
15:40:32.900267,160787.546875,181406.859375,177655.078125,187056.84375,169226.046875,178962.46875,691058.5625,192538.921875,0.0439453125,1.010009765625,0.005859375,-3.173827886581421,-1.3732908964157104,1.9531248807907104,93.33334350585938,185428.0,1.0
15:40:32.902171,160723.4375,181399.96875,177650.25,187061.125,169218.1875,178963.90625,691122.75,192541.15625,0.044189453125,1.010009765625,0.006103515625,-3.112792730331421,-1.3427733182907104,1.8615721464157104,93.33334350585938,185429.0,1.0
15:40:32.904675,160703.328125,181395.6875,177653.015625,187100.203125,169214.6875,178964.171875,690730.5625,192551.171875,0.044677734375,1.010986328125,0.009033203125,-3.051757574081421,-1.4038084745407104,1.7700194120407104,93.33334350585938,185430.0,1.0
15:40:32.912188,160765.90625,181404.4375,177661.6875,187094.484375,169220.6875,178962.734375,690673.125,192546.78125,0.04443359375,1.01220703125,0.008544921875,-2.868652105331421,-1.3427733182907104,1.7395018339157104,93.33334350585938,185431.0,1.0
15:40:32.921602,160801.9375,181415.53125,177666.34375,187069.8125,169229.265625,178965.15625,690976.0625,192541.875,0.04296875,1.01220703125,0.009033203125,-2.716064214706421,-1.3122557401657104,1.7089842557907104,93.33334350585938,185432.0,1.0
15:40:32.921664,160738.015625,181408.375,177659.09375,187051.921875,169223.640625,178966.9375,691159.0625,192541.59375,0.043212890625,1.011962890625,0.010009765625,-2.624511480331421,-1.1596678495407104,1.6174315214157104,93.33334350585938,185433.0,1.0
15:40:32.926696,160698.765625,181390.765625,177650.59375,187096.71875,169210.40625,178959.421875,690788.625,192547.765625,0.04345703125,1.011474609375,0.01123046875,-2.532958745956421,-1.0375975370407104,1.4953612089157104,93.33334350585938,185434.0,1.0
15:40:32.926725,160745.96875,181397.296875,177655.609375,187090.015625,169213.359375,178960.0625,690660.0625,192543.84375,0.0419921875,1.01123046875,0.0107421875,-2.471923589706421,-1.1291502714157104,1.3732908964157104,93.33334350585938,185435.0,1.0
15:40:32.932782,160802.75,181410.796875,177661.421875,187080.171875,169225.515625,178964.890625,690919.8125,192542.046875,0.0419921875,1.013916015625,0.009765625,-2.471923589706421,-1.0681151151657104,1.3122557401657104,93.33334350585938,185436.0,1.0
15:40:32.932810,160747.140625,181408.828125,177655.78125,187045.9375,169222.921875,178970.421875,691191.8125,192538.65625,0.04296875,1.011474609375,0.010009765625,-2.380370855331421,-1.0681151151657104,1.1901854276657104,93.33334350585938,185437.0,1.0
15:40:32.937164,160704.765625,181395.046875,177653.375,187100.734375,169215.59375,178967.921875,690856.125,192552.953125,0.041259765625,1.012451171875,0.01171875,-2.471923589706421,-1.0070799589157104,1.0681151151657104,93.33334350585938,185438.0,1.0
15:40:32.943387,160736.765625,181398.984375,177657.75,187094.65625,169217.375,178966.765625,690654.75,192548.75,0.042724609375,1.0107421875,0.01171875,-2.380370855331421,-0.9765624403953552,1.0375975370407104,93.33334350585938,185439.0,1.0
15:40:32.947700,160810.609375,181414.1875,177667.859375,187096.453125,169230.703125,178969.359375,690863.5,192547.5,0.0419921875,1.010498046875,0.01123046875,-2.441406011581421,-1.0070799589157104,0.9765624403953552,93.33334350585938,185440.0,1.0
15:40:32.947716,160767.25,181418.65625,177664.640625,187051.390625,169230.609375,178975.703125,691194.1875,192539.640625,0.04248046875,1.009765625,0.011474609375,-2.380370855331421,-0.9155272841453552,1.0070799589157104,93.33334350585938,185441.0,1.0
15:40:32.949654,160711.546875,181398.625,177656.328125,187098.765625,169217.828125,178968.8125,690926.8125,192546.78125,0.04345703125,1.01025390625,0.01025390625,-2.319335699081421,-0.7934569716453552,0.9460448622703552,93.33334350585938,185442.0,1.0
15:40:32.966011,160725.953125,181397.640625,177656.859375,187097.34375,169215.953125,178966.21875,690654.0,192543.125,0.04345703125,1.0087890625,0.01123046875,-2.319335699081421,-0.8850097060203552,0.8239745497703552,93.33334350585938,185443.0,1.0
15:40:32.968991,160804.09375,181409.71875,177665.796875,187101.1875,169228.46875,178966.671875,690787.5625,192544.90625,0.04248046875,1.008056640625,0.0126953125,-2.227782964706421,-0.8850097060203552,0.7324218153953552,93.33334350585938,185444.0,1.0
15:40:32.969018,160773.15625,181412.578125,177658.734375,187048.96875,169227.21875,178972.03125,691157.1875,192536.953125,0.043212890625,1.0107421875,0.010986328125,-2.136230230331421,-0.9155272841453552,0.6408690810203552,93.33334350585938,185445.0,1.0
15:40:32.970890,160703.78125,181388.078125,177642.828125,187079.015625,169209.6875,178962.640625,691000.125,192542.046875,0.04296875,1.009765625,0.01123046875,-1.9836424589157104,-0.9155272841453552,0.7324218153953552,93.33334350585938,185446.0,1.0
15:40:32.973445,160695.546875,181377.53125,177636.03125,187081.96875,169199.234375,178954.15625,690673.9375,192538.65625,0.043212890625,1.009521484375,0.01123046875,-2.014159917831421,-0.7934569716453552,0.6103515028953552,93.33334350585938,185447.0,1.0
15:40:32.985239,160770.828125,181385.390625,177642.203125,187082.59375,169206.5625,178949.5,690742.3125,192536.0625,0.04443359375,1.010498046875,0.010009765625,-1.8920897245407104,-0.7629393935203552,0.7019042372703552,93.33334350585938,185448.0,1.0
15:40:32.985260,160760.375,181388.796875,177637.375,187036.28125,169208.53125,178951.46875,691107.8125,192527.46875,0.0439453125,1.010009765625,0.009033203125,-1.8310545682907104,-0.7019042372703552,0.6713866591453552,93.33334350585938,185449.0,1.0
15:40:32.988049,160696.890625,181376.1875,177631.375,187058.359375,169198.953125,178948.609375,691060.875,192536.140625,0.042724609375,1.01220703125,0.011474609375,-1.8615721464157104,-0.6103515028953552,0.6103515028953552,93.33334350585938,185450.0,1.0
15:40:32.988068,160686.25,181371.453125,177631.5625,187082.671875,169194.046875,178946.375,690688.3125,192541.59375,0.043212890625,1.01220703125,0.012451171875,-1.8920897245407104,-0.5798339247703552,0.6408690810203552,93.33334350585938,185451.0,1.0
15:40:32.997372,160764.484375,181388.34375,177645.421875,187087.421875,169205.75,178949.59375,690698.375,192541.421875,0.041015625,1.01171875,0.01318359375,-1.9531248807907104,-0.6103515028953552,0.7019042372703552,93.33334350585938,185452.0,1.0
15:40:33.001778,160781.296875,181400.328125,177647.109375,187054.6875,169212.09375,178953.4375,691045.875,192533.640625,0.0419921875,1.01025390625,0.013671875,-1.9531248807907104,-0.5493163466453552,0.7019042372703552,93.33334350585938,185453.0,1.0
15:40:33.001795,160712.890625,181387.28125,177638.53125,187054.15625,169201.015625,178949.234375,691121.9375,192532.921875,0.04248046875,1.011474609375,0.01416015625,-1.8920897245407104,-0.3967284858226776,0.7019042372703552,93.33334350585938,185454.0,1.0
15:40:33.011497,160693.5,181382.0,177641.125,187094.65625,169197.890625,178950.671875,690733.25,192543.921875,0.04296875,1.01123046875,0.015869140625,-1.7700194120407104,-0.5187987685203552,0.6713866591453552,93.33334350585938,185455.0,1.0
15:40:33.011523,160756.609375,181393.359375,177651.140625,187088.484375,169204.328125,178951.921875,690680.75,192538.734375,0.041259765625,1.01171875,0.011962890625,-1.7700194120407104,-0.5187987685203552,0.6713866591453552,93.33334350585938,185456.0,1.0
15:40:33.013985,160793.359375,181404.171875,177653.546875,187065.328125,169211.125,178954.59375,690983.0,192530.609375,0.041259765625,1.012451171875,0.010986328125,-1.7395018339157104,-0.5187987685203552,0.7629393935203552,93.33334350585938,185457.0,1.0
15:40:33.014004,160732.203125,181399.609375,177649.078125,187048.890625,169205.3125,178958.890625,691168.1875,192528.8125,0.040771484375,1.012939453125,0.010986328125,-1.7395018339157104,-0.6103515028953552,0.7324218153953552,93.33334350585938,185458.0,1.0
15:40:33.023510,160694.828125,181383.78125,177643.453125,187094.75,169195.03125,178952.09375,690783.3125,192534.890625,0.039306640625,1.01416015625,0.012939453125,-1.8005369901657104,-0.5798339247703552,0.7324218153953552,93.33334350585938,185459.0,1.0
15:40:33.027738,160745.171875,181395.046875,177653.734375,187090.90625,169203.703125,178955.671875,690654.8125,192532.390625,0.0380859375,1.012451171875,0.01220703125,-1.7395018339157104,-0.6103515028953552,0.7019042372703552,93.33334350585938,185460.0,1.0
15:40:33.027757,160811.328125,181415.890625,177667.140625,187088.484375,169222.46875,178966.21875,690912.375,192535.25,0.039306640625,1.011962890625,0.012939453125,-1.7089842557907104,-0.6103515028953552,0.6713866591453552,93.33334350585938,185461.0,1.0
15:40:33.034655,160760.375,181417.40625,177665.0,187055.765625,169222.734375,178974.359375,691195.8125,192533.5625,0.03955078125,1.012451171875,0.0107421875,-1.7089842557907104,-0.7629393935203552,0.7019042372703552,93.33334350585938,185462.0,1.0
15:40:33.045247,160712.890625,181399.875,177657.9375,187107.359375,169210.140625,178968.453125,690860.625,192544.46875,0.03759765625,1.013916015625,0.014892578125,-1.6479490995407104,-0.7934569716453552,0.6713866591453552,93.33334350585938,185463.0,1.0
15:40:33.045280,160743.46875,181405.15625,177661.78125,187101.8125,169211.125,178969.359375,690660.375,192542.234375,0.03759765625,1.01416015625,0.013916015625,-1.5258787870407104,-0.8544921278953552,0.7019042372703552,93.33334350585938,185464.0,1.0
15:40:33.047178,160813.484375,181416.953125,177668.296875,187099.671875,169221.40625,178970.96875,690870.625,192540.890625,0.038818359375,1.013427734375,0.012939453125,-1.4953612089157104,-0.8544921278953552,0.8239745497703552,93.33334350585938,185465.0,1.0
15:40:33.050118,160764.390625,181412.671875,177657.75,187048.4375,169216.03125,178970.34375,691196.0625,192532.03125,0.041015625,1.013671875,0.01123046875,-1.4343260526657104,-0.8850097060203552,0.7324218153953552,93.33334350585938,185466.0,1.0
15:40:33.061482,160709.859375,181392.734375,177648.640625,187095.546875,169204.140625,178963.09375,690941.25,192544.734375,0.04052734375,1.012939453125,0.011474609375,-1.3732908964157104,-0.9155272841453552,0.6408690810203552,93.33334350585938,185467.0,1.0
15:40:33.061507,160721.75,181392.375,177648.359375,187092.421875,169201.015625,178961.75,690670.875,192542.234375,0.03955078125,1.012939453125,0.0107421875,-1.3732908964157104,-0.8850097060203552,0.6713866591453552,93.33334350585938,185468.0,1.0
15:40:33.064024,160800.875,181406.5,177659.625,187096.1875,169214.421875,178963.625,690811.875,192542.671875,0.0390625,1.014404296875,0.0126953125,-1.3732908964157104,-0.8239745497703552,0.6408690810203552,93.33334350585938,185469.0,1.0
15:40:33.064069,160778.25,181414.015625,177660.609375,187050.21875,169220.59375,178970.96875,691173.9375,192537.3125,0.0390625,1.01220703125,0.0146484375,-1.3427733182907104,-0.8850097060203552,0.7629393935203552,93.33334350585938,185470.0,1.0
15:40:33.069661,160721.65625,181399.875,177657.390625,187091.359375,169211.828125,178966.3125,691018.875,192549.46875,0.03955078125,1.013427734375,0.010009765625,-1.1901854276657104,-0.9155272841453552,0.7324218153953552,93.33334350585938,185471.0,1.0
15:40:33.076592,160718.96875,181394.96875,177655.609375,187101.453125,169205.3125,178961.84375,690683.875,192547.6875,0.039794921875,1.01220703125,0.012939453125,-1.2207030057907104,-0.9460448622703552,0.7629393935203552,93.33334350585938,185472.0,1.0
15:40:33.076617,160797.5625,181406.59375,177664.734375,187103.25,169215.140625,178961.125,690749.9375,192545.796875,0.04052734375,1.0107421875,0.012451171875,-1.2817381620407104,-1.0070799589157104,0.7629393935203552,93.33334350585938,185473.0,1.0
15:40:33.085983,160794.609375,181417.9375,177667.140625,187060.78125,169222.5625,178968.28125,691119.375,192539.09375,0.041015625,1.011962890625,0.012451171875,-1.1291502714157104,-1.0375975370407104,0.7629393935203552,93.33334350585938,185474.0,1.0
15:40:33.091520,160732.125,181405.96875,177663.5625,187082.328125,169214.609375,178966.671875,691084.0625,192546.078125,0.041748046875,1.011962890625,0.01318359375,-1.0375975370407104,-1.0375975370407104,0.7324218153953552,93.33334350585938,185475.0,1.0
15:40:33.091556,160718.96875,181398.546875,177663.65625,187109.046875,169209.328125,178963.625,690700.25,192550.359375,0.040771484375,1.011474609375,0.010009765625,-1.0070799589157104,-0.9460448622703552,0.8544921278953552,93.33334350585938,185476.0,1.0
15:40:33.093865,160798.71875,181415.890625,177678.40625,187114.15625,169223.546875,178969.0,690709.875,192552.78125,0.040283203125,1.01025390625,0.008544921875,-1.0375975370407104,-0.9765624403953552,0.8544921278953552,93.33334350585938,185477.0,1.0
15:40:33.100973,160819.734375,181428.765625,177682.703125,187083.75,169233.5625,178977.046875,691056.1875,192548.84375,0.039794921875,1.0107421875,0.01025390625,-0.9155272841453552,-1.0070799589157104,0.9155272841453552,93.33334350585938,185478.0,1.0
15:40:33.101049,160747.5,181413.375,177670.53125,187077.765625,169218.1875,178972.03125,691137.3125,192545.171875,0.0400390625,1.0107421875,0.009033203125,-0.8850097060203552,-1.0681151151657104,0.8544921278953552,93.33334350585938,185479.0,1.0
15:40:33.106316,160716.03125,181397.640625,177663.390625,187111.921875,169205.03125,178962.640625,690735.1875,192546.515625,0.04052734375,1.01416015625,0.007080078125,-0.7934569716453552,-1.0070799589157104,0.8544921278953552,93.33334350585938,185480.0,1.0
15:40:33.109718,160775.390625,181404.625,177668.125,187105.484375,169210.765625,178960.953125,690681.25,192540.265625,0.04052734375,1.01318359375,0.007568359375,-0.8239745497703552,-1.0681151151657104,0.8544921278953552,93.33334350585938,185481.0,1.0
15:40:33.120329,160809.90625,181411.59375,177666.96875,187081.25,169216.484375,178960.40625,690982.375,192532.84375,0.04052734375,1.013671875,0.00830078125,-0.8239745497703552,-1.0986326932907104,0.7934569716453552,93.33334350585938,185482.0,1.0
15:40:33.120379,160744.1875,181402.65625,177656.859375,187058.359375,169207.453125,178960.859375,691174.375,192528.28125,0.041748046875,1.0146484375,0.00830078125,-0.8850097060203552,-1.0681151151657104,0.9155272841453552,93.33334350585938,185483.0,1.0
15:40:33.122265,160702.4375,181384.953125,177648.640625,187105.65625,169194.046875,178953.53125,690797.5,192537.9375,0.039306640625,1.013916015625,0.009765625,-0.7934569716453552,-1.0681151151657104,0.9765624403953552,93.33334350585938,185484.0,1.0
15:40:33.130334,160750.890625,181393.984375,177655.515625,187099.125,169200.296875,178955.9375,690668.0625,192537.125,0.0380859375,1.014404296875,0.010498046875,-0.7629393935203552,-1.1291502714157104,0.8850097060203552,93.33334350585938,185485.0,1.0
15:40:33.130367,160811.328125,181409.53125,177663.03125,187090.015625,169213.796875,178960.140625,690925.625,192535.875,0.039794921875,1.013427734375,0.011962890625,-0.8239745497703552,-1.1291502714157104,0.9765624403953552,93.33334350585938,185486.0,1.0
15:40:33.154707,160755.453125,181405.96875,177655.96875,187051.390625,169208.4375,178961.671875,691202.0625,192531.953125,0.037841796875,1.013427734375,0.01220703125,-0.7934569716453552,-1.2207030057907104,0.9765624403953552,93.33334350585938,185487.0,1.0
15:40:33.180226,160709.40625,181389.421875,177650.421875,187104.046875,169196.359375,178955.234375,690867.4375,192543.5625,0.040283203125,1.013427734375,0.008056640625,-0.7019042372703552,-1.2207030057907104,1.0986326932907104,93.33334350585938,185488.0,1.0
15:40:33.180254,160740.25,181394.609375,177655.609375,187097.796875,169198.59375,178955.671875,690658.75,192538.46875,0.0390625,1.013916015625,0.00830078125,-0.7324218153953552,-1.3427733182907104,1.0681151151657104,93.33334350585938,185489.0,1.0
15:40:33.206419,160814.015625,181410.703125,177665.171875,187096.890625,169212.1875,178959.609375,690854.0,192537.484375,0.0390625,1.01416015625,0.009765625,-0.7629393935203552,-1.2207030057907104,1.0375975370407104,93.33334350585938,185490.0,1.0
15:40:33.206431,160773.15625,181414.015625,177661.15625,187048.703125,169211.203125,178965.15625,691195.875,192530.96875,0.0400390625,1.012939453125,0.0107421875,-0.7019042372703552,-1.3427733182907104,1.1291502714157104,93.33334350585938,185491.0,1.0
15:40:33.206433,160716.921875,181395.328125,177654.0,187094.296875,169198.78125,178958.0,690942.8125,192538.46875,0.0390625,1.01318359375,0.013916015625,-0.8239745497703552,-1.3732908964157104,1.0986326932907104,93.33334350585938,185492.0,1.0
15:40:33.206434,160729.609375,181396.84375,177656.765625,187094.75,169198.59375,178957.90625,690658.5,192535.703125,0.03955078125,1.014404296875,0.009033203125,-0.6713866591453552,-1.2512205839157104,1.0375975370407104,93.33334350585938,185493.0,1.0
15:40:33.220411,160814.46875,181415.171875,177672.765625,187101.640625,169216.484375,178963.984375,690782.3125,192540.265625,0.039306640625,1.015380859375,0.00830078125,-0.6713866591453552,-1.3122557401657104,1.0986326932907104,93.33334350585938,185494.0,1.0
15:40:33.220458,160793.0,181424.109375,177673.484375,187054.25,169222.203125,178972.484375,691155.6875,192534.359375,0.038330078125,1.013916015625,0.010498046875,-0.6408690810203552,-1.3427733182907104,1.0986326932907104,93.33334350585938,185495.0,1.0
15:40:33.224698,160731.046875,181407.84375,177666.875,187088.40625,169210.578125,178968.015625,691013.875,192542.234375,0.039306640625,1.009521484375,0.00927734375,-0.6103515028953552,-1.3427733182907104,1.1291502714157104,93.33334350585938,185496.0,1.0
15:40:33.224744,160726.3125,181403.546875,177666.34375,187098.6875,169206.109375,178966.9375,690677.6875,192542.046875,0.03857421875,1.010498046875,0.0068359375,-0.6408690810203552,-1.2817381620407104,1.1596678495407104,93.33334350585938,185497.0,1.0
15:40:33.224759,160803.28125,181416.6875,177675.90625,187102.53125,169218.1875,178969.0,690750.375,192541.78125,0.037841796875,1.01123046875,0.007080078125,-0.6103515028953552,-1.3732908964157104,1.2207030057907104,93.33334350585938,185498.0,1.0
15:40:33.227309,160802.5625,181426.25,177675.71875,187061.3125,169224.890625,178976.953125,691112.75,192535.078125,0.0380859375,1.011474609375,0.0048828125,-0.5493163466453552,-1.3427733182907104,1.4038084745407104,93.33334350585938,185499.0,1.0
15:40:33.229667,160738.28125,181411.765625,177670.53125,187081.515625,169217.109375,178974.265625,691086.3125,192543.125,0.039794921875,1.011474609375,0.005615234375,-0.5493163466453552,-1.2817381620407104,1.4343260526657104,93.33334350585938,185500.0,1.0
15:40:33.233140,160725.6875,181405.421875,177673.484375,187111.5625,169215.140625,178972.484375,690702.8125,192550.90625,0.040283203125,1.010986328125,0.005126953125,-0.4272460639476776,-1.2512205839157104,1.4343260526657104,93.33334350585938,185501.0,1.0
15:40:33.234679,160802.84375,181421.15625,177688.6875,187117.546875,169228.015625,178976.5,690695.5,192553.5,0.042724609375,1.011474609375,0.0078125,-0.3356933295726776,-1.2207030057907104,1.4953612089157104,93.33334350585938,185502.0,1.0
15:40:33.237204,160826.078125,181435.46875,177693.609375,187087.5,169237.671875,178983.75,691035.125,192550.71875,0.04296875,1.009521484375,0.007568359375,-0.2136230319738388,-1.1901854276657104,1.7089842557907104,93.33334350585938,185503.0,1.0
15:40:33.240641,160759.46875,181424.640625,177684.125,187082.5,169227.390625,178982.046875,691133.5,192551.53125,0.04443359375,1.010009765625,0.004638671875,-0.2441406100988388,-1.1901854276657104,1.6784666776657104,93.33334350585938,185504.0,1.0
15:40:33.242275,160730.421875,181412.84375,177679.84375,187120.953125,169217.828125,178977.9375,690737.0,192558.765625,0.04296875,1.008056640625,0.00439453125,-0.1525878757238388,-1.1901854276657104,1.8005369901657104,93.33334350585938,185505.0,1.0
15:40:33.244967,160793.625,181425.8125,177690.296875,187120.859375,169226.046875,178981.78125,690670.625,192559.03125,0.0419921875,1.00927734375,0.007080078125,-0.2136230319738388,-1.1596678495407104,1.9531248807907104,93.33334350585938,185506.0,1.0
15:40:33.250382,160836.984375,181438.328125,177694.046875,187105.203125,169233.828125,178984.546875,690966.6875,192555.1875,0.03955078125,1.0107421875,0.0078125,-0.2136230319738388,-1.1291502714157104,2.075195074081421,93.33334350585938,185507.0,1.0
15:40:33.250430,160774.859375,181429.5625,177685.921875,187083.390625,169226.234375,178984.375,691166.0625,192552.78125,0.03955078125,1.01123046875,0.00634765625,-0.1220703050494194,-1.1596678495407104,2.166747808456421,93.33334350585938,185508.0,1.0
15:40:33.252962,160737.03125,181413.375,177680.734375,187131.671875,169216.03125,178977.40625,690793.5,192563.421875,0.04052734375,1.012939453125,0.004150390625,-0.1220703050494194,-1.0681151151657104,2.136230230331421,93.33334350585938,185509.0,1.0
15:40:33.254805,160786.65625,181423.9375,177692.71875,187128.359375,169224.796875,178982.234375,690647.1875,192564.671875,0.03955078125,1.01220703125,0.001220703125,-0.0610351525247097,-1.1901854276657104,2.075195074081421,93.33334350585938,185510.0,1.0
15:40:33.257418,160848.171875,181438.59375,177699.59375,187120.765625,169236.234375,178986.15625,690892.25,192561.71875,0.038818359375,1.013671875,0.004150390625,-0.0610351525247097,-1.0986326932907104,2.136230230331421,93.33334350585938,185511.0,1.0
15:40:33.264796,160797.46875,181440.5625,177694.59375,187082.671875,169232.03125,178991.796875,691182.375,192556.078125,0.039794921875,1.014892578125,0.004638671875,-0.0915527269244194,-1.1291502714157104,2.136230230331421,93.33334350585938,185512.0,1.0
15:40:33.264890,160753.125,181427.15625,177690.921875,187135.421875,169220.328125,178987.328125,690863.6875,192567.34375,0.04052734375,1.01513671875,0.0048828125,-0.2136230319738388,-1.2207030057907104,2.136230230331421,93.33334350585938,185513.0,1.0
15:40:33.264923,160788.09375,181436.453125,177699.5,187134.453125,169222.390625,178990.1875,690643.125,192565.5625,0.039794921875,1.018310546875,0.005126953125,-0.3356933295726776,-1.2512205839157104,2.136230230331421,93.33334350585938,185514.0,1.0
15:40:33.267676,160865.25,181452.8125,177708.796875,187134.09375,169234.8125,178993.3125,690828.0625,192563.953125,0.0400390625,1.017333984375,0.00244140625,-0.3967284858226776,-1.3427733182907104,2.075195074081421,93.33334350585938,185515.0,1.0
15:40:33.270436,160828.765625,181458.0,177706.03125,187086.609375,169236.953125,179000.828125,691172.5625,192556.984375,0.041015625,1.015625,0.004638671875,-0.5493163466453552,-1.3427733182907104,2.075195074081421,93.33334350585938,185516.0,1.0
15:40:33.270522,160776.734375,181441.8125,177701.390625,187134.71875,169226.234375,178995.1875,690934.5625,192567.625,0.04296875,1.01904296875,0.006103515625,-0.5798339247703552,-1.3427733182907104,1.9836424589157104,93.33334350585938,185517.0,1.0
15:40:33.272497,160796.484375,181448.15625,177710.40625,187144.640625,169229.0,178998.671875,690650.4375,192571.46875,0.0439453125,1.019287109375,0.003173828125,-0.7324218153953552,-1.4038084745407104,1.9531248807907104,93.33334350585938,185518.0,1.0
15:40:33.274713,160880.796875,181463.546875,177722.65625,187151.609375,169243.125,179001.359375,690778.5625,192571.828125,0.04443359375,1.01904296875,0.00146484375,-0.7934569716453552,-1.4038084745407104,1.8615721464157104,93.33334350585938,185519.0,1.0
15:40:33.277238,160859.078125,181468.71875,177719.796875,187103.6875,169244.109375,179004.578125,691141.8125,192563.328125,0.04541015625,1.017333984375,0.002197265625,-0.9460448622703552,-1.3122557401657104,1.9226073026657104,93.33334350585938,185520.0,1.0
15:40:33.279825,160798.375,181453.078125,177711.390625,187137.3125,169231.140625,179000.015625,691009.5,192572.359375,0.04638671875,1.015625,-0.001220703125,-0.9765624403953552,-1.3122557401657104,1.8920897245407104,93.33334350585938,185521.0,1.0
15:40:33.282392,160800.15625,181453.890625,177715.0625,187154.203125,169229.625,179001.984375,690669.125,192575.390625,0.04833984375,1.01611328125,0.004638671875,-0.9460448622703552,-1.2512205839157104,1.9531248807907104,93.33334350585938,185522.0,1.0
15:40:33.284847,160886.875,181473.109375,177730.265625,187162.078125,169245.546875,179007.34375,690727.75,192577.546875,0.048828125,1.0146484375,0.00390625,-1.0681151151657104,-1.0375975370407104,1.9226073026657104,93.33334350585938,185523.0,1.0
15:40:33.287378,160889.03125,181483.03125,177730.703125,187118.703125,169251.265625,179012.71875,691090.5,192569.59375,0.048583984375,1.014892578125,0.00439453125,-1.0986326932907104,-1.0070799589157104,1.9836424589157104,93.33334350585938,185524.0,1.0
15:40:33.290265,160826.703125,181472.390625,177726.15625,187134.984375,169241.34375,179011.375,691081.75,192576.65625,0.049072265625,1.013916015625,0.005859375,-1.1596678495407104,-0.9765624403953552,2.075195074081421,93.33334350585938,185525.0,1.0
15:40:33.290293,160812.671875,181464.875,177726.15625,187166.28125,169233.640625,179008.25,690705.875,192583.4375,0.048828125,1.01513671875,0.005126953125,-1.2817381620407104,-0.9765624403953552,1.9226073026657104,93.33334350585938,185526.0,1.0
15:40:33.300254,160881.421875,181472.125,177731.328125,187164.484375,169237.765625,179005.46875,690703.25,192577.625,0.050537109375,1.01611328125,0.0029296875,-1.3427733182907104,-0.8544921278953552,1.9836424589157104,93.33334350585938,185527.0,1.0
15:40:33.300276,160900.46875,181482.3125,177729.546875,187130.25,169242.5,179009.59375,691042.8125,192567.984375,0.050048828125,1.0166015625,0.000732421875,-1.3427733182907104,-0.8850097060203552,2.075195074081421,93.33334350585938,185528.0,1.0
15:40:33.302791,160829.21875,181470.0625,177718.375,187120.234375,169230.515625,179006.640625,691150.6875,192565.5625,0.049560546875,1.0146484375,0.00390625,-1.5258787870407104,-0.7934569716453552,2.014159917831421,93.33334350585938,185529.0,1.0
15:40:33.302813,160796.9375,181454.953125,177712.109375,187158.234375,169218.53125,178998.234375,690757.5625,192571.546875,0.051513671875,1.013671875,0.006591796875,-1.5563963651657104,-0.8544921278953552,2.014159917831421,93.33334350585938,185530.0,1.0
15:40:33.309744,160853.984375,181461.84375,177717.203125,187152.421875,169222.734375,178995.8125,690681.25,192568.609375,0.0498046875,1.01220703125,0.00390625,-1.6479490995407104,-0.7629393935203552,1.9531248807907104,93.33334350585938,185531.0,1.0
15:40:33.320440,160893.5,181469.34375,177718.1875,187132.921875,169230.4375,178996.4375,690976.6875,192565.03125,0.049072265625,1.0126953125,0.00341796875,-1.7395018339157104,-0.6103515028953552,1.9531248807907104,93.33334350585938,185532.0,1.0
15:40:33.320466,160826.890625,181459.96875,177708.53125,187108.078125,169223.28125,178995.546875,691186.9375,192563.328125,0.0478515625,1.01123046875,0.005126953125,-1.8005369901657104,-0.5798339247703552,1.8920897245407104,93.33334350585938,185533.0,1.0
15:40:33.322214,160779.953125,181438.59375,177695.578125,187151.25,169204.328125,178982.046875,690808.0625,192567.078125,0.0478515625,1.011962890625,0.00634765625,-1.7395018339157104,-0.5493163466453552,1.9226073026657104,93.33334350585938,185534.0,1.0
15:40:33.325876,160820.71875,181443.78125,177700.3125,187142.5,169206.46875,178981.953125,690662.125,192561.359375,0.04931640625,1.0126953125,0.004638671875,-1.6784666776657104,-0.4272460639476776,1.8005369901657104,93.33334350585938,185535.0,1.0
15:40:33.336470,160882.140625,181458.171875,177708.984375,187135.515625,169221.578125,178987.140625,690912.1875,192559.75,0.04736328125,1.01220703125,0.00537109375,-1.8005369901657104,-0.3051757514476776,1.6479490995407104,93.33334350585938,185536.0,1.0
15:40:33.336492,160826.171875,181457.28125,177703.171875,187094.390625,169219.078125,178992.59375,691205.1875,192553.21875,0.048583984375,1.009521484375,0.00439453125,-1.8005369901657104,-0.4272460639476776,1.4953612089157104,93.33334350585938,185537.0,1.0
15:40:33.339043,160775.921875,181439.75,177696.203125,187144.015625,169208.796875,178986.25,690888.5,192562.96875,0.050048828125,1.011962890625,0.003173828125,-1.8005369901657104,-0.4272460639476776,1.4953612089157104,93.33334350585938,185538.0,1.0
15:40:33.339098,160808.65625,181448.4375,177706.84375,187145.4375,169216.03125,178991.171875,690667.25,192565.734375,0.048095703125,1.011474609375,0.002685546875,-1.8920897245407104,-0.3967284858226776,1.4953612089157104,93.33334350585938,185539.0,1.0
15:40:33.348606,160883.484375,181462.828125,177718.28125,187150.890625,169232.9375,178994.65625,690857.0625,192569.3125,0.047607421875,1.011962890625,0.001708984375,-1.8920897245407104,-0.3051757514476776,1.3732908964157104,93.33334350585938,185540.0,1.0
15:40:33.353972,160837.171875,181458.265625,177708.625,187099.9375,169227.921875,178994.390625,691201.5625,192559.03125,0.0478515625,1.010986328125,0.006103515625,-1.8615721464157104,-0.2746581733226776,1.3122557401657104,93.33334350585938,185541.0,1.0
15:40:33.353986,160777.0,181436.546875,177697.984375,187142.578125,169212.640625,178985.265625,690969.1875,192566.1875,0.048828125,1.010498046875,0.0048828125,-1.8310545682907104,-0.1831054538488388,1.2817381620407104,93.33334350585938,185542.0,1.0
15:40:33.355861,160787.8125,181437.515625,177699.421875,187145.0,169212.90625,178984.015625,690680.0,192565.46875,0.0478515625,1.010986328125,0.0048828125,-1.7089842557907104,-0.0915527269244194,1.2512205839157104,93.33334350585938,185543.0,1.0
15:40:33.366494,160865.78125,181450.046875,177708.359375,187149.015625,169222.734375,178983.390625,690792.4375,192562.96875,0.04638671875,1.00830078125,0.00439453125,-1.7089842557907104,-0.0610351525247097,1.1291502714157104,93.33334350585938,185544.0,1.0
15:40:33.366534,160842.359375,181454.515625,177704.0625,187100.296875,169222.203125,178987.0625,691168.625,192553.046875,0.047607421875,1.008544921875,0.00537109375,-1.6174315214157104,-0.03051757626235485,0.9765624403953552,93.33334350585938,185545.0,1.0
15:40:33.368946,160780.671875,181439.484375,177697.71875,187131.765625,169212.640625,178984.28125,691043.625,192562.515625,0.046142578125,1.0078125,0.00732421875,-1.4953612089157104,-0.1220703050494194,0.8850097060203552,93.33334350585938,185546.0,1.0
15:40:33.368960,160774.046875,181433.046875,177697.0,187143.5625,169207.265625,178980.34375,690688.0625,192561.984375,0.046875,1.009033203125,0.007080078125,-1.4648436307907104,-0.1220703050494194,0.7324218153953552,93.33334350585938,185547.0,1.0
15:40:33.378387,160852.28125,181444.765625,177708.265625,187146.96875,169218.265625,178980.625,690743.0625,192562.796875,0.046630859375,1.009521484375,0.00439453125,-1.4343260526657104,-0.1525878757238388,0.7019042372703552,93.33334350585938,185548.0,1.0
15:40:33.383080,160855.046875,181456.75,177712.015625,187110.390625,169228.1875,178989.46875,691110.0,192558.859375,0.045654296875,1.0087890625,0.005859375,-1.4038084745407104,-0.0915527269244194,0.7324218153953552,93.33334350585938,185549.0,1.0
15:40:33.383110,160788.53125,181442.4375,177703.34375,187123.71875,169216.390625,178987.40625,691110.25,192561.890625,0.046875,1.00927734375,0.00537109375,-1.2512205839157104,-0.1831054538488388,0.4882812201976776,93.33334350585938,185550.0,1.0
15:40:33.384722,160766.1875,181428.046875,177695.390625,187146.421875,169203.34375,178979.015625,690724.125,192561.8125,0.046142578125,1.010498046875,0.004150390625,-1.2207030057907104,-0.1831054538488388,0.4577636420726776,93.33334350585938,185551.0,1.0
15:40:33.399757,160834.75,181439.40625,177703.796875,187143.03125,169211.125,178979.453125,690708.4375,192559.21875,0.0458984375,1.011474609375,0.0078125,-1.1291502714157104,-0.1525878757238388,0.5187987685203552,93.33334350585938,185552.0,1.0
15:40:33.402726,160858.453125,181451.65625,177706.21875,187111.734375,169219.796875,178984.46875,691045.625,192552.78125,0.046630859375,1.0126953125,0.006591796875,-1.0375975370407104,-0.2746581733226776,0.4882812201976776,93.33334350585938,185553.0,1.0
15:40:33.402750,160794.34375,181444.671875,177701.390625,187104.765625,169212.8125,178985.984375,691170.125,192553.671875,0.046875,1.012939453125,0.009765625,-0.9765624403953552,-0.1831054538488388,0.5187987685203552,93.33334350585938,185554.0,1.0
15:40:33.404701,160762.515625,181430.546875,177696.203125,187145.53125,169201.8125,178980.078125,690768.0625,192560.109375,0.045654296875,1.013427734375,0.009521484375,-0.8850097060203552,-0.0915527269244194,0.3662109076976776,93.33334350585938,185555.0,1.0
15:40:33.410942,160816.15625,181433.765625,177699.15625,187136.0625,169202.890625,178975.171875,690682.625,192551.890625,0.047119140625,1.01220703125,0.00927734375,-0.7934569716453552,-0.0915527269244194,0.4577636420726776,93.33334350585938,185556.0,1.0
15:40:33.417749,160858.359375,181439.9375,177698.875,187115.40625,169207.546875,178971.859375,690970.6875,192544.734375,0.046142578125,1.01220703125,0.00634765625,-0.8239745497703552,-0.0610351525247097,0.4882812201976776,93.33334350585938,185557.0,1.0
15:40:33.417769,160785.9375,181425.09375,177681.71875,187080.359375,169191.8125,178965.234375,691195.8125,192534.53125,0.046142578125,1.011962890625,0.006591796875,-0.8239745497703552,-0.0915527269244194,0.4577636420726776,93.33334350585938,185558.0,1.0
15:40:33.419665,160739.8125,181405.515625,177670.53125,187125.0625,169177.328125,178955.40625,690816.8125,192539.71875,0.046630859375,1.01318359375,0.0048828125,-0.8544921278953552,-0.0610351525247097,0.4272460639476776,93.33334350585938,185559.0,1.0
15:40:33.431462,160781.375,181413.296875,177677.421875,187116.296875,169184.46875,178958.359375,690658.5625,192537.484375,0.04345703125,1.013427734375,0.00537109375,-0.7934569716453552,-0.1220703050494194,0.4577636420726776,93.33334350585938,185560.0,1.0
15:40:33.431479,160847.984375,181428.578125,177688.15625,187114.0625,169201.375,178964.53125,690897.4375,192540.078125,0.04443359375,1.013671875,0.005126953125,-0.7629393935203552,-0.1831054538488388,0.4577636420726776,93.33334350585938,185561.0,1.0
15:40:33.434192,160788.0,181420.09375,177674.734375,187066.859375,169191.453125,178962.296875,691201.375,192529.359375,0.04296875,1.013427734375,0.0048828125,-0.7629393935203552,-0.2746581733226776,0.3356933295726776,93.33334350585938,185562.0,1.0
15:40:33.434209,160736.234375,181400.59375,177665.359375,187115.484375,169176.421875,178953.703125,690889.75,192538.734375,0.04150390625,1.014404296875,0.008056640625,-0.7324218153953552,-0.2746581733226776,0.4272460639476776,93.33334350585938,185563.0,1.0
15:40:33.443407,160762.0625,181405.6875,177670.53125,187113.34375,169177.859375,178955.140625,690658.5625,192537.125,0.041259765625,1.013427734375,0.004150390625,-0.6713866591453552,-0.4577636420726776,0.5493163466453552,93.33334350585938,185564.0,1.0
15:40:33.446454,160839.578125,181422.328125,177684.125,187116.65625,169194.046875,178959.15625,690828.25,192539.8125,0.041015625,1.013427734375,0.006103515625,-0.6713866591453552,-0.5187987685203552,0.3662109076976776,93.33334350585938,185565.0,1.0
15:40:33.446468,160807.390625,181430.90625,177686.1875,187073.921875,169201.640625,178970.515625,691190.1875,192540.171875,0.042724609375,1.012451171875,0.004150390625,-0.7324218153953552,-0.4577636420726776,0.3967284858226776,93.33334350585938,185566.0,1.0
15:40:33.455940,160751.609375,181412.21875,177678.046875,187117.546875,169189.84375,178964.4375,690963.375,192551.53125,0.042236328125,1.01123046875,0.005859375,-0.7019042372703552,-0.6103515028953552,0.4272460639476776,93.33334350585938,185567.0,1.0
15:40:33.459094,160756.796875,181408.015625,177677.953125,187120.234375,169186.359375,178961.75,690662.0625,192548.75,0.041259765625,1.012939453125,0.005859375,-0.6713866591453552,-0.6713866591453552,0.4882812201976776,93.33334350585938,185568.0,1.0
15:40:33.459116,160831.890625,181415.171875,177685.203125,187123.71875,169197.96875,178958.984375,690772.5625,192547.953125,0.040283203125,1.01220703125,0.005126953125,-0.6103515028953552,-0.6408690810203552,0.5187987685203552,93.33334350585938,185569.0,1.0
15:40:33.464726,160810.078125,181418.5625,177679.484375,187074.359375,169199.578125,178961.3125,691144.5625,192538.921875,0.042724609375,1.011474609375,0.00146484375,-0.5798339247703552,-0.6713866591453552,0.5493163466453552,93.33334350585938,185570.0,1.0
15:40:33.468439,160744.71875,181400.859375,177668.75,187102.265625,169185.375,178956.296875,691039.0,192544.46875,0.0419921875,1.01123046875,0.00146484375,-0.5798339247703552,-0.7934569716453552,0.5493163466453552,93.33334350585938,185571.0,1.0
15:40:33.479043,160734.796875,181394.609375,177665.171875,187115.578125,169178.84375,178953.34375,690691.0,192545.453125,0.04296875,1.010009765625,0.00634765625,-0.6408690810203552,-0.9460448622703552,0.6408690810203552,93.33334350585938,185572.0,1.0
15:40:33.479067,160807.84375,181404.359375,177671.171875,187114.234375,169185.015625,178950.21875,690736.0,192540.4375,0.045654296875,1.010986328125,0.004150390625,-0.6103515028953552,-0.9155272841453552,0.6103515028953552,93.33334350585938,185573.0,1.0
15:40:33.481680,160805.703125,181409.09375,177666.15625,187067.484375,169184.5625,178949.953125,691096.1875,192526.140625,0.04443359375,1.01318359375,0.002685546875,-0.6408690810203552,-0.9765624403953552,0.6713866591453552,93.33334350585938,185574.0,1.0
15:40:33.481705,160737.921875,181393.71875,177655.78125,187076.15625,169170.609375,178946.640625,691107.6875,192527.296875,0.043701171875,1.01416015625,0.00146484375,-0.6408690810203552,-1.0681151151657104,0.6408690810203552,93.33334350585938,185575.0,1.0
15:40:33.490910,160718.53125,181384.421875,177653.375,187104.9375,169162.84375,178943.421875,690717.1875,192532.125,0.041259765625,1.013671875,0.001220703125,-0.6103515028953552,-1.0070799589157104,0.7019042372703552,93.33334350585938,185576.0,1.0
15:40:33.493354,160790.765625,181398.8125,177666.78125,187104.9375,169181.25,178947.71875,690702.125,192532.484375,0.045166015625,1.013916015625,0.00048828125,-0.6713866591453552,-1.0375975370407104,0.8544921278953552,93.33334350585938,185577.0,1.0
15:40:33.505249,160817.765625,181411.140625,177670.09375,187075.609375,169191.453125,178952.640625,691032.1875,192524.609375,0.0439453125,1.015625,0.003662109375,-0.7019042372703552,-1.1596678495407104,0.8544921278953552,93.33334350585938,185578.0,1.0
15:40:33.505277,160754.203125,181405.25,177666.0625,187069.890625,169186.265625,178955.9375,691166.9375,192529.359375,0.04443359375,1.0146484375,0.00146484375,-0.7019042372703552,-1.0986326932907104,0.9460448622703552,93.33334350585938,185579.0,1.0
15:40:33.508490,160719.6875,181390.140625,177659.984375,187109.859375,169174.8125,178948.609375,690764.9375,192537.75,0.042724609375,1.0146484375,0.00048828125,-0.7934569716453552,-1.1291502714157104,0.9765624403953552,93.33334350585938,185580.0,1.0
15:40:33.508531,160775.03125,181399.171875,177666.515625,187102.796875,169179.375,178949.234375,690669.1875,192532.21875,0.04443359375,1.015869140625,0.001708984375,-0.7934569716453552,-1.2207030057907104,1.0986326932907104,93.33334350585938,185581.0,1.0
15:40:33.509660,160822.234375,181412.40625,177669.734375,187084.5625,169186.890625,178951.65625,690952.1875,192525.515625,0.04443359375,1.01611328125,0.00244140625,-0.8544921278953552,-1.1291502714157104,0.9765624403953552,93.33334350585938,185582.0,1.0
15:40:33.522269,160758.9375,181404.4375,177659.71875,187053.0,169178.578125,178951.734375,691193.25,192521.484375,0.042236328125,1.017333984375,0.003662109375,-0.8239745497703552,-1.1291502714157104,1.0070799589157104,93.33334350585938,185583.0,1.0
15:40:33.561505,160716.03125,181385.75,177653.109375,187102.703125,169165.96875,178944.59375,690825.875,192530.25,0.044677734375,1.017333984375,0.00537109375,-0.8544921278953552,-1.2817381620407104,1.0681151151657104,93.33334350585938,185584.0,1.0
15:40:33.561525,160757.234375,181392.90625,177659.8125,187097.078125,169169.546875,178946.109375,690654.125,192526.84375,0.045654296875,1.016845703125,0.005126953125,-0.9155272841453552,-1.1901854276657104,1.0986326932907104,93.33334350585938,185585.0,1.0
15:40:33.570893,160818.03125,181403.015625,177664.015625,187091.171875,169178.390625,178946.109375,690878.5,192524.4375,0.04541015625,1.01708984375,0.005859375,-0.9765624403953552,-1.3122557401657104,1.0986326932907104,93.33334350585938,185586.0,1.0
15:40:33.573409,160762.78125,181397.734375,177654.265625,187047.71875,169173.03125,178946.203125,691196.0,192517.46875,0.047119140625,1.017333984375,0.005126953125,-1.0986326932907104,-1.2207030057907104,1.0986326932907104,93.33334350585938,185587.0,1.0
15:40:33.575877,160715.125,181382.0,177649.53125,187099.671875,169162.296875,178941.8125,690896.75,192530.421875,0.04736328125,1.017333984375,0.0048828125,-1.1291502714157104,-1.1596678495407104,1.0986326932907104,93.33334350585938,185588.0,1.0
15:40:33.578447,160743.5625,181388.703125,177657.3125,187098.421875,169165.515625,178945.296875,690655.6875,192529.078125,0.048583984375,1.017333984375,0.002685546875,-1.0681151151657104,-1.1291502714157104,0.9765624403953552,93.33334350585938,185589.0,1.0
15:40:33.580886,160820.453125,181405.0625,177667.765625,187099.484375,169178.84375,178948.609375,690813.5,192528.015625,0.04736328125,1.016357421875,-0.000732421875,-1.1291502714157104,-1.0986326932907104,1.0681151151657104,93.33334350585938,185590.0,1.0
15:40:33.583369,160787.28125,181413.296875,177665.078125,187051.390625,169181.53125,178956.921875,691181.75,192521.75,0.048828125,1.013671875,0.003173828125,-1.2207030057907104,-1.0375975370407104,1.1596678495407104,93.33334350585938,185591.0,1.0
15:40:33.585868,160726.21875,181393.265625,177655.515625,187090.71875,169167.578125,178949.421875,690964.8125,192528.453125,0.04833984375,1.015625,0.002197265625,-1.1596678495407104,-0.9765624403953552,1.1901854276657104,93.33334350585938,185592.0,1.0
15:40:33.588424,160730.515625,181388.96875,177654.625,187092.421875,169161.5,178944.3125,690659.5625,192523.625,0.05078125,1.01513671875,0.001953125,-1.1901854276657104,-0.9155272841453552,1.2207030057907104,93.33334350585938,185593.0,1.0
15:40:33.591041,160814.640625,181406.140625,177668.125,187099.84375,169176.875,178947.984375,690781.4375,192525.859375,0.05126953125,1.0146484375,0.0009765625,-1.2512205839157104,-0.9155272841453552,1.3732908964157104,93.33334350585938,185594.0,1.0
15:40:33.593417,160799.890625,181416.953125,177668.75,187055.40625,169181.796875,178956.296875,691151.125,192518.890625,0.05029296875,1.012939453125,0.00390625,-1.3122557401657104,-0.8239745497703552,1.2207030057907104,93.33334350585938,185595.0,1.0
15:40:33.595937,160737.578125,181401.84375,177662.484375,187085.0,169170.171875,178952.453125,691045.625,192527.296875,0.050048828125,1.011962890625,0.002197265625,-1.3732908964157104,-0.7324218153953552,1.1291502714157104,93.33334350585938,185596.0,1.0
15:40:33.598443,160729.25,181394.15625,177660.078125,187100.921875,169163.90625,178949.5,690682.4375,192529.359375,0.050537109375,1.01220703125,0.004638671875,-1.3122557401657104,-0.6713866591453552,1.1596678495407104,93.33334350585938,185597.0,1.0
15:40:33.601553,160805.96875,181405.6875,177669.640625,187105.03125,169173.65625,178949.953125,690722.3125,192529.625,0.048095703125,1.0126953125,0.005859375,-1.1901854276657104,-0.5187987685203552,1.1596678495407104,93.33334350585938,185598.0,1.0
15:40:33.601574,160809.0,181412.671875,177666.875,187064.078125,169178.3125,178953.53125,691080.75,192520.6875,0.048828125,1.012451171875,0.00732421875,-1.4038084745407104,-0.5187987685203552,1.1596678495407104,93.33334350585938,185599.0,1.0
15:40:33.604008,160742.578125,181401.21875,177658.46875,187070.34375,169171.25,178954.515625,691106.375,192523.546875,0.05029296875,1.01513671875,0.00439453125,-1.3732908964157104,-0.4272460639476776,1.1596678495407104,93.33334350585938,185600.0,1.0
15:40:33.604019,160720.140625,181389.59375,177653.734375,187098.328125,169162.5625,178949.6875,690713.5625,192527.296875,0.050537109375,1.014892578125,0.00439453125,-1.4343260526657104,-0.3662109076976776,1.0375975370407104,93.33334350585938,185601.0,1.0
15:40:33.607063,160787.109375,181399.96875,177662.578125,187096.1875,169171.875,178949.328125,690701.5625,192526.40625,0.050537109375,1.014892578125,0.003173828125,-1.4038084745407104,-0.3662109076976776,1.0986326932907104,93.33334350585938,185602.0,1.0
15:40:33.607078,160812.21875,181407.75,177662.046875,187066.3125,169177.859375,178951.03125,691029.8125,192518.71875,0.05078125,1.011962890625,0.00537109375,-1.4648436307907104,-0.2746581733226776,1.1291502714157104,93.33334350585938,185603.0,1.0
15:40:33.608447,160745.34375,181398.90625,177654.0,187054.609375,169170.53125,178951.46875,691170.4375,192518.890625,0.052734375,1.01220703125,0.003662109375,-1.4038084745407104,-0.2136230319738388,1.1291502714157104,93.33334350585938,185604.0,1.0
15:40:33.611456,160709.234375,181384.0625,177647.828125,187093.40625,169160.6875,178946.015625,690778.375,192525.515625,0.048828125,1.01318359375,0.002685546875,-1.4953612089157104,-0.1220703050494194,1.0070799589157104,93.33334350585938,185605.0,1.0
15:40:33.611479,160764.296875,181393.4375,177656.40625,187087.78125,169167.9375,178947.53125,690672.0625,192522.640625,0.05126953125,1.014404296875,0.001708984375,-1.4343260526657104,-0.0610351525247097,0.8850097060203552,93.33334350585938,185606.0,1.0
15:40:33.615206,160815.53125,181406.765625,177663.296875,187076.875,169179.734375,178950.75,690946.0,192521.65625,0.049560546875,1.01318359375,0.00146484375,-1.4038084745407104,0.0,0.8544921278953552,93.33334350585938,185607.0,1.0
15:40:33.615233,160755.71875,181403.640625,177658.46875,187049.515625,169178.125,178955.140625,691197.875,192522.109375,0.049072265625,1.01123046875,-0.000244140625,-1.5258787870407104,0.1220703050494194,0.8850097060203552,93.33334350585938,185608.0,1.0
15:40:33.627269,160710.296875,181385.578125,177651.140625,187096.8125,169166.765625,178948.4375,690829.5,192531.59375,0.04931640625,1.011962890625,0.00146484375,-1.4038084745407104,0.1525878757238388,0.7934569716453552,93.33334350585938,185609.0,1.0
15:40:33.632236,160745.796875,181389.59375,177654.0,187086.609375,169167.484375,178947.71875,690657.75,192525.6875,0.050537109375,1.010986328125,0.003662109375,-1.4038084745407104,0.1831054538488388,0.7324218153953552,93.33334350585938,185610.0,1.0
15:40:33.632341,160809.1875,181400.15625,177659.0,187080.53125,169176.875,178947.09375,690882.25,192523.1875,0.048828125,1.010498046875,0.0029296875,-1.4343260526657104,0.1831054538488388,0.7324218153953552,93.33334350585938,185611.0,1.0
15:40:33.632370,160758.5,181398.09375,177651.5,187036.1875,169173.296875,178949.140625,691203.5,192516.296875,0.050048828125,1.01171875,0.000244140625,-1.4953612089157104,0.2136230319738388,0.7629393935203552,93.33334350585938,185612.0,1.0
15:40:33.634722,160707.796875,181380.65625,177646.484375,187086.96875,169163.734375,178943.875,690905.25,192528.375,0.04931640625,1.011474609375,0.003662109375,-1.3732908964157104,0.2136230319738388,0.6713866591453552,93.33334350585938,185613.0,1.0
15:40:33.638833,160733.015625,181387.1875,177653.734375,187085.8125,169167.484375,178947.625,690658.125,192526.84375,0.0498046875,1.01318359375,0.005126953125,-1.4343260526657104,0.3051757514476776,0.7324218153953552,93.33334350585938,185614.0,1.0
15:40:33.665990,160806.421875,181398.625,177659.8125,187083.75,169175.09375,178946.734375,690814.5,192520.59375,0.04833984375,1.013427734375,0.002197265625,-1.3427733182907104,0.3967284858226776,0.7629393935203552,93.33334350585938,185615.0,1.0
15:40:33.673011,160770.296875,181401.046875,177654.71875,187033.78125,169174.46875,178950.21875,691180.4375,192510.046875,0.0478515625,1.011962890625,0.00390625,-1.3732908964157104,0.4577636420726776,0.7324218153953552,93.33334350585938,185616.0,1.0
15:40:33.673031,160717.359375,181389.59375,177653.375,187080.796875,169168.65625,178949.328125,690979.25,192523.984375,0.04931640625,1.01171875,0.00146484375,-1.3122557401657104,0.5187987685203552,0.5798339247703552,93.33334350585938,185617.0,1.0
15:40:33.673034,160724.78125,181390.5,177659.1875,187090.28125,169169.453125,178949.0625,690667.0,192525.328125,0.0498046875,1.01220703125,0.0009765625,-1.3427733182907104,0.6103515028953552,0.5798339247703552,93.33334350585938,185618.0,1.0
15:40:33.673037,160809.0,181405.6875,177673.125,187098.6875,169183.84375,178952.015625,690771.0625,192526.765625,0.049072265625,1.01220703125,-0.000244140625,-1.3427733182907104,0.5493163466453552,0.5187987685203552,93.33334350585938,185619.0,1.0
15:40:33.673040,160791.484375,181410.171875,177667.234375,187049.234375,169182.953125,178954.15625,691146.1875,192516.125,0.049072265625,1.01318359375,0.001953125,-1.3427733182907104,0.5493163466453552,0.4882812201976776,93.33334350585938,185620.0,1.0
15:40:33.675883,160723.265625,181390.3125,177653.8125,187072.75,169165.34375,178945.65625,691050.875,192520.765625,0.048828125,1.01416015625,0.003662109375,-1.3732908964157104,0.6408690810203552,0.5187987685203552,93.33334350585938,185621.0,1.0
15:40:33.675904,160711.109375,181382.09375,177650.328125,187089.390625,169156.484375,178940.921875,690680.8125,192523.0,0.048583984375,1.01123046875,0.00390625,-1.2817381620407104,0.6103515028953552,0.4272460639476776,93.33334350585938,185622.0,1.0
15:40:33.675908,160785.21875,181392.640625,177658.734375,187089.296875,169165.25,178940.921875,690727.75,192522.109375,0.04736328125,1.010986328125,0.004150390625,-1.4038084745407104,0.7019042372703552,0.4577636420726776,93.33334350585938,185623.0,1.0
15:40:33.679645,160793.625,181402.296875,177658.46875,187052.453125,169173.921875,178948.078125,691090.5625,192517.734375,0.04638671875,1.011474609375,0.0068359375,-1.4038084745407104,0.5798339247703552,0.4577636420726776,93.33334350585938,185624.0,1.0
15:40:33.689699,160726.3125,181386.921875,177648.640625,187059.875,169162.21875,178943.6875,691126.3125,192522.5625,0.04541015625,1.011962890625,0.00732421875,-1.4038084745407104,0.6713866591453552,0.3967284858226776,93.33334350585938,185625.0,1.0
15:40:33.705847,160706.09375,181376.09375,177645.859375,187092.328125,169153.0,178938.234375,690735.8125,192529.265625,0.0458984375,1.011962890625,0.005126953125,-1.4343260526657104,0.6408690810203552,0.3967284858226776,93.33334350585938,185626.0,1.0
15:40:33.705869,160777.796875,181391.828125,177659.546875,187095.375,169164.53125,178943.515625,690695.5625,192530.515625,0.045654296875,1.012939453125,0.005126953125,-1.4038084745407104,0.6408690810203552,0.3662109076976776,93.33334350585938,185627.0,1.0
15:40:33.705874,160807.9375,181401.046875,177659.1875,187067.65625,169168.296875,178943.78125,691015.5625,192521.65625,0.047607421875,1.010986328125,0.004638671875,-1.3732908964157104,0.5798339247703552,0.2746581733226776,93.33334350585938,185628.0,1.0
15:40:33.708483,160742.9375,181391.65625,177651.140625,187054.25,169156.671875,178942.890625,691175.0625,192519.96875,0.046630859375,1.012939453125,0.0048828125,-1.2817381620407104,0.4882812201976776,0.2136230319738388,93.33334350585938,185629.0,1.0
15:40:33.716661,160703.0625,181373.0625,177641.921875,187092.6875,169141.296875,178933.59375,690779.0625,192523.0,0.04638671875,1.011962890625,0.001220703125,-1.3427733182907104,0.3662109076976776,0.2746581733226776,93.33334350585938,185630.0,1.0
15:40:33.716677,160754.5625,181380.921875,177647.46875,187083.125,169144.59375,178934.21875,690674.0625,192515.859375,0.046630859375,1.01220703125,0.0,-1.2817381620407104,0.3662109076976776,0.2136230319738388,93.33334350585938,185631.0,1.0
15:40:33.718634,160806.6875,181394.96875,177652.390625,187067.65625,169155.5,178938.953125,690953.25,192512.09375,0.04638671875,1.012939453125,0.001953125,-1.3732908964157104,0.2441406100988388,0.1525878757238388,93.33334350585938,185632.0,1.0
15:40:33.722829,160749.46875,181394.515625,177648.0,187036.546875,169155.0625,178944.765625,691212.6875,192510.9375,0.045166015625,1.011474609375,0.005126953125,-1.3122557401657104,0.2441406100988388,0.3051757514476776,93.33334350585938,185633.0,1.0
15:40:33.722844,160708.328125,181382.09375,177645.5,187087.421875,169147.1875,178941.90625,690843.8125,192522.828125,0.044677734375,1.012451171875,0.003173828125,-1.3732908964157104,0.1831054538488388,0.3051757514476776,93.33334350585938,185634.0,1.0
15:40:33.732765,160743.5625,181386.828125,177650.421875,187080.625,169149.421875,178941.640625,690665.0,192518.796875,0.045654296875,1.0126953125,0.00537109375,-1.2817381620407104,0.2441406100988388,0.3051757514476776,93.33334350585938,185635.0,1.0
15:40:33.732785,160810.4375,181398.453125,177656.953125,187079.453125,169160.6875,178941.734375,690886.625,192516.921875,0.044189453125,1.011962890625,0.00244140625,-1.3427733182907104,0.2441406100988388,0.2746581733226776,93.33334350585938,185636.0,1.0
15:40:33.735255,160765.46875,181403.453125,177656.6875,187041.828125,169164.09375,178949.859375,691213.5,192514.953125,0.043212890625,1.01123046875,0.0029296875,-1.3122557401657104,0.1525878757238388,0.3662109076976776,93.33334350585938,185637.0,1.0
15:40:33.735272,160713.875,181385.671875,177650.6875,187091.265625,169150.765625,178942.53125,690919.4375,192523.453125,0.043701171875,1.01220703125,0.000732421875,-1.2817381620407104,0.0610351525247097,0.3356933295726776,93.33334350585938,185638.0,1.0
15:40:33.740913,160738.203125,181389.78125,177658.203125,187093.046875,169153.8125,178944.3125,690667.9375,192523.09375,0.0439453125,1.0126953125,0.0009765625,-1.3122557401657104,0.1220703050494194,0.3662109076976776,93.33334350585938,185639.0,1.0
15:40:33.751630,160817.765625,181406.859375,177671.25,187097.609375,169170.078125,178948.703125,690828.0,192523.8125,0.04345703125,1.01318359375,0.001220703125,-1.3122557401657104,0.0610351525247097,0.2441406100988388,93.33334350585938,185640.0,1.0
15:40:33.751650,160785.5,181413.828125,177668.921875,187050.40625,169173.65625,178956.296875,691196.5,192518.171875,0.043701171875,1.012939453125,0.001220703125,-1.3122557401657104,0.03051757626235485,0.2746581733226776,93.33334350585938,185641.0,1.0
15:40:33.754040,160723.796875,181393.265625,177657.484375,187088.9375,169158.1875,178948.796875,690997.9375,192526.140625,0.04248046875,1.013916015625,0.003173828125,-1.2817381620407104,-0.0610351525247097,0.2136230319738388,93.33334350585938,185642.0,1.0
15:40:33.754066,160724.78125,181387.90625,177653.734375,187091.359375,169149.78125,178943.875,690680.375,192521.75,0.044189453125,1.01513671875,0.00390625,-1.3427733182907104,-0.0915527269244194,0.2746581733226776,93.33334350585938,185643.0,1.0
15:40:33.767153,160794.25,181389.6875,177652.390625,187083.3125,169149.609375,178932.78125,690774.8125,192512.09375,0.04541015625,1.013671875,0.00439453125,-1.3427733182907104,-0.1220703050494194,0.3967284858226776,93.33334350585938,185644.0,1.0
15:40:33.770250,160776.828125,181392.1875,177644.609375,187034.3125,169149.15625,178933.328125,691144.0625,192502.0,0.045166015625,1.013427734375,0.004638671875,-1.3732908964157104,-0.2136230319738388,0.3662109076976776,93.33334350585938,185645.0,1.0
15:40:33.770272,160712.453125,181376.90625,177637.375,187060.78125,169140.21875,178930.90625,691071.1875,192512.09375,0.04736328125,1.013671875,0.000732421875,-1.4038084745407104,-0.2136230319738388,0.3662109076976776,93.33334350585938,185646.0,1.0
15:40:33.797145,160702.703125,181371.8125,177637.015625,187077.765625,169136.46875,178930.109375,690712.125,192515.671875,0.047119140625,1.014892578125,0.0029296875,-1.4953612089157104,-0.3356933295726776,0.3967284858226776,93.33334350585938,185647.0,1.0
15:40:33.799720,160780.390625,181386.921875,177649.703125,187079.109375,169149.96875,178934.03125,690731.5,192514.953125,0.047119140625,1.014892578125,0.006103515625,-1.5563963651657104,-0.2441406100988388,0.3356933295726776,93.33334350585938,185648.0,1.0
15:40:33.802126,160788.359375,181396.75,177650.59375,187042.171875,169156.40625,178938.328125,691089.4375,192507.8125,0.046875,1.0146484375,0.00634765625,-1.5563963651657104,-0.3662109076976776,0.4577636420726776,93.33334350585938,185649.0,1.0
15:40:33.804621,160718.890625,181383.15625,177641.03125,187046.828125,169144.328125,178934.84375,691135.9375,192508.703125,0.045166015625,1.015869140625,0.003173828125,-1.6479490995407104,-0.3051757514476776,0.4272460639476776,93.33334350585938,185650.0,1.0
15:40:33.807119,160696.0,181372.796875,177637.453125,187078.5625,169134.859375,178930.90625,690732.3125,192512.8125,0.046142578125,1.013916015625,0.003662109375,-1.6784666776657104,-0.3051757514476776,0.5187987685203552,93.33334350585938,185651.0,1.0
15:40:33.809646,160762.34375,181383.78125,177646.21875,187073.46875,169142.90625,178932.515625,690688.625,192508.703125,0.045166015625,1.015869140625,0.005126953125,-1.6479490995407104,-0.3051757514476776,0.5798339247703552,93.33334350585938,185652.0,1.0
15:40:33.812121,160798.453125,181398.8125,177651.3125,187047.984375,169154.25,178940.125,691013.4375,192504.234375,0.044677734375,1.012939453125,0.005126953125,-1.7089842557907104,-0.3356933295726776,0.5187987685203552,93.33334350585938,185653.0,1.0
15:40:33.814662,160732.5625,181389.59375,177642.375,187034.21875,169146.921875,178940.828125,691186.875,192504.765625,0.04541015625,1.013671875,0.006591796875,-1.8310545682907104,-0.3356933295726776,0.4882812201976776,93.33334350585938,185654.0,1.0
15:40:33.817224,160698.328125,181374.21875,177638.53125,187080.265625,169137.625,178934.21875,690788.1875,192514.515625,0.04541015625,1.01513671875,0.006103515625,-1.9531248807907104,-0.3967284858226776,0.5798339247703552,93.33334350585938,185655.0,1.0
15:40:33.820197,160753.671875,181384.140625,177649.265625,187077.9375,169145.9375,178935.46875,690681.75,192514.78125,0.044921875,1.0146484375,0.00537109375,-2.044677495956421,-0.3662109076976776,0.5493163466453552,93.33334350585938,185656.0,1.0
15:40:33.820209,160809.28125,181399.96875,177658.921875,187070.34375,169159.703125,178940.921875,690959.3125,192516.125,0.0439453125,1.014404296875,0.00390625,-2.044677495956421,-0.3662109076976776,0.5798339247703552,93.33334350585938,185657.0,1.0
15:40:33.822119,160746.421875,181393.796875,177649.34375,187033.421875,169150.328125,178941.28125,691219.9375,192507.625,0.046142578125,1.013427734375,0.00634765625,-2.014159917831421,-0.3356933295726776,0.5493163466453552,93.33334350585938,185658.0,1.0
15:40:33.824612,160690.1875,181364.921875,177631.5625,187072.3125,169127.515625,178923.3125,690845.875,192505.65625,0.046630859375,1.01416015625,0.005126953125,-2.014159917831421,-0.3662109076976776,0.5187987685203552,93.33334350585938,185659.0,1.0
15:40:33.829039,160729.609375,181372.796875,177641.65625,187069.625,169135.03125,178924.921875,690657.5625,192503.875,0.046142578125,1.01416015625,0.001708984375,-2.105712652206421,-0.4882812201976776,0.4577636420726776,93.33334350585938,185660.0,1.0
15:40:33.829065,160805.875,181390.9375,177657.578125,187076.234375,169153.09375,178931.0,690874.6875,192507.0,0.0458984375,1.013427734375,0.003173828125,-2.014159917831421,-0.4272460639476776,0.5493163466453552,93.33334350585938,185661.0,1.0
15:40:33.844082,160762.421875,181395.765625,177656.6875,187038.515625,169156.125,178939.046875,691209.25,192503.25,0.0458984375,1.011474609375,0.0048828125,-2.044677495956421,-0.3662109076976776,0.4272460639476776,93.33334350585938,185662.0,1.0
15:40:33.844108,160710.03125,181376.640625,177648.90625,187086.96875,169142.8125,178931.890625,690914.875,192511.203125,0.047119140625,1.010009765625,0.00341796875,-2.014159917831421,-0.3967284858226776,0.4882812201976776,93.33334350585938,185663.0,1.0
15:40:33.846687,160727.203125,181374.9375,177648.640625,187080.984375,169138.609375,178927.875,690655.0,192504.5,0.04541015625,1.011962890625,0.00390625,-1.8920897245407104,-0.4577636420726776,0.4272460639476776,93.33334350585938,185664.0,1.0
15:40:33.846703,160805.078125,181387.640625,177656.5,187084.640625,169149.609375,178927.515625,690818.1875,192505.125,0.0458984375,1.010986328125,0.001708984375,-1.8310545682907104,-0.3662109076976776,0.4882812201976776,93.33334350585938,185665.0,1.0
15:40:33.848490,160768.421875,181387.1875,177646.75,187031.890625,169144.515625,178928.671875,691183.1875,192498.78125,0.045654296875,1.01025390625,0.001708984375,-1.7395018339157104,-0.2441406100988388,0.4577636420726776,93.33334350585938,185666.0,1.0
15:40:33.852137,160701.546875,181364.203125,177632.71875,187067.03125,169126.359375,178917.9375,690993.8125,192505.84375,0.046875,1.01123046875,0.00341796875,-1.7089842557907104,-0.2746581733226776,0.3967284858226776,93.33334350585938,185667.0,1.0
15:40:33.867890,160705.109375,181363.3125,177633.4375,187077.046875,169124.21875,178918.921875,690676.5625,192508.875,0.048095703125,1.01123046875,0.003173828125,-1.6784666776657104,-0.2746581733226776,0.4272460639476776,93.33334350585938,185668.0,1.0
15:40:33.867974,160787.1875,181379.765625,177646.21875,187083.484375,169138.609375,178923.9375,690771.1875,192512.28125,0.048828125,1.011474609375,0.00537109375,-1.5869139432907104,-0.2746581733226776,0.4882812201976776,93.33334350585938,185669.0,1.0
15:40:33.873190,160774.140625,181384.953125,177641.484375,187033.6875,169138.515625,178926.4375,691143.5,192500.75,0.047607421875,1.011474609375,0.00390625,-1.5869139432907104,-0.1831054538488388,0.4882812201976776,93.33334350585938,185670.0,1.0
15:40:33.873287,160710.03125,181368.59375,177632.1875,187054.515625,169124.390625,178920.71875,691077.625,192504.859375,0.046630859375,1.012939453125,0.00341796875,-1.6479490995407104,-0.1220703050494194,0.3967284858226776,93.33334350585938,185671.0,1.0
15:40:33.874899,160694.390625,181356.25,177625.5625,187070.515625,169114.5625,178913.109375,690704.3125,192503.328125,0.04541015625,1.01318359375,0.00341796875,-1.5258787870407104,-0.0610351525247097,0.4577636420726776,93.33334350585938,185672.0,1.0
15:40:33.928427,160768.953125,181367.875,177634.5,187070.4375,169124.75,178913.46875,690721.9375,192502.4375,0.04736328125,1.01220703125,0.006103515625,-1.4953612089157104,-0.0915527269244194,0.4577636420726776,93.33334350585938,185673.0,1.0
15:40:33.928481,160776.375,181373.78125,177631.46875,187032.515625,169127.703125,178915.4375,691078.5,192494.578125,0.049072265625,1.012939453125,0.004150390625,-1.5563963651657104,0.0,0.4577636420726776,93.33334350585938,185674.0,1.0
15:40:33.936619,160704.40625,181357.953125,177617.609375,187033.421875,169112.765625,178909.984375,691137.9375,192494.21875,0.050048828125,1.011474609375,0.00537109375,-1.5869139432907104,-0.0610351525247097,0.4882812201976776,93.33334350585938,185675.0,1.0
15:40:33.936714,160678.296875,181345.25,177611.984375,187064.703125,169101.140625,178902.65625,690742.1875,192499.046875,0.050537109375,1.01171875,0.00537109375,-1.5563963651657104,0.03051757626235485,0.3967284858226776,93.33334350585938,185676.0,1.0
