Timestamp,Fz,FC3,FCz,FC4,Cz,C3,C4
15:43:05.972720,158029.25,178467.78125,176945.984375,183436.03125,161763.96875,175044.03125,691087.875,189670.5625,0.05517578125,1.01220703125,-0.041748046875,-1.3122557401657104,-0.3051757514476776,0.6103515028953552,86.66667175292969,223727.0,1.0
15:43:05.974632,158066.09375,178474.9375,176957.078125,183438.1875,161769.5,175046.171875,690702.5625,189671.453125,0.055908203125,1.0126953125,-0.04345703125,-1.3122557401657104,-0.3051757514476776,0.5187987685203552,86.66667175292969,223728.0,1.0
15:43:05.982125,158173.734375,178490.125,176969.9375,183468.484375,161785.953125,175045.109375,691007.6875,189679.859375,0.054931640625,1.011962890625,-0.045654296875,-1.4038084745407104,-0.2441406100988388,0.4882812201976776,86.66667175292969,223729.0,1.0
15:43:05.990201,158126.171875,178476.359375,176949.109375,183420.296875,161772.640625,175035.453125,691542.6875,189666.71875,0.05517578125,1.012451171875,-0.042236328125,-1.4038084745407104,-0.2136230319738388,0.6103515028953552,86.66667175292969,223730.0,1.0
15:43:05.990226,158020.671875,178447.75,176926.671875,183425.484375,161747.953125,175024.09375,691199.8125,189665.375,0.05517578125,1.0146484375,-0.04296875,-1.4038084745407104,-0.3051757514476776,0.5798339247703552,86.66667175292969,223731.0,1.0
15:43:05.996490,158027.375,178455.703125,176929.171875,183417.796875,161745.1875,175035.09375,690706.875,189663.40625,0.057861328125,1.013916015625,-0.04052734375,-1.5258787870407104,-0.2136230319738388,0.5493163466453552,86.66667175292969,223732.0,1.0
15:43:05.996516,158135.828125,178467.875,176940.265625,183441.9375,161758.421875,175031.875,690896.125,189666.453125,0.056884765625,1.012939453125,-0.04443359375,-1.5869139432907104,-0.1220703050494194,0.4882812201976776,86.66667175292969,223733.0,1.0
15:43:06.003995,158129.125,178474.03125,176936.234375,183408.046875,161760.125,175035.53125,691486.5,189659.828125,0.055908203125,1.010498046875,-0.0419921875,-1.5563963651657104,-0.0610351525247097,0.4882812201976776,86.66667175292969,223734.0,1.0
15:43:06.004011,158030.328125,178453.5625,176922.46875,183415.65625,161742.953125,175032.140625,691323.9375,189662.96875,0.056396484375,1.01025390625,-0.039306640625,-1.6174315214157104,-0.0610351525247097,0.4882812201976776,86.66667175292969,223735.0,1.0
15:43:06.009561,158019.515625,178455.265625,176927.5625,183420.484375,161742.5,175039.375,690761.1875,189666.265625,0.054443359375,1.0107421875,-0.03955078125,-1.6174315214157104,0.0610351525247097,0.4882812201976776,86.66667175292969,223736.0,1.0
15:43:06.013899,158121.25,178467.59375,176937.484375,183440.5,161753.40625,175036.875,690844.4375,189661.890625,0.05712890625,1.01025390625,-0.041015625,-1.6479490995407104,-0.03051757626235485,0.6408690810203552,86.66667175292969,223737.0,1.0
15:43:06.013930,158140.921875,178474.03125,176933.203125,183417.265625,161757.34375,175035.984375,691417.1875,189655.71875,0.054931640625,1.010009765625,-0.040283203125,-1.6479490995407104,0.0,0.6713866591453552,86.66667175292969,223738.0,1.0
15:43:06.023332,158037.65625,178448.203125,176912.1875,183406.984375,161736.34375,175025.875,691431.6875,189656.4375,0.05615234375,1.011474609375,-0.039794921875,-1.6479490995407104,0.0610351525247097,0.7324218153953552,86.66667175292969,223739.0,1.0
15:43:06.030154,157987.328125,178430.9375,176901.546875,183400.625,161719.890625,175018.90625,690813.0,189646.421875,0.0556640625,1.009033203125,-0.03759765625,-1.6174315214157104,0.1525878757238388,0.6713866591453552,86.66667175292969,223740.0,1.0
15:43:06.030176,158085.84375,178449.09375,176919.515625,183422.53125,161735.0,175022.03125,690761.125,189647.859375,0.05712890625,1.010009765625,-0.040283203125,-1.6174315214157104,0.1220703050494194,0.6408690810203552,86.66667175292969,223741.0,1.0
15:43:06.035848,158146.921875,178471.359375,176932.84375,183425.125,161754.3125,175030.796875,691301.3125,189654.65625,0.056640625,1.010498046875,-0.04150390625,-1.5869139432907104,0.0915527269244194,0.7019042372703552,86.66667175292969,223742.0,1.0
15:43:06.060840,158070.296875,178468.234375,176930.609375,183415.5625,161752.78125,175037.5,691509.25,189661.625,0.05712890625,1.008544921875,-0.0400390625,-1.4953612089157104,0.2441406100988388,0.7934569716453552,86.66667175292969,223743.0,1.0
15:43:06.084643,158021.5625,178469.125,176937.84375,183441.140625,161752.78125,175046.71875,690890.0625,189675.296875,0.056884765625,1.0087890625,-0.03857421875,-1.4343260526657104,0.2746581733226776,0.7934569716453552,86.66667175292969,223744.0,1.0
15:43:06.087137,158099.53125,178479.5,176952.78125,183448.46875,161766.46875,175047.609375,690720.1875,189672.703125,0.0546875,1.01025390625,-0.038818359375,-1.5258787870407104,0.2136230319738388,0.7629393935203552,86.66667175292969,223745.0,1.0
15:43:06.089745,158176.953125,178496.21875,176964.40625,183457.578125,161784.078125,175051.453125,691188.5,189675.03125,0.056396484375,1.009521484375,-0.03955078125,-1.4648436307907104,0.2441406100988388,0.7934569716453552,86.66667175292969,223746.0,1.0
15:43:06.117099,158098.640625,178483.6875,176948.75,183419.859375,161773.4375,175049.03125,691547.4375,189666.09375,0.05712890625,1.0087890625,-0.04248046875,-1.5258787870407104,0.1831054538488388,0.8239745497703552,86.66667175292969,223747.0,1.0
15:43:06.119627,158012.09375,178456.6875,176932.21875,183429.953125,161752.875,175035.71875,690983.1875,189663.6875,0.055908203125,1.010009765625,-0.03955078125,-1.4343260526657104,0.2441406100988388,0.8544921278953552,86.66667175292969,223748.0,1.0
15:43:06.122108,158062.25,178459.109375,176938.734375,183430.578125,161755.640625,175030.265625,690691.8125,189660.640625,0.0556640625,1.01123046875,-0.041259765625,-1.3427733182907104,0.2746581733226776,0.8850097060203552,86.66667175292969,223749.0,1.0
15:43:06.124551,158156.921875,178474.9375,176948.578125,183450.25,161769.234375,175032.3125,691085.1875,189662.15625,0.0556640625,1.01171875,-0.041748046875,-1.4343260526657104,0.3356933295726776,0.7934569716453552,86.66667175292969,223750.0,1.0
15:43:06.129619,158105.96875,178477.4375,176940.703125,183415.203125,161766.375,175037.953125,691564.0625,189661.09375,0.05419921875,1.009765625,-0.040771484375,-1.4648436307907104,0.3662109076976776,0.7934569716453552,86.66667175292969,223751.0,1.0
15:43:06.132140,158012.09375,178456.0625,176924.4375,183427.0,161743.3125,175032.234375,691113.5625,189659.828125,0.0537109375,1.0107421875,-0.040771484375,-1.4648436307907104,0.2441406100988388,0.9155272841453552,86.66667175292969,223752.0,1.0
15:43:06.134581,158035.15625,178456.421875,176925.953125,183414.671875,161738.65625,175032.578125,690704.0625,189648.921875,0.05517578125,1.012939453125,-0.041015625,-1.4648436307907104,0.2441406100988388,0.8850097060203552,86.66667175292969,223753.0,1.0
15:43:06.137067,158148.875,178482.53125,176945.453125,183448.640625,161759.765625,175045.453125,690997.0,189661.171875,0.055419921875,1.010009765625,-0.042724609375,-1.4343260526657104,0.2746581733226776,0.8239745497703552,86.66667175292969,223754.0,1.0
15:43:06.139659,158124.296875,178487.265625,176944.828125,183415.203125,161767.71875,175052.703125,691555.5,189663.046875,0.05517578125,1.01171875,-0.040771484375,-1.4648436307907104,0.2441406100988388,0.8544921278953552,86.66667175292969,223755.0,1.0
15:43:06.142387,158020.5,178460.265625,176925.59375,183417.265625,161745.90625,175042.59375,691239.4375,189658.859375,0.054931640625,1.010986328125,-0.041748046875,-1.4648436307907104,0.2441406100988388,0.8544921278953552,86.66667175292969,223756.0,1.0
15:43:06.145342,158029.609375,178466.078125,176934.546875,183419.140625,161747.875,175047.78125,690729.1875,189665.5625,0.056640625,1.01123046875,-0.039794921875,-1.3427733182907104,0.1525878757238388,0.7934569716453552,86.66667175292969,223757.0,1.0
15:43:06.148193,158141.8125,178483.0625,176951.265625,183451.953125,161765.390625,175048.765625,690890.9375,189671.90625,0.056884765625,1.011962890625,-0.0419921875,-1.4343260526657104,0.1525878757238388,0.7629393935203552,86.66667175292969,223758.0,1.0
15:43:06.149619,158138.515625,178488.34375,176945.453125,183417.53125,161766.5625,175049.296875,691477.0,189660.46875,0.056640625,1.01123046875,-0.043701171875,-1.5563963651657104,0.1525878757238388,0.7324218153953552,86.66667175292969,223759.0,1.0
15:43:06.152980,158038.640625,178467.59375,176930.0625,183420.125,161748.578125,175044.03125,691342.25,189664.390625,0.057373046875,1.012451171875,-0.0439453125,-1.5563963651657104,0.1831054538488388,0.7324218153953552,86.66667175292969,223760.0,1.0
15:43:06.155081,158019.328125,178463.40625,176931.140625,183424.5,161743.3125,175043.21875,690765.875,189664.75,0.057373046875,1.013671875,-0.043212890625,-1.5258787870407104,0.2136230319738388,0.7934569716453552,86.66667175292969,223761.0,1.0
15:43:06.157153,158123.765625,178480.75,176948.125,183449.8125,161759.40625,175047.15625,690825.25,189668.15625,0.05615234375,1.013427734375,-0.045654296875,-1.6174315214157104,0.2136230319738388,0.7324218153953552,86.66667175292969,223762.0,1.0
15:43:06.159972,158154.609375,178494.953125,176954.203125,183438.625,161775.046875,175054.21875,691398.25,189673.609375,0.05517578125,1.012451171875,-0.042236328125,-1.7089842557907104,0.1220703050494194,0.7019042372703552,86.66667175292969,223763.0,1.0
15:43:06.162326,158054.015625,178468.765625,176936.0625,183424.328125,161758.78125,175043.84375,691445.625,189670.203125,0.0546875,1.0107421875,-0.041748046875,-1.6784666776657104,0.0610351525247097,0.6408690810203552,86.66667175292969,223764.0,1.0
15:43:06.164601,158013.703125,178458.84375,176934.8125,183435.953125,161748.765625,175040.71875,690826.3125,189672.796875,0.056396484375,1.011474609375,-0.03857421875,-1.7700194120407104,0.1220703050494194,0.6408690810203552,86.66667175292969,223765.0,1.0
15:43:06.167174,158114.546875,178480.296875,176957.515625,183457.859375,161767.546875,175047.0625,690775.0,189678.171875,0.05712890625,1.011474609375,-0.04052734375,-1.8310545682907104,0.1220703050494194,0.6408690810203552,86.66667175292969,223766.0,1.0
15:43:06.170193,158173.734375,178494.78125,176968.515625,183459.734375,161785.421875,175049.75,691301.5625,189683.625,0.055908203125,1.010986328125,-0.0390625,-1.8005369901657104,0.0915527269244194,0.6103515028953552,86.66667175292969,223767.0,1.0
15:43:06.170240,158089.515625,178483.78125,176955.734375,183433.09375,161775.9375,175049.484375,691526.5,189675.65625,0.055419921875,1.01220703125,-0.041259765625,-1.7700194120407104,0.1220703050494194,0.5798339247703552,86.66667175292969,223768.0,1.0
15:43:06.173225,158029.078125,178473.859375,176950.71875,183445.0625,161762.625,175048.046875,690907.625,189676.46875,0.05419921875,1.011474609375,-0.040771484375,-1.8005369901657104,0.1831054538488388,0.6408690810203552,86.66667175292969,223769.0,1.0
15:43:06.173254,158103.1875,178486.5625,176965.390625,183452.671875,161773.703125,175048.765625,690711.6875,189676.640625,0.057861328125,1.0126953125,-0.0419921875,-1.8615721464157104,0.1220703050494194,0.6103515028953552,86.66667175292969,223770.0,1.0
15:43:06.173266,158181.25,178501.9375,176972.09375,183457.21875,161787.5625,175050.46875,691167.625,189671.28125,0.05712890625,1.012451171875,-0.040283203125,-1.8920897245407104,0.0915527269244194,0.5493163466453552,86.66667175292969,223771.0,1.0
15:43:06.176973,158100.78125,178486.640625,176950.640625,183411.546875,161769.328125,175043.3125,691549.0,189652.6875,0.055419921875,1.011962890625,-0.042724609375,-1.8005369901657104,0.1220703050494194,0.5187987685203552,86.66667175292969,223772.0,1.0
15:43:06.176998,158022.28125,178470.28125,176942.59375,183435.953125,161754.9375,175042.6875,691013.5,189664.484375,0.056640625,1.011474609375,-0.0439453125,-1.8615721464157104,0.0915527269244194,0.5798339247703552,86.66667175292969,223773.0,1.0
15:43:06.177008,158075.828125,178484.40625,176956.09375,183436.9375,161764.59375,175052.875,690699.25,189666.0,0.056640625,1.009521484375,-0.041748046875,-1.8615721464157104,0.0610351525247097,0.5493163466453552,86.66667175292969,223774.0,1.0
15:43:06.180177,158170.703125,178491.46875,176965.109375,183458.296875,161777.46875,175045.90625,691064.375,189670.75,0.05615234375,1.009033203125,-0.041015625,-1.8615721464157104,0.03051757626235485,0.6713866591453552,86.66667175292969,223775.0,1.0
15:43:06.180221,158126.078125,178495.046875,176958.859375,183423.703125,161775.59375,175056.90625,691559.1875,189667.53125,0.056396484375,1.00927734375,-0.04052734375,-1.8310545682907104,-0.0610351525247097,0.6408690810203552,86.66667175292969,223776.0,1.0
15:43:06.185868,158042.390625,178478.15625,176950.0,183448.90625,161761.90625,175054.671875,691133.125,189681.296875,0.058349609375,1.009765625,-0.041748046875,-1.7089842557907104,-0.0610351525247097,0.6103515028953552,86.66667175292969,223777.0,1.0
15:43:06.188279,158063.140625,178480.296875,176951.890625,183429.875,161758.515625,175056.09375,690705.0625,189670.203125,0.06005859375,1.0107421875,-0.0400390625,-1.7395018339157104,-0.03051757626235485,0.5798339247703552,86.66667175292969,223778.0,1.0
15:43:06.190825,158169.625,178498.71875,176966.1875,183460.359375,161775.9375,175060.296875,690976.875,189677.625,0.058349609375,1.009765625,-0.04052734375,-1.7089842557907104,0.0915527269244194,0.6103515028953552,86.66667175292969,223779.0,1.0
15:43:06.193311,158140.125,178497.90625,176953.765625,183412.4375,161772.1875,175059.140625,691536.1875,189661.171875,0.057373046875,1.00927734375,-0.0380859375,-1.7089842557907104,-0.03051757626235485,0.5493163466453552,86.66667175292969,223780.0,1.0
15:43:06.195807,158039.984375,178475.375,176936.6875,183421.015625,161750.28125,175055.828125,691252.9375,189666.453125,0.056640625,1.00927734375,-0.0419921875,-1.7395018339157104,-0.1220703050494194,0.6408690810203552,86.66667175292969,223781.0,1.0
15:43:06.198298,158039.71875,178473.953125,176940.078125,183424.5,161747.15625,175054.765625,690731.1875,189670.296875,0.05615234375,1.01025390625,-0.0390625,-1.7700194120407104,-0.1525878757238388,0.7019042372703552,86.66667175292969,223782.0,1.0
15:43:06.200903,158145.125,178484.953125,176948.9375,183442.46875,161757.078125,175044.390625,690892.8125,189664.3125,0.055908203125,1.010009765625,-0.039306640625,-1.8005369901657104,0.0,0.7934569716453552,86.66667175292969,223783.0,1.0
15:43:06.205279,158138.6875,178483.421875,176938.03125,183404.390625,161754.3125,175041.34375,691471.0,189650.453125,0.055419921875,1.010498046875,-0.0390625,-1.7395018339157104,-0.0610351525247097,0.9460448622703552,86.66667175292969,223784.0,1.0
15:43:06.205307,158034.703125,178459.109375,176919.96875,183401.53125,161733.828125,175033.296875,691367.0,189650.625,0.056396484375,1.01171875,-0.0419921875,-1.6479490995407104,-0.03051757626235485,0.9765624403953552,86.66667175292969,223785.0,1.0
15:43:06.220277,158014.953125,178459.828125,176923.625,183407.25,161730.171875,175038.21875,690779.1875,189655.8125,0.0576171875,1.0126953125,-0.04248046875,-1.7395018339157104,0.03051757626235485,0.9765624403953552,86.66667175292969,223786.0,1.0
15:43:06.220313,158118.84375,178473.40625,176940.4375,183431.03125,161746.703125,175037.234375,690815.125,189659.75,0.05810546875,1.011474609375,-0.040771484375,-1.7395018339157104,0.0,1.0375975370407104,86.66667175292969,223787.0,1.0
15:43:06.222689,158155.59375,178481.28125,176946.78125,183426.828125,161761.734375,175037.0625,691380.6875,189667.34375,0.06005859375,1.011962890625,-0.0419921875,-1.6784666776657104,0.0610351525247097,1.0375975370407104,86.66667175292969,223788.0,1.0
15:43:06.222722,158071.1875,178479.671875,176942.859375,183414.046875,161757.4375,175046.53125,691465.3125,189668.15625,0.06005859375,1.010009765625,-0.042236328125,-1.7700194120407104,0.03051757626235485,1.0070799589157104,86.66667175292969,223789.0,1.0
15:43:06.224614,158030.5,178474.484375,176946.96875,183427.0,161755.015625,175047.96875,690841.9375,189675.03125,0.06005859375,1.008056640625,-0.040771484375,-1.7700194120407104,0.0915527269244194,0.9460448622703552,86.66667175292969,223790.0,1.0
15:43:06.228653,158119.90625,178489.5,176964.21875,183444.359375,161770.84375,175050.28125,690744.5625,189676.734375,0.05859375,1.00830078125,-0.041259765625,-1.7395018339157104,0.1220703050494194,0.9460448622703552,86.66667175292969,223791.0,1.0
15:43:06.243949,158181.6875,178506.046875,176972.890625,183444.265625,161787.5625,175054.84375,691261.5,189676.109375,0.057373046875,1.008056640625,-0.04052734375,-1.6479490995407104,0.0915527269244194,1.0681151151657104,86.66667175292969,223792.0,1.0
15:43:06.244008,158093.1875,178491.921875,176957.515625,183414.484375,161775.3125,175052.875,691531.5625,189671.8125,0.05810546875,1.0087890625,-0.04052734375,-1.6784666776657104,0.1831054538488388,1.0986326932907104,86.66667175292969,223793.0,1.0
15:43:06.246488,158017.984375,178468.5,176942.046875,183427.1875,161755.015625,175042.859375,690931.4375,189674.59375,0.05810546875,1.010986328125,-0.0439453125,-1.6784666776657104,0.2441406100988388,0.9765624403953552,86.66667175292969,223794.0,1.0
15:43:06.246553,158079.328125,178472.703125,176944.734375,183422.625,161753.0625,175037.40625,690715.9375,189662.96875,0.058837890625,1.010986328125,-0.045654296875,-1.6479490995407104,0.1525878757238388,1.0681151151657104,86.66667175292969,223795.0,1.0
15:43:06.248334,158156.484375,178480.5625,176944.546875,183423.875,161757.703125,175034.28125,691154.9375,189654.375,0.057861328125,1.0126953125,-0.046142578125,-1.7089842557907104,0.2136230319738388,0.9765624403953552,86.66667175292969,223796.0,1.0
15:43:06.250781,158084.15625,178467.515625,176929.171875,183390.078125,161748.765625,175032.859375,691559.1875,189651.078125,0.058837890625,1.013427734375,-0.043701171875,-1.7089842557907104,0.1220703050494194,0.8544921278953552,86.66667175292969,223797.0,1.0
15:43:06.260861,157999.75,178448.109375,176917.28125,183409.578125,161732.140625,175030.078125,691030.0625,189655.28125,0.05810546875,1.012451171875,-0.041015625,-1.7395018339157104,0.1525878757238388,0.9155272841453552,86.66667175292969,223798.0,1.0
15:43:06.265787,158048.65625,178462.859375,176927.03125,183404.203125,161735.359375,175036.875,690699.5,189651.25,0.058837890625,1.01220703125,-0.041748046875,-1.7395018339157104,0.1525878757238388,0.7934569716453552,86.66667175292969,223799.0,1.0
15:43:06.265814,158152.640625,178481.015625,176941.6875,183436.390625,161752.25,175035.625,691059.125,189660.1875,0.058349609375,1.01123046875,-0.04345703125,-1.7089842557907104,0.1525878757238388,0.7629393935203552,86.66667175292969,223800.0,1.0
15:43:06.265930,158113.828125,178483.15625,176941.875,183411.359375,161758.0625,175045.375,691568.1875,189667.609375,0.057373046875,1.01025390625,-0.04345703125,-1.6479490995407104,0.1220703050494194,0.6713866591453552,86.66667175292969,223801.0,1.0
15:43:06.268302,158018.4375,178459.734375,176927.03125,183416.640625,161740.265625,175039.921875,691164.5,189662.875,0.057861328125,1.011474609375,-0.04248046875,-1.6479490995407104,0.1525878757238388,0.4882812201976776,86.66667175292969,223802.0,1.0
15:43:06.272065,158042.3125,178469.390625,176935.609375,183409.484375,161740.71875,175045.375,690716.25,189657.59375,0.05615234375,1.01171875,-0.038818359375,-1.6784666776657104,0.1220703050494194,0.3967284858226776,86.66667175292969,223803.0,1.0
15:43:06.287714,158162.03125,178497.109375,176959.578125,183446.671875,161764.859375,175054.765625,690965.9375,189669.40625,0.05419921875,1.013427734375,-0.03857421875,-1.8005369901657104,0.03051757626235485,0.1831054538488388,86.66667175292969,223804.0,1.0
15:43:06.287760,158145.75,178505.59375,176960.46875,183417.4375,161774.15625,175062.625,691531.625,189671.1875,0.053955078125,1.01318359375,-0.038818359375,-1.8310545682907104,0.0915527269244194,0.03051757626235485,86.66667175292969,223805.0,1.0
15:43:06.289576,158039.453125,178476.09375,176940.34375,183416.375,161751.984375,175050.640625,691277.625,189665.921875,0.054443359375,1.013916015625,-0.0400390625,-1.9531248807907104,0.0610351525247097,-0.0915527269244194,86.66667175292969,223806.0,1.0
15:43:06.292078,158034.984375,178470.109375,176943.484375,183420.03125,161748.765625,175048.140625,690737.5,189666.1875,0.05322265625,1.012939453125,-0.038330078125,-2.044677495956421,-0.03051757626235485,-0.1831054538488388,86.66667175292969,223807.0,1.0
15:43:06.295844,158150.046875,178488.609375,176963.234375,183457.21875,161768.796875,175052.25,690881.125,189679.859375,0.05517578125,1.010498046875,-0.037353515625,-1.9836424589157104,-0.1220703050494194,-0.1220703050494194,86.66667175292969,223808.0,1.0
15:43:06.322184,158158.53125,178495.40625,176959.9375,183422.453125,161771.65625,175051.265625,691458.875,189669.40625,0.055908203125,1.012451171875,-0.0400390625,-2.136230230331421,-0.0915527269244194,-0.1220703050494194,86.66667175292969,223809.0,1.0
15:43:06.322298,158062.609375,178479.671875,176948.21875,183423.34375,161758.515625,175050.203125,691386.6875,189672.796875,0.055908203125,1.013427734375,-0.04248046875,-2.105712652206421,-0.0915527269244194,-0.1220703050494194,86.66667175292969,223810.0,1.0
15:43:06.322323,158035.25,178474.390625,176948.390625,183425.125,161752.609375,175051.8125,690787.375,189672.703125,0.053955078125,1.010009765625,-0.0419921875,-2.227782964706421,-0.03051757626235485,-0.2746581733226776,86.66667175292969,223811.0,1.0
15:43:06.324603,158141.015625,178487.71875,176969.3125,183457.046875,161770.671875,175045.734375,690802.3125,189687.734375,0.055908203125,1.010009765625,-0.04248046875,-2.258300542831421,-0.03051757626235485,-0.2441406100988388,86.66667175292969,223812.0,1.0
15:43:06.329516,158180.890625,178504.4375,176974.234375,183439.53125,161783.09375,175052.703125,691360.75,189680.84375,0.055908203125,1.011474609375,-0.042724609375,-2.197265386581421,0.0,-0.0915527269244194,86.66667175292969,223813.0,1.0
15:43:06.329524,158094.515625,178498.359375,176965.828125,183429.6875,161776.390625,175059.765625,691484.9375,189684.6875,0.0556640625,1.01123046875,-0.041015625,-2.288818120956421,-0.0610351525247097,0.0610351525247097,86.66667175292969,223814.0,1.0
15:43:06.329527,158043.296875,178491.921875,176962.609375,183441.140625,161769.6875,175065.3125,690865.4375,189690.328125,0.056884765625,1.01171875,-0.0380859375,-2.197265386581421,-0.0610351525247097,0.03051757626235485,86.66667175292969,223815.0,1.0
15:43:06.332704,158124.5625,178499.96875,176974.140625,183452.9375,161781.3125,175066.109375,690763.375,189691.3125,0.057373046875,1.010986328125,-0.0380859375,-2.166747808456421,0.0,0.03051757626235485,86.66667175292969,223816.0,1.0
15:43:06.332757,158180.171875,178501.125,176970.65625,183445.96875,161784.703125,175057.796875,691267.25,189680.046875,0.056884765625,1.01123046875,-0.0400390625,-2.197265386581421,-0.0915527269244194,0.2136230319738388,86.66667175292969,223817.0,1.0
15:43:06.334648,158086.390625,178476.1875,176943.65625,183411.453125,161759.84375,175046.71875,691543.3125,189666.546875,0.05419921875,1.010986328125,-0.038818359375,-2.197265386581421,-0.0915527269244194,0.2746581733226776,86.66667175292969,223818.0,1.0
15:43:06.345303,158004.9375,178448.828125,176925.421875,183418.78125,161737.3125,175035.890625,690942.875,189664.3125,0.052734375,1.011962890625,-0.0400390625,-2.227782964706421,0.0,0.3051757514476776,86.66667175292969,223819.0,1.0
15:43:06.345331,158069.671875,178460.890625,176936.328125,183424.40625,161743.3125,175038.75,690715.0625,189665.109375,0.052490234375,1.012451171875,-0.04052734375,-2.258300542831421,-0.1525878757238388,0.3356933295726776,86.66667175292969,223820.0,1.0
15:43:06.347139,158152.546875,178475.46875,176938.828125,183424.6875,161750.734375,175037.328125,691140.8125,189653.9375,0.052001953125,1.01220703125,-0.036865234375,-2.380370855331421,-0.0915527269244194,0.3967284858226776,86.66667175292969,223821.0,1.0
15:43:06.355223,158090.40625,178474.84375,176930.875,183393.84375,161747.609375,175042.59375,691575.625,189654.203125,0.052001953125,1.01123046875,-0.03759765625,-2.349853277206421,-0.1220703050494194,0.4882812201976776,86.66667175292969,223822.0,1.0
15:43:06.355304,158006.546875,178457.3125,176923.28125,183413.328125,161734.375,175040.28125,691069.8125,189660.1875,0.051025390625,1.011474609375,-0.038330078125,-2.410888433456421,-0.2441406100988388,0.4882812201976776,86.66667175292969,223823.0,1.0
15:43:06.361081,158054.203125,178471.359375,176939.1875,183413.234375,161744.03125,175048.140625,690710.875,189660.8125,0.049072265625,1.010986328125,-0.03564453125,-2.563476324081421,-0.2441406100988388,0.3356933295726776,86.66667175292969,223824.0,1.0
15:43:06.367740,158158.984375,178487.265625,176954.03125,183438.359375,161763.0625,175047.15625,691032.5625,189666.984375,0.050537109375,1.0107421875,-0.035888671875,-2.471923589706421,-0.3356933295726776,0.4272460639476776,86.66667175292969,223825.0,1.0
15:43:06.367829,158114.1875,178485.03125,176943.65625,183395.53125,161761.28125,175051.1875,691562.1875,189657.59375,0.0517578125,1.011962890625,-0.03662109375,-2.532958745956421,-0.3051757514476776,0.4272460639476776,86.66667175292969,223826.0,1.0
15:43:06.375812,158022.1875,178465.640625,176935.25,183420.296875,161750.015625,175048.234375,691179.0625,189672.359375,0.052490234375,1.010498046875,-0.038818359375,-2.532958745956421,-0.5493163466453552,0.4577636420726776,86.66667175292969,223827.0,1.0
15:43:06.375886,158039.171875,178471.359375,176942.9375,183416.015625,161750.015625,175051.1875,690715.6875,189665.640625,0.052490234375,1.00927734375,-0.041015625,-2.532958745956421,-0.4882812201976776,0.4577636420726776,86.66667175292969,223828.0,1.0
15:43:06.385303,158146.46875,178479.671875,176951.4375,183445.78125,161759.578125,175039.46875,690933.875,189669.3125,0.052001953125,1.01025390625,-0.040283203125,-2.593993902206421,-0.5187987685203552,0.5493163466453552,86.66667175292969,223829.0,1.0
15:43:06.385386,158124.734375,178478.78125,176940.078125,183398.578125,161755.921875,175037.234375,691506.0625,189652.234375,0.05615234375,1.01123046875,-0.037841796875,-2.502441167831421,-0.5187987685203552,0.6103515028953552,86.66667175292969,223830.0,1.0
15:43:06.387720,158029.4375,178460.453125,176928.28125,183409.75,161739.828125,175032.765625,691298.0625,189657.0625,0.05615234375,1.010498046875,-0.034423828125,-2.502441167831421,-0.5187987685203552,0.5187987685203552,86.66667175292969,223831.0,1.0
15:43:06.387735,158021.5625,178462.234375,176933.015625,183411.984375,161737.3125,175035.71875,690748.625,189659.75,0.05712890625,1.01025390625,-0.0390625,-2.563476324081421,-0.4577636420726776,0.6713866591453552,86.66667175292969,223832.0,1.0
15:43:06.397216,158128.859375,178474.125,176949.921875,183439.171875,161753.59375,175028.296875,690850.25,189664.578125,0.05810546875,1.009521484375,-0.0380859375,-2.593993902206421,-0.5187987685203552,0.7019042372703552,86.66667175292969,223833.0,1.0
15:43:06.404010,158143.78125,178482.078125,176951.796875,183415.921875,161764.328125,175027.671875,691430.0625,189662.15625,0.058349609375,1.010986328125,-0.036376953125,-2.624511480331421,-0.5493163466453552,0.7324218153953552,86.66667175292969,223834.0,1.0
15:43:06.404072,158052.40625,178473.0625,176945.0,183417.625,161757.25,175031.421875,691394.1875,189671.28125,0.056396484375,1.010986328125,-0.037109375,-2.502441167831421,-0.4882812201976776,0.6408690810203552,86.66667175292969,223835.0,1.0
15:43:06.428994,158027.203125,178475.828125,176951.890625,183420.5625,161757.53125,175040.8125,690789.5625,189669.578125,0.05810546875,1.010498046875,-0.036865234375,-2.502441167831421,-0.3967284858226776,0.7324218153953552,86.66667175292969,223836.0,1.0
15:43:06.429033,158129.5625,178493.078125,176972.71875,183443.90625,161776.75,175044.296875,690779.625,189674.953125,0.05908203125,1.010009765625,-0.0361328125,-2.532958745956421,-0.3662109076976776,0.6713866591453552,86.66667175292969,223837.0,1.0
15:43:06.452173,158174.453125,178506.671875,176980.3125,183438.359375,161792.75,175052.515625,691327.4375,189678.796875,0.05859375,1.009765625,-0.0400390625,-2.532958745956421,-0.2746581733226776,0.6408690810203552,86.66667175292969,223838.0,1.0
15:43:06.452211,158082.09375,178488.875,176964.3125,183419.40625,161779.609375,175054.21875,691474.3125,189676.109375,0.057373046875,1.01025390625,-0.039306640625,-2.532958745956421,-0.3356933295726776,0.7324218153953552,86.66667175292969,223839.0,1.0
15:43:06.452222,158026.9375,178474.9375,176956.890625,183431.921875,161766.015625,175054.765625,690856.3125,189681.03125,0.055419921875,1.010498046875,-0.0390625,-2.380370855331421,-0.3051757514476776,0.7324218153953552,86.66667175292969,223840.0,1.0
15:43:06.454596,158102.296875,178483.515625,176964.046875,183437.015625,161767.0,175052.96875,690732.0625,189674.765625,0.056640625,1.010009765625,-0.037841796875,-2.410888433456421,-0.2136230319738388,0.6713866591453552,86.66667175292969,223841.0,1.0
15:43:06.457140,158169.09375,178497.375,176967.890625,183440.234375,161777.203125,175055.390625,691231.6875,189673.875,0.057373046875,1.0087890625,-0.038330078125,-2.380370855331421,-0.1831054538488388,0.6713866591453552,86.66667175292969,223842.0,1.0
15:43:06.459575,158090.046875,178486.734375,176954.5625,183410.640625,161766.203125,175055.109375,691550.0625,189669.140625,0.057373046875,1.010498046875,-0.036865234375,-2.410888433456421,-0.03051757626235485,0.6103515028953552,86.66667175292969,223843.0,1.0
15:43:06.462099,158007.96875,178462.953125,176934.8125,183414.21875,161739.90625,175043.765625,690970.125,189660.90625,0.059326171875,1.008056640625,-0.03759765625,-2.349853277206421,-0.0610351525247097,0.6713866591453552,86.66667175292969,223844.0,1.0
15:43:06.464601,158064.65625,178468.234375,176940.703125,183414.9375,161740.265625,175039.921875,690714.0625,189657.78125,0.059326171875,1.0078125,-0.03662109375,-2.288818120956421,-0.0610351525247097,0.8239745497703552,86.66667175292969,223845.0,1.0
15:43:06.467096,158156.125,178482.796875,176952.78125,183435.40625,161756.359375,175039.5625,691131.0,189665.5625,0.059326171875,1.011474609375,-0.036865234375,-2.227782964706421,-0.1220703050494194,0.9155272841453552,86.66667175292969,223846.0,1.0
15:43:06.469582,158090.765625,178475.375,176938.203125,183387.40625,161748.40625,175038.125,691577.375,189651.703125,0.060791015625,1.0107421875,-0.036376953125,-2.197265386581421,-0.03051757626235485,0.7934569716453552,86.66667175292969,223847.0,1.0
15:43:06.472059,158001.09375,178455.703125,176924.265625,183398.21875,161729.90625,175036.4375,691083.25,189649.546875,0.059326171875,1.00927734375,-0.037353515625,-2.197265386581421,0.0,0.8850097060203552,86.66667175292969,223848.0,1.0
15:43:06.474558,158034.703125,178452.9375,176929.796875,183395.71875,161731.515625,175030.34375,690702.125,189646.6875,0.059326171875,1.00830078125,-0.04052734375,-2.136230230331421,0.0610351525247097,0.8544921278953552,86.66667175292969,223849.0,1.0
15:43:06.477031,158138.515625,178467.875,176941.6875,183423.4375,161745.1875,175028.734375,691010.0,189649.109375,0.059814453125,1.008544921875,-0.0361328125,-2.014159917831421,0.1220703050494194,0.7934569716453552,86.66667175292969,223850.0,1.0
15:43:06.479668,158103.375,178473.765625,176934.984375,183384.1875,161742.234375,175036.078125,691553.1875,189639.984375,0.056884765625,1.0087890625,-0.03466796875,-1.9226073026657104,0.1525878757238388,0.7629393935203552,86.66667175292969,223851.0,1.0
15:43:06.482680,158008.25,178449.90625,176919.78125,183399.921875,161722.5625,175027.484375,691197.6875,189644.1875,0.05517578125,1.009765625,-0.037353515625,-1.9531248807907104,0.1831054538488388,0.8544921278953552,86.66667175292969,223852.0,1.0
15:43:06.482722,158016.640625,178451.953125,176924.609375,183390.703125,161723.28125,175028.5625,690715.6875,189641.234375,0.055908203125,1.0087890625,-0.03466796875,-1.8615721464157104,0.1831054538488388,0.7629393935203552,86.66667175292969,223853.0,1.0
15:43:06.484604,158130.1875,178475.203125,176945.71875,183420.921875,161747.875,175035.625,690928.1875,189650.890625,0.053466796875,1.009521484375,-0.034912109375,-1.7700194120407104,0.0915527269244194,0.7324218153953552,86.66667175292969,223854.0,1.0
15:43:06.487060,158119.46875,178477.609375,176941.515625,183387.046875,161750.640625,175034.828125,691499.4375,189645.984375,0.051513671875,1.01123046875,-0.0390625,-1.7700194120407104,0.1220703050494194,0.5798339247703552,86.66667175292969,223855.0,1.0
15:43:06.491476,158020.40625,178454.640625,176926.9375,183393.921875,161732.84375,175026.328125,691305.5,189649.109375,0.052734375,1.011962890625,-0.035888671875,-1.8310545682907104,0.1220703050494194,0.5798339247703552,86.66667175292969,223856.0,1.0
15:43:06.491514,158011.90625,178453.390625,176933.46875,183398.125,161731.515625,175026.59375,690734.0,189652.6875,0.053955078125,1.01025390625,-0.039794921875,-1.7089842557907104,0.1220703050494194,0.6103515028953552,86.66667175292969,223857.0,1.0
15:43:06.500232,158128.671875,178474.125,176958.59375,183436.65625,161756.09375,175026.78125,690834.625,189667.96875,0.05517578125,1.009765625,-0.038330078125,-1.6174315214157104,0.03051757626235485,0.5187987685203552,86.66667175292969,223858.0,1.0
15:43:06.500269,158152.90625,178487.265625,176962.609375,183419.671875,161769.421875,175031.875,691406.625,189669.671875,0.0546875,1.00927734375,-0.03515625,-1.6784666776657104,0.03051757626235485,0.4882812201976776,86.66667175292969,223859.0,1.0
15:43:06.502072,158065.640625,178477.53125,176957.34375,183422.984375,161761.734375,175036.34375,691404.5625,189679.234375,0.055419921875,1.00927734375,-0.035888671875,-1.6479490995407104,-0.03051757626235485,0.4577636420726776,86.66667175292969,223860.0,1.0
15:43:06.511474,158032.296875,178475.015625,176959.84375,183432.546875,161758.859375,175044.203125,690793.1875,189683.265625,0.05712890625,1.0107421875,-0.03466796875,-1.5258787870407104,-0.03051757626235485,0.5187987685203552,86.66667175292969,223861.0,1.0
15:43:06.511516,158130.1875,178493.890625,176976.203125,183449.0,161773.890625,175051.09375,690766.5,189683.265625,0.05517578125,1.010498046875,-0.03662109375,-1.4953612089157104,-0.0915527269244194,0.5187987685203552,86.66667175292969,223862.0,1.0
15:43:06.513279,158180.890625,178510.703125,176983.71875,183446.765625,161788.546875,175061.546875,691309.625,189688.171875,0.054443359375,1.00927734375,-0.0361328125,-1.5258787870407104,-0.03051757626235485,0.5493163466453552,86.66667175292969,223863.0,1.0
15:43:06.519556,158085.046875,178492.1875,176963.953125,183419.234375,161773.265625,175059.234375,691489.9375,189682.1875,0.056396484375,1.01025390625,-0.037353515625,-1.4648436307907104,-0.1220703050494194,0.4882812201976776,86.66667175292969,223864.0,1.0
15:43:06.523908,158017.359375,178471.0,176950.546875,183419.5,161755.375,175053.78125,690872.0,189675.84375,0.05615234375,1.008056640625,-0.038818359375,-1.4648436307907104,-0.0610351525247097,0.5187987685203552,86.66667175292969,223865.0,1.0
15:43:06.523941,158095.328125,178483.515625,176962.875,183430.40625,161762.078125,175056.1875,690725.6875,189674.671875,0.056884765625,1.008544921875,-0.035888671875,-1.4953612089157104,-0.03051757626235485,0.6408690810203552,86.66667175292969,223866.0,1.0
15:43:06.535824,158165.78125,178493.796875,176965.65625,183435.046875,161767.71875,175052.171875,691208.0,189670.390625,0.055419921875,1.00927734375,-0.037353515625,-1.4038084745407104,0.0,0.7019042372703552,86.66667175292969,223867.0,1.0
15:43:06.538950,158086.125,178481.375,176949.03125,183401.609375,161751.453125,175049.484375,691547.0,189661.71875,0.056884765625,1.01123046875,-0.040283203125,-1.4343260526657104,0.0610351525247097,0.7019042372703552,86.66667175292969,223868.0,1.0
15:43:06.538978,158005.203125,178455.796875,176934.453125,183412.96875,161729.1875,175036.34375,690979.1875,189659.75,0.0576171875,1.012939453125,-0.03759765625,-1.3732908964157104,0.0,0.7934569716453552,86.66667175292969,223869.0,1.0
15:43:06.542073,158063.40625,178467.15625,176947.234375,183414.3125,161738.125,175039.5625,690699.875,189659.296875,0.05615234375,1.01318359375,-0.039794921875,-1.4343260526657104,0.0,0.8850097060203552,86.66667175292969,223870.0,1.0
15:43:06.552634,158150.765625,178474.484375,176953.046875,183430.40625,161750.1875,175030.625,691095.6875,189659.828125,0.058349609375,1.0126953125,-0.039306640625,-1.3732908964157104,0.0,0.9765624403953552,86.66667175292969,223871.0,1.0
15:43:06.552658,158083.4375,178458.578125,176930.875,183379.4375,161733.46875,175020.609375,691554.25,189642.765625,0.056884765625,1.01318359375,-0.03955078125,-1.3732908964157104,0.0,1.0986326932907104,86.66667175292969,223872.0,1.0
15:43:06.555197,157994.125,178437.65625,176913.625,183392.765625,161709.328125,175015.421875,691085.3125,189641.6875,0.055908203125,1.012939453125,-0.041015625,-1.4038084745407104,0.0,1.1291502714157104,86.66667175292969,223873.0,1.0
15:43:06.555231,158023.625,178442.296875,176917.734375,183384.265625,161707.1875,175016.046875,690689.5625,189633.90625,0.05712890625,1.013916015625,-0.0419921875,-1.4343260526657104,-0.1220703050494194,1.1596678495407104,86.66667175292969,223874.0,1.0
15:43:06.562156,158124.109375,178453.125,176926.765625,183405.546875,161720.328125,175012.015625,690992.25,189634.0,0.0576171875,1.012451171875,-0.041259765625,-1.4038084745407104,-0.0610351525247097,1.0375975370407104,86.66667175292969,223875.0,1.0
15:43:06.572702,158088.53125,178451.0625,176916.84375,183365.40625,161718.71875,175013.453125,691529.75,189627.5625,0.054931640625,1.0146484375,-0.0400390625,-1.4343260526657104,-0.1831054538488388,1.1291502714157104,86.66667175292969,223876.0,1.0
15:43:06.572773,157990.546875,178429.421875,176900.921875,183375.953125,161699.234375,175007.546875,691206.625,189627.828125,0.054443359375,1.01220703125,-0.03759765625,-1.5563963651657104,-0.1525878757238388,1.0375975370407104,86.66667175292969,223877.0,1.0
15:43:06.575235,157997.25,178431.921875,176905.9375,183372.109375,161695.296875,175008.265625,690710.4375,189625.953125,0.0546875,1.012939453125,-0.041015625,-1.6479490995407104,-0.03051757626235485,0.9460448622703552,86.66667175292969,223878.0,1.0
15:43:06.575295,158105.609375,178447.03125,176919.15625,183400.8125,161708.078125,175003.4375,690889.5625,189630.0625,0.053955078125,1.011962890625,-0.039794921875,-1.7700194120407104,-0.1831054538488388,0.7934569716453552,86.66667175292969,223879.0,1.0
15:43:06.580824,158102.75,178453.390625,176917.015625,183368.265625,161713.8125,175005.046875,691466.375,189624.703125,0.052978515625,1.0126953125,-0.038818359375,-1.7700194120407104,-0.2136230319738388,0.7019042372703552,86.66667175292969,223880.0,1.0
15:43:06.596727,158007.4375,178433.1875,176907.453125,183376.9375,161703.53125,175002.640625,691319.625,189631.765625,0.0537109375,1.01171875,-0.036865234375,-1.7395018339157104,-0.3051757514476776,0.5798339247703552,86.66667175292969,223881.0,1.0
15:43:06.597109,157988.84375,178430.3125,176911.46875,183379.0,161702.359375,175005.578125,690747.25,189634.265625,0.05517578125,1.01318359375,-0.036865234375,-1.7395018339157104,-0.3662109076976776,0.5493163466453552,86.66667175292969,223882.0,1.0
15:43:06.600899,158102.125,178454.1875,176934.453125,183410.015625,161725.078125,175012.734375,690806.5625,189645.171875,0.0556640625,1.0146484375,-0.040771484375,-1.8615721464157104,-0.3356933295726776,0.4882812201976776,86.66667175292969,223883.0,1.0
15:43:06.603981,158133.40625,178470.46875,176941.875,183396.25,161741.609375,175020.78125,691375.8125,189648.84375,0.0576171875,1.015869140625,-0.037841796875,-1.8615721464157104,-0.2746581733226776,0.5493163466453552,86.66667175292969,223884.0,1.0
15:43:06.604003,158046.78125,178461.515625,176938.921875,183397.765625,161740.359375,175027.125,691411.75,189658.5,0.05712890625,1.015869140625,-0.04052734375,-1.9226073026657104,-0.2746581733226776,0.5187987685203552,86.66667175292969,223885.0,1.0
15:43:06.610227,158012.890625,178460.453125,176944.90625,183412.609375,161740.0,175035.453125,690800.375,189666.453125,0.05810546875,1.016357421875,-0.041748046875,-1.9836424589157104,-0.2746581733226776,0.4272460639476776,86.66667175292969,223886.0,1.0
15:43:06.610289,158118.390625,178487.8125,176970.65625,183441.046875,161762.625,175048.40625,690756.1875,189676.734375,0.05859375,1.015380859375,-0.03759765625,-2.044677495956421,-0.2441406100988388,0.4577636420726776,86.66667175292969,223887.0,1.0
15:43:06.616316,158176.0625,178503.984375,176977.8125,183438.8125,161778.453125,175054.046875,691286.125,189676.5625,0.056640625,1.01416015625,-0.03759765625,-2.258300542831421,-0.2746581733226776,0.5187987685203552,86.66667175292969,223888.0,1.0
15:43:06.622855,158084.421875,178485.9375,176959.484375,183409.84375,161763.0625,175049.03125,691497.125,189670.203125,0.0576171875,1.01513671875,-0.038818359375,-2.319335699081421,-0.2441406100988388,0.5798339247703552,86.66667175292969,223889.0,1.0
15:43:06.622946,158016.828125,178465.984375,176947.6875,183419.046875,161746.796875,175042.421875,690895.0625,189670.65625,0.056640625,1.01416015625,-0.038330078125,-2.288818120956421,-0.2136230319738388,0.6713866591453552,86.66667175292969,223890.0,1.0
15:43:06.628798,158087.28125,178473.59375,176957.421875,183424.5,161752.25,175041.25,690713.625,189669.578125,0.05615234375,1.011474609375,-0.0361328125,-2.288818120956421,-0.1831054538488388,0.7019042372703552,86.66667175292969,223891.0,1.0
15:43:06.651592,158160.421875,178483.515625,176961.546875,183429.515625,161762.53125,175039.015625,691176.5625,189666.8125,0.0576171875,1.01220703125,-0.037841796875,-2.288818120956421,-0.2746581733226776,0.6713866591453552,86.66667175292969,223892.0,1.0
15:43:06.651654,158081.203125,178467.78125,176941.6875,183389.71875,161746.078125,175033.21875,691549.6875,189654.734375,0.057861328125,1.012451171875,-0.0341796875,-2.319335699081421,-0.3356933295726776,0.6713866591453552,86.66667175292969,223893.0,1.0
15:43:06.653920,157997.34375,178444.53125,176924.34375,183397.5,161720.78125,175023.5625,691000.125,189648.84375,0.05615234375,1.011962890625,-0.03515625,-2.380370855331421,-0.2441406100988388,0.7934569716453552,86.66667175292969,223894.0,1.0
15:43:06.653933,158046.78125,178453.46875,176932.75,183394.109375,161725.25,175024.71875,690694.3125,189642.578125,0.054931640625,1.012939453125,-0.033447265625,-2.349853277206421,-0.2746581733226776,0.8544921278953552,86.66667175292969,223895.0,1.0
15:43:06.656997,158138.78125,178467.875,176942.140625,183410.640625,161741.078125,175025.796875,691070.4375,189642.9375,0.05517578125,1.012939453125,-0.03564453125,-2.410888433456421,-0.2746581733226776,0.7934569716453552,86.66667175292969,223896.0,1.0
15:43:06.657017,158086.921875,178467.6875,176931.046875,183369.609375,161734.640625,175030.265625,691552.75,189634.53125,0.054931640625,1.01123046875,-0.034912109375,-2.441406011581421,-0.3051757514476776,0.8239745497703552,86.66667175292969,223897.0,1.0
15:43:06.657023,157990.1875,178442.5625,176911.46875,183377.5625,161710.59375,175021.140625,691105.125,189631.140625,0.05322265625,1.011962890625,-0.035400390625,-2.471923589706421,-0.2746581733226776,0.7629393935203552,86.66667175292969,223898.0,1.0
15:43:06.659540,158011.828125,178441.765625,176913.96875,183369.15625,161707.8125,175018.09375,690684.875,189625.40625,0.0537109375,1.008544921875,-0.03515625,-2.471923589706421,-0.3662109076976776,0.7629393935203552,86.66667175292969,223899.0,1.0
15:43:06.662069,158110.25,178449.359375,176919.78125,183390.96875,161717.03125,175011.3125,690964.625,189623.171875,0.053955078125,1.00927734375,-0.034912109375,-2.410888433456421,-0.4272460639476776,0.7629393935203552,86.66667175292969,223900.0,1.0
15:43:06.665789,158079.859375,178448.203125,176909.953125,183351.640625,161716.125,175011.9375,691513.0,189617.8125,0.0546875,1.00732421875,-0.03759765625,-2.441406011581421,-0.5493163466453552,0.7324218153953552,86.66667175292969,223901.0,1.0
15:43:06.681478,157982.671875,178425.578125,176896.625,183365.140625,161702.453125,175006.921875,691219.4375,189625.0625,0.05712890625,1.008056640625,-0.036376953125,-2.349853277206421,-0.4882812201976776,0.7019042372703552,86.66667175292969,223902.0,1.0
15:43:06.681570,157982.578125,178425.3125,176901.109375,183362.71875,161701.109375,175009.515625,690704.8125,189625.234375,0.05517578125,1.010009765625,-0.036865234375,-2.380370855331421,-0.5493163466453552,0.7019042372703552,86.66667175292969,223903.0,1.0
15:43:06.683944,158100.25,178448.5625,176921.9375,183396.078125,161720.0625,175014.96875,690872.0,189633.015625,0.0556640625,1.006591796875,-0.033935546875,-2.410888433456421,-0.4882812201976776,0.6103515028953552,86.66667175292969,223904.0,1.0
15:43:06.683962,158105.15625,178457.046875,176921.21875,183365.140625,161727.03125,175018.546875,691450.5625,189627.734375,0.05712890625,1.00634765625,-0.03466796875,-2.319335699081421,-0.5493163466453552,0.5493163466453552,86.66667175292969,223905.0,1.0
15:43:06.690172,158013.078125,178444.09375,176913.171875,183373.09375,161718.28125,175020.15625,691338.0625,189635.703125,0.05712890625,1.0068359375,-0.037841796875,-2.288818120956421,-0.5798339247703552,0.5187987685203552,86.66667175292969,223906.0,1.0
15:43:06.690204,157993.9375,178443.375,176918.53125,183379.265625,161714.609375,175021.765625,690751.4375,189639.625,0.058349609375,1.009765625,-0.035400390625,-2.288818120956421,-0.6713866591453552,0.4272460639476776,86.66667175292969,223907.0,1.0
15:43:06.708959,158107.84375,178469.921875,176946.875,183414.671875,161741.171875,175031.78125,690788.125,189653.484375,0.056396484375,1.0107421875,-0.037841796875,-2.319335699081421,-0.5187987685203552,0.4272460639476776,86.66667175292969,223908.0,1.0
15:43:06.708977,158143.34375,178484.765625,176955.109375,183402.421875,161758.328125,175039.734375,691352.25,189657.59375,0.057373046875,1.0126953125,-0.03515625,-2.227782964706421,-0.4577636420726776,0.3967284858226776,86.66667175292969,223909.0,1.0
15:43:06.711494,158053.484375,178471.09375,176943.921875,183398.125,161748.5,175039.5625,691424.0625,189661.359375,0.058837890625,1.013916015625,-0.03564453125,-2.227782964706421,-0.4272460639476776,0.3967284858226776,86.66667175292969,223910.0,1.0
15:43:06.711508,158011.734375,178463.3125,176942.046875,183409.296875,161739.203125,175038.84375,690811.8125,189665.5625,0.0576171875,1.011962890625,-0.034912109375,-2.319335699081421,-0.4272460639476776,0.3662109076976776,86.66667175292969,223911.0,1.0
15:43:06.713935,158110.078125,178483.0625,176967.53125,183433.890625,161762.078125,175046.890625,690737.9375,189677.09375,0.05517578125,1.01025390625,-0.033935546875,-2.349853277206421,-0.4272460639476776,0.3051757514476776,86.66667175292969,223912.0,1.0
15:43:06.713956,158172.03125,178498.171875,176979.953125,183441.21875,161784.609375,175053.234375,691257.9375,189685.859375,0.057373046875,1.0107421875,-0.03271484375,-2.319335699081421,-0.3967284858226776,0.3356933295726776,86.66667175292969,223913.0,1.0
15:43:06.719608,158088.890625,178486.375,176968.515625,183419.859375,161776.390625,175054.765625,691498.625,189684.15625,0.0556640625,1.013671875,-0.034423828125,-2.258300542831421,-0.3356933295726776,0.2136230319738388,86.66667175292969,223914.0,1.0
15:43:06.730213,158027.015625,178473.765625,176961.09375,183434.421875,161759.84375,175051.8125,690905.9375,189685.046875,0.054931640625,1.01171875,-0.03662109375,-2.288818120956421,-0.4577636420726776,0.3662109076976776,86.66667175292969,223915.0,1.0
15:43:06.730235,158095.5,178484.140625,176968.875,183436.578125,161761.015625,175050.015625,690698.5,189679.0625,0.05615234375,1.010498046875,-0.03369140625,-2.319335699081421,-0.3967284858226776,0.3967284858226776,86.66667175292969,223916.0,1.0
15:43:06.757678,158167.484375,178493.96875,176969.140625,183436.84375,161765.75,175046.71875,691145.625,189669.046875,0.055419921875,1.010009765625,-0.0341796875,-2.227782964706421,-0.4577636420726776,0.4577636420726776,86.66667175292969,223917.0,1.0
15:43:06.757712,158090.046875,178481.28125,176949.734375,183392.765625,161749.5625,175043.578125,691541.8125,189655.09375,0.05517578125,1.0107421875,-0.035888671875,-2.227782964706421,-0.4882812201976776,0.4272460639476776,86.66667175292969,223918.0,1.0
15:43:06.759657,158001.265625,178454.90625,176929.625,183401.25,161723.1875,175032.3125,691007.875,189650.890625,0.0546875,1.009521484375,-0.03515625,-2.166747808456421,-0.4272460639476776,0.3967284858226776,86.66667175292969,223919.0,1.0
15:43:06.762110,158039.625,178454.90625,176929.09375,183391.78125,161719.96875,175027.484375,690683.5,189642.9375,0.0556640625,1.009521484375,-0.035888671875,-2.197265386581421,-0.4272460639476776,0.5187987685203552,86.66667175292969,223920.0,1.0
15:43:06.764650,158135.5625,178468.5,176938.46875,183411.1875,161734.09375,175026.5,691049.0,189645.984375,0.056396484375,1.009765625,-0.032470703125,-2.197265386581421,-0.3662109076976776,0.5187987685203552,86.66667175292969,223921.0,1.0
15:43:06.767109,158082.09375,178460.265625,176925.328125,183367.28125,161728.296875,175023.828125,691545.0625,189635.421875,0.0546875,1.0107421875,-0.034423828125,-2.136230230331421,-0.3662109076976776,0.4577636420726776,86.66667175292969,223922.0,1.0
15:43:06.769619,157988.3125,178433.8125,176910.578125,183382.03125,161709.78125,175014.96875,691130.5625,189637.65625,0.054443359375,1.010986328125,-0.035400390625,-2.105712652206421,-0.3662109076976776,0.4272460639476776,86.66667175292969,223923.0,1.0
15:43:06.794685,158012.265625,178437.46875,176916.125,183376.3125,161708.265625,175014.96875,690695.6875,189633.375,0.05419921875,1.01318359375,-0.033203125,-2.014159917831421,-0.4272460639476776,0.4882812201976776,86.66667175292969,223924.0,1.0
15:43:06.819799,158120.546875,178452.9375,176927.484375,183402.6875,161719.890625,175012.203125,690967.4375,189633.28125,0.053955078125,1.01171875,-0.03369140625,-2.044677495956421,-0.3356933295726776,0.5187987685203552,86.66667175292969,223925.0,1.0
15:43:06.822211,158095.140625,178452.046875,176918.796875,183362.1875,161717.65625,175012.375,691522.875,189623.625,0.05419921875,1.012451171875,-0.033935546875,-2.105712652206421,-0.3967284858226776,0.4882812201976776,86.66667175292969,223926.0,1.0
15:43:06.825514,157993.578125,178428.0,176903.0625,183371.125,161699.328125,175005.578125,691256.875,189626.390625,0.052978515625,1.012939453125,-0.03564453125,-1.9531248807907104,-0.3967284858226776,0.4882812201976776,86.66667175292969,223927.0,1.0
15:43:06.825567,157989.375,178426.5625,176905.484375,183368.71875,161694.578125,175005.578125,690722.5,189624.4375,0.053955078125,1.010986328125,-0.033935546875,-1.9226073026657104,-0.4272460639476776,0.4577636420726776,86.66667175292969,223928.0,1.0
15:43:06.827672,158105.25,178448.375,176926.21875,183401.25,161715.5,175010.046875,690865.8125,189633.546875,0.05419921875,1.009765625,-0.033935546875,-1.9836424589157104,-0.4577636420726776,0.5798339247703552,86.66667175292969,223929.0,1.0
15:43:06.827695,158117.40625,178462.421875,176930.96875,183375.0625,161728.015625,175018.546875,691447.5625,189633.546875,0.05224609375,1.012451171875,-0.0322265625,-1.9531248807907104,-0.4272460639476776,0.5798339247703552,86.66667175292969,223930.0,1.0
15:43:06.829566,158027.015625,178453.296875,176926.9375,183382.390625,161722.296875,175024.53125,691362.125,189642.9375,0.05419921875,1.012451171875,-0.03076171875,-1.9226073026657104,-0.3967284858226776,0.6408690810203552,86.66667175292969,223931.0,1.0
15:43:06.832075,158007.53125,178455.53125,176935.078125,183392.578125,161723.734375,175031.421875,690764.5,189650.359375,0.055419921875,1.0107421875,-0.03076171875,-1.8615721464157104,-0.4882812201976776,0.7324218153953552,86.66667175292969,223932.0,1.0
15:43:06.834614,158114.640625,178474.3125,176955.546875,183421.015625,161742.5,175034.90625,690796.3125,189658.046875,0.0556640625,1.009521484375,-0.0322265625,-1.8615721464157104,-0.4882812201976776,0.8239745497703552,86.66667175292969,223933.0,1.0
15:43:06.837105,158153.703125,178487.453125,176962.609375,183412.703125,161756.984375,175039.5625,691356.3125,189660.734375,0.054443359375,1.008544921875,-0.03173828125,-1.9226073026657104,-0.5187987685203552,0.8239745497703552,86.66667175292969,223934.0,1.0
15:43:06.839617,158065.640625,178474.75,176953.046875,183406.625,161747.609375,175040.359375,691457.625,189665.109375,0.054443359375,1.009765625,-0.032470703125,-1.9226073026657104,-0.4577636420726776,0.8239745497703552,86.66667175292969,223935.0,1.0
15:43:06.842161,158017.8125,178464.203125,176947.953125,183418.328125,161735.703125,175037.6875,690839.8125,189668.0625,0.05615234375,1.00927734375,-0.033203125,-1.8310545682907104,-0.4882812201976776,0.8544921278953552,86.66667175292969,223936.0,1.0
15:43:06.848333,158104.09375,178476.8125,176961.546875,183431.75,161748.5,175038.125,690740.0,189669.40625,0.05712890625,1.01025390625,-0.033203125,-1.8920897245407104,-0.5187987685203552,0.8544921278953552,86.66667175292969,223937.0,1.0
15:43:06.851077,158161.484375,178485.03125,176964.84375,183427.625,161760.390625,175037.5,691248.5625,189666.09375,0.05615234375,1.01123046875,-0.03662109375,-1.8920897245407104,-0.3356933295726776,0.8850097060203552,86.66667175292969,223938.0,1.0
15:43:06.853431,158077.71875,178473.234375,176949.109375,183398.3125,161747.875,175036.4375,691526.6875,189659.5625,0.056884765625,1.01025390625,-0.033935546875,-1.8005369901657104,-0.2746581733226776,0.8544921278953552,86.66667175292969,223939.0,1.0
15:43:06.855803,158009.9375,178457.765625,176939.8125,183408.59375,161733.296875,175032.859375,690939.1875,189659.203125,0.056884765625,1.010498046875,-0.035888671875,-1.8005369901657104,-0.2441406100988388,0.8850097060203552,86.66667175292969,223940.0,1.0
15:43:06.858490,158074.578125,178468.5,176951.890625,183410.734375,161743.3125,175034.546875,690703.875,189659.125,0.0576171875,1.010498046875,-0.03466796875,-1.8005369901657104,-0.3356933295726776,1.0375975370407104,86.66667175292969,223941.0,1.0
15:43:06.861473,158158.265625,178483.875,176963.234375,183427.28125,161760.390625,175036.34375,691133.375,189664.21875,0.0576171875,1.01123046875,-0.035888671875,-1.8310545682907104,-0.3051757514476776,1.0681151151657104,86.66667175292969,223942.0,1.0
15:43:06.861498,158086.125,178472.078125,176946.34375,183387.671875,161748.578125,175031.6875,691543.625,189655.71875,0.056884765625,1.010498046875,-0.0361328125,-1.7700194120407104,-0.3356933295726776,1.1291502714157104,86.66667175292969,223943.0,1.0
15:43:06.864468,157992.953125,178441.40625,176924.890625,183396.96875,161722.125,175016.9375,691018.3125,189651.34375,0.056884765625,1.01025390625,-0.0361328125,-1.7700194120407104,-0.3967284858226776,1.0375975370407104,86.66667175292969,223944.0,1.0
15:43:06.864482,158034.078125,178446.859375,176930.703125,183389.453125,161722.125,175014.96875,690668.5,189645.0,0.056396484375,1.010498046875,-0.03662109375,-1.7395018339157104,-0.3662109076976776,1.0375975370407104,86.66667175292969,223945.0,1.0
15:43:06.864488,158132.15625,178459.90625,176938.734375,183409.21875,161732.578125,175011.390625,691011.375,189645.703125,0.05517578125,1.009521484375,-0.0380859375,-1.7089842557907104,-0.3051757514476776,1.0070799589157104,86.66667175292969,223946.0,1.0
15:43:06.867116,158081.109375,178451.78125,176923.8125,183364.328125,161724.09375,175008.53125,691522.25,189634.984375,0.057861328125,1.009521484375,-0.037109375,-1.6784666776657104,-0.3051757514476776,1.0375975370407104,86.66667175292969,223947.0,1.0
15:43:06.869650,157982.859375,178424.5,176906.375,183377.75,161701.828125,174999.5,691133.6875,189636.59375,0.057861328125,1.011474609375,-0.036376953125,-1.7395018339157104,-0.2746581733226776,0.9765624403953552,86.66667175292969,223948.0,1.0
15:43:06.872651,157998.671875,178427.015625,176908.515625,183369.34375,161697.265625,174999.0625,690677.3125,189630.234375,0.058349609375,1.01171875,-0.033935546875,-1.8005369901657104,-0.2136230319738388,1.0375975370407104,86.66667175292969,223949.0,1.0
15:43:06.872675,158106.859375,178443.1875,176920.40625,183397.5,161710.046875,174999.59375,690908.5625,189633.375,0.05908203125,1.012939453125,-0.0341796875,-1.7700194120407104,-0.2136230319738388,1.0375975370407104,86.66667175292969,223950.0,1.0
15:43:06.874636,158087.09375,178445.25,176912.640625,183359.859375,161710.9375,175003.96875,691480.0625,189627.828125,0.05908203125,1.0107421875,-0.03564453125,-1.8310545682907104,-0.1525878757238388,1.0986326932907104,86.66667175292969,223951.0,1.0
15:43:06.877099,157991.171875,178430.234375,176902.078125,183370.859375,161699.140625,175006.84375,691254.5625,189633.8125,0.060546875,1.01123046875,-0.03515625,-1.7700194120407104,-0.0610351525247097,1.1596678495407104,86.66667175292969,223952.0,1.0
15:43:06.879591,157982.40625,178428.0,176904.140625,183367.46875,161693.421875,175006.5625,690708.375,189631.84375,0.06103515625,1.012451171875,-0.031982421875,-1.8310545682907104,0.0610351525247097,1.0681151151657104,86.66667175292969,223953.0,1.0
15:43:06.882133,158094.875,178446.328125,176922.828125,183398.75,161711.125,175008.890625,690830.875,189638.28125,0.06005859375,1.010986328125,-0.03515625,-1.8310545682907104,-0.0610351525247097,1.0986326932907104,86.66667175292969,223954.0,1.0
15:43:06.886492,158110.25,178457.59375,176925.15625,183374.796875,161720.59375,175016.21875,691413.625,189635.875,0.059326171875,1.0107421875,-0.034423828125,-1.8920897245407104,0.0915527269244194,1.0070799589157104,86.66667175292969,223955.0,1.0
15:43:06.886510,158009.578125,178437.03125,176908.515625,183368.625,161701.828125,175010.046875,691363.0,189633.453125,0.05908203125,1.01025390625,-0.033935546875,-1.9226073026657104,0.1220703050494194,0.9460448622703552,86.66667175292969,223956.0,1.0
15:43:06.901529,157980.265625,178432.734375,176911.03125,183376.140625,161695.75,175011.125,690764.25,189635.15625,0.05712890625,1.01171875,-0.033935546875,-1.9531248807907104,0.1525878757238388,0.9765624403953552,86.66667175292969,223957.0,1.0
15:43:06.901557,158086.390625,178452.21875,176931.59375,183403.140625,161713.1875,175015.15625,690757.875,189642.671875,0.056640625,1.011474609375,-0.03564453125,-1.8615721464157104,0.1525878757238388,1.0681151151657104,86.66667175292969,223958.0,1.0
15:43:06.903950,158134.3125,178469.125,176939.375,183395.53125,161728.296875,175019.796875,691309.6875,189643.203125,0.058837890625,1.010498046875,-0.032470703125,-1.9226073026657104,0.1525878757238388,1.0681151151657104,86.66667175292969,223959.0,1.0
15:43:06.903974,158051.0625,178460.984375,176933.015625,183384.890625,161723.1875,175023.46875,691451.5,189647.671875,0.058349609375,1.010498046875,-0.03515625,-1.8920897245407104,0.1525878757238388,0.9460448622703552,86.66667175292969,223960.0,1.0
15:43:06.905880,158000.734375,178451.15625,176931.5,183397.6875,161715.328125,175023.46875,690843.375,189652.5,0.058837890625,1.01025390625,-0.03662109375,-1.9531248807907104,0.1525878757238388,0.9155272841453552,86.66667175292969,223961.0,1.0
15:43:06.909662,158093.0,178473.234375,176956.171875,183417.796875,161737.140625,175032.3125,690725.8125,189661.984375,0.05810546875,1.0107421875,-0.036865234375,-2.014159917831421,0.2746581733226776,0.9460448622703552,86.66667175292969,223962.0,1.0
15:43:06.917706,158167.03125,178495.3125,176972.890625,183428.53125,161763.421875,175043.765625,691229.8125,189670.5625,0.056884765625,1.01123046875,-0.03271484375,-1.9836424589157104,0.2746581733226776,1.0070799589157104,86.66667175292969,223963.0,1.0
15:43:06.924060,158089.78125,178487.984375,176963.515625,183399.921875,161758.515625,175046.625,691523.25,189665.734375,0.056396484375,1.011962890625,-0.03564453125,-1.8920897245407104,0.1831054538488388,0.8850097060203552,86.66667175292969,223964.0,1.0
15:43:06.924091,158019.859375,178471.265625,176955.8125,183414.84375,161743.84375,175043.140625,690942.0625,189666.90625,0.058349609375,1.011474609375,-0.0380859375,-1.9531248807907104,0.2746581733226776,0.8850097060203552,86.66667175292969,223965.0,1.0
15:43:06.932750,158084.953125,178482.984375,176968.609375,183420.484375,161750.734375,175046.171875,690689.9375,189666.09375,0.0576171875,1.01220703125,-0.038818359375,-2.075195074081421,0.3051757514476776,0.8239745497703552,86.66667175292969,223966.0,1.0
15:43:06.932765,158169.265625,178495.9375,176975.125,183432.640625,161761.90625,175044.828125,691104.8125,189665.203125,0.058349609375,1.011962890625,-0.035888671875,-1.9836424589157104,0.2441406100988388,0.7019042372703552,86.66667175292969,223967.0,1.0
15:43:06.938915,158104.453125,178488.703125,176961.546875,183393.296875,161753.40625,175045.8125,691544.5,189658.046875,0.057861328125,1.01171875,-0.03564453125,-2.075195074081421,0.2441406100988388,0.7934569716453552,86.66667175292969,223968.0,1.0
15:43:06.938925,158013.78125,178464.5625,176945.71875,183407.78125,161731.859375,175038.578125,691050.625,189659.5625,0.056640625,1.010498046875,-0.031494140625,-2.136230230331421,0.2136230319738388,0.7629393935203552,86.66667175292969,223969.0,1.0
15:43:06.945511,158043.828125,178464.03125,176944.90625,183396.15625,161725.875,175031.953125,690680.3125,189650.453125,0.0576171875,1.01171875,-0.033447265625,-2.166747808456421,0.2441406100988388,0.8544921278953552,86.66667175292969,223970.0,1.0
15:43:06.945567,158134.21875,178469.390625,176945.0,183409.484375,161731.328125,175020.96875,691003.875,189645.078125,0.056396484375,1.009765625,-0.03564453125,-2.105712652206421,0.2746581733226776,0.7934569716453552,86.66667175292969,223971.0,1.0
15:43:06.952178,158085.046875,178459.375,176926.21875,183359.234375,161721.140625,175014.703125,691531.0625,189628.90625,0.05615234375,1.010498046875,-0.032958984375,-2.105712652206421,0.3051757514476776,0.7629393935203552,86.66667175292969,223972.0,1.0
15:43:06.956494,157988.125,178434.515625,176909.78125,183373.1875,161702.71875,175006.75,691171.5625,189632.03125,0.055908203125,1.010986328125,-0.03564453125,-2.105712652206421,0.1525878757238388,0.7019042372703552,86.66667175292969,223973.0,1.0
15:43:06.956560,157997.34375,178430.859375,176910.484375,183366.921875,161698.15625,175002.640625,690694.6875,189628.90625,0.056884765625,1.01171875,-0.0361328125,-2.044677495956421,0.2136230319738388,0.7324218153953552,86.66667175292969,223974.0,1.0
15:43:06.963382,158104.265625,178444.53125,176923.546875,183394.90625,161712.375,175000.125,690902.8125,189631.5,0.056640625,1.0126953125,-0.033447265625,-2.014159917831421,0.1831054538488388,0.8239745497703552,86.66667175292969,223975.0,1.0
15:43:06.971577,158091.84375,178449.0,176921.125,183361.5625,161715.5,175004.15625,691475.625,189627.109375,0.056396484375,1.011474609375,-0.02978515625,-1.9836424589157104,0.0610351525247097,0.7019042372703552,86.66667175292969,223976.0,1.0
15:43:06.971645,157995.453125,178432.109375,176910.3125,183372.015625,161701.015625,175003.34375,691275.625,189633.90625,0.056640625,1.01220703125,-0.031005859375,-2.166747808456421,0.0610351525247097,0.6408690810203552,86.66667175292969,223977.0,1.0
15:43:06.973447,157980.703125,178427.1875,176907.53125,183366.5625,161690.03125,174999.765625,690713.3125,189628.90625,0.055908203125,1.01171875,-0.0302734375,-2.166747808456421,0.03051757626235485,0.7019042372703552,86.66667175292969,223978.0,1.0
15:43:06.984234,158089.6875,178444.359375,176923.359375,183394.375,161706.296875,175001.5625,690812.6875,189634.984375,0.055419921875,1.010498046875,-0.02880859375,-2.044677495956421,0.0610351525247097,0.7629393935203552,86.66667175292969,223979.0,1.0
15:43:06.984300,158104.890625,178452.578125,176921.9375,183369.515625,161714.703125,175006.03125,691387.3125,189631.765625,0.056640625,1.009521484375,-0.033203125,-2.136230230331421,0.03051757626235485,0.6408690810203552,86.66667175292969,223980.0,1.0
15:43:06.985827,158008.609375,178436.21875,176909.328125,183368.4375,161702.890625,175007.015625,691376.6875,189636.140625,0.05517578125,1.0087890625,-0.033935546875,-2.105712652206421,0.0,0.5798339247703552,86.66667175292969,223981.0,1.0
15:43:06.996509,157967.03125,178422.265625,176902.265625,183369.25,161689.484375,175001.5625,690770.0625,189634.09375,0.056640625,1.008056640625,-0.036865234375,-2.075195074081421,-0.03051757626235485,0.6713866591453552,86.66667175292969,223982.0,1.0
15:43:06.996578,158066.53125,178438.546875,176919.703125,183391.515625,161704.59375,175003.890625,690744.1875,189638.921875,0.054931640625,1.008544921875,-0.03271484375,-2.044677495956421,-0.1831054538488388,0.6408690810203552,86.66667175292969,223983.0,1.0
15:43:06.998914,158114.90625,178453.65625,176926.5,183384.359375,161717.203125,175009.15625,691289.3125,189635.875,0.056640625,1.010498046875,-0.03369140625,-1.9531248807907104,-0.1831054538488388,0.6713866591453552,86.66667175292969,223984.0,1.0
15:43:06.998972,158029.34375,178445.421875,176915.765625,183365.140625,161707.375,175010.59375,691464.3125,189630.78125,0.05615234375,1.010009765625,-0.031982421875,-1.9836424589157104,-0.2136230319738388,0.6408690810203552,86.66667175292969,223985.0,1.0
15:43:07.008389,157982.671875,178443.1875,176920.234375,183382.03125,161705.578125,175016.671875,690857.25,189637.484375,0.05615234375,1.009521484375,-0.034912109375,-2.014159917831421,-0.2746581733226776,0.6713866591453552,86.66667175292969,223986.0,1.0
15:43:07.015571,158073.15625,178466.96875,176947.859375,183402.234375,161732.578125,175030.171875,690717.75,189648.03125,0.056640625,1.01220703125,-0.0322265625,-1.9226073026657104,-0.3051757514476776,0.6713866591453552,86.66667175292969,223987.0,1.0
15:43:07.016078,158151.203125,178489.59375,176965.109375,183411.546875,161759.046875,175039.921875,691199.375,189654.5625,0.056884765625,1.01025390625,-0.0322265625,-2.044677495956421,-0.3356933295726776,0.5798339247703552,86.66667175292969,223988.0,1.0
15:43:07.017137,158081.015625,178486.203125,176959.9375,183384.8125,161757.4375,175047.15625,691531.375,189655.359375,0.057861328125,1.009521484375,-0.03369140625,-1.9531248807907104,-0.3662109076976776,0.5798339247703552,86.66667175292969,223989.0,1.0
15:43:07.023353,158009.671875,178472.421875,176954.921875,183407.15625,161746.96875,175049.21875,690963.0,189664.9375,0.057373046875,1.008544921875,-0.03271484375,-1.9836424589157104,-0.3356933295726776,0.6713866591453552,86.66667175292969,223990.0,1.0
15:43:07.025803,158057.15625,178471.359375,176955.015625,183398.390625,161742.328125,175040.90625,690687.25,189655.546875,0.059814453125,1.010498046875,-0.03076171875,-2.014159917831421,-0.3356933295726776,0.7324218153953552,86.66667175292969,223991.0,1.0
15:43:07.033519,158142.265625,178480.46875,176957.96875,183410.109375,161748.9375,175035.09375,691088.8125,189653.125,0.06005859375,1.010498046875,-0.031005859375,-1.9531248807907104,-0.3356933295726776,0.7019042372703552,86.66667175292969,223992.0,1.0
15:43:07.040318,158081.5625,178471.984375,176942.046875,183368.71875,161738.84375,175033.03125,691542.0,189644.640625,0.059326171875,1.00927734375,-0.030029296875,-1.9226073026657104,-0.3356933295726776,0.7019042372703552,86.66667175292969,223993.0,1.0
15:43:07.040328,157987.59375,178444.4375,176923.8125,183383.734375,161715.859375,175021.859375,691067.3125,189646.78125,0.0576171875,1.007568359375,-0.034423828125,-1.9226073026657104,-0.3051757514476776,0.7324218153953552,86.66667175292969,223994.0,1.0
15:43:07.046468,158014.859375,178444.625,176927.296875,183375.859375,161713.625,175017.921875,690673.4375,189641.6875,0.056884765625,1.010009765625,-0.03271484375,-1.9226073026657104,-0.3356933295726776,0.6713866591453552,86.66667175292969,223995.0,1.0
15:43:07.046517,158112.21875,178455.796875,176934.984375,183395.453125,161723.734375,175014.4375,690974.875,189639.1875,0.056396484375,1.010009765625,-0.0322265625,-1.9226073026657104,-0.3967284858226776,0.7019042372703552,86.66667175292969,223996.0,1.0
15:43:07.052119,158074.046875,178455.078125,176922.5625,183349.9375,161716.3125,175015.0625,691511.5,189624.78125,0.056396484375,1.010986328125,-0.032958984375,-1.9531248807907104,-0.3662109076976776,0.6713866591453552,86.66667175292969,223997.0,1.0
15:43:07.058924,157976.859375,178432.546875,176904.59375,183360.671875,161692.4375,175007.1875,691179.0625,189624.78125,0.055908203125,1.010498046875,-0.032470703125,-1.9226073026657104,-0.3662109076976776,0.6713866591453552,86.66667175292969,223998.0,1.0
15:43:07.058949,157981.953125,178428.625,176904.671875,183353.875,161685.28125,175003.53125,690686.1875,189621.125,0.05908203125,1.010498046875,-0.032470703125,-1.8615721464157104,-0.4882812201976776,0.7629393935203552,86.66667175292969,223999.0,1.0
15:43:07.060837,158087.28125,178439.890625,176915.5,183380.609375,161696.640625,174997.890625,690869.1875,189620.9375,0.057861328125,1.010009765625,-0.03466796875,-1.8920897245407104,-0.4577636420726776,0.7934569716453552,86.66667175292969,224000.0,1.0
15:43:07.076622,158079.046875,178443.46875,176910.3125,183346.546875,161697.09375,174998.25,691448.0,189611.015625,0.0576171875,1.010009765625,-0.0322265625,-1.8615721464157104,-0.4577636420726776,0.7324218153953552,86.66667175292969,224001.0,1.0
15:43:07.076642,157980.625,178422.453125,176896.546875,183351.015625,161680.90625,174992.796875,691281.5625,189614.15625,0.056884765625,1.01025390625,-0.031005859375,-1.8615721464157104,-0.2746581733226776,0.6408690810203552,86.66667175292969,224002.0,1.0
15:43:07.078513,157962.375,178416.1875,176896.71875,183352.078125,161676.515625,174990.390625,690710.875,189615.3125,0.0576171875,1.011474609375,-0.02880859375,-1.8005369901657104,-0.3356933295726776,0.7019042372703552,86.66667175292969,224003.0,1.0
15:43:07.081488,158078.15625,178439.265625,176920.40625,183386.59375,161700.84375,174998.875,690792.125,189628.09375,0.056884765625,1.0107421875,-0.032470703125,-1.8615721464157104,-0.3662109076976776,0.7019042372703552,86.66667175292969,224004.0,1.0
15:43:07.081516,158111.515625,178459.375,176930.703125,183373.625,161719.890625,175012.296875,691370.125,189632.5625,0.05712890625,1.011962890625,-0.033203125,-1.8310545682907104,-0.3662109076976776,0.6713866591453552,86.66667175292969,224005.0,1.0
15:43:07.083587,158013.515625,178443.46875,176917.28125,183361.828125,161706.296875,175011.65625,691389.0,189631.671875,0.057861328125,1.013671875,-0.03173828125,-1.8615721464157104,-0.4882812201976776,0.7324218153953552,86.66667175292969,224006.0,1.0
15:43:07.098930,157971.5,178434.96875,176915.046875,183368.53125,161700.125,175011.75,690775.4375,189635.703125,0.059326171875,1.01220703125,-0.032958984375,-1.8920897245407104,-0.4577636420726776,0.7934569716453552,86.66667175292969,224007.0,1.0
15:43:07.098965,158071.359375,178454.1875,176936.59375,183391.421875,161721.046875,175017.125,690723.125,189644.640625,0.060302734375,1.01171875,-0.0341796875,-1.9226073026657104,-0.3662109076976776,0.7019042372703552,86.66667175292969,224008.0,1.0
15:43:07.101523,158123.765625,178466.703125,176943.03125,183385.25,161734.640625,175019.796875,691257.75,189643.5625,0.061767578125,1.01318359375,-0.034912109375,-2.044677495956421,-0.3356933295726776,0.5798339247703552,86.66667175292969,224009.0,1.0
15:43:07.101557,158036.140625,178453.125,176928.015625,183364.6875,161719.625,175017.46875,691463.9375,189638.5625,0.0595703125,1.012451171875,-0.033935546875,-1.9531248807907104,-0.3967284858226776,0.5187987685203552,86.66667175292969,224010.0,1.0
15:43:07.112071,157975.96875,178438.546875,176918.796875,183376.140625,161703.609375,175013.453125,690866.375,189639.0,0.05859375,1.012451171875,-0.03271484375,-1.8615721464157104,-0.3356933295726776,0.5493163466453552,86.66667175292969,224011.0,1.0
15:43:07.119496,158057.5,178453.921875,176937.671875,183391.0625,161718.09375,175018.28125,690697.875,189645.171875,0.05859375,1.012451171875,-0.03125,-1.9226073026657104,-0.3051757514476776,0.6103515028953552,86.66667175292969,224012.0,1.0
15:43:07.119524,158133.765625,178469.203125,176947.953125,183399.921875,161735.359375,175020.78125,691168.8125,189647.9375,0.06005859375,1.0107421875,-0.03173828125,-1.9836424589157104,-0.2746581733226776,0.5493163466453552,86.66667175292969,224013.0,1.0
15:43:07.119535,158060.90625,178461.34375,176936.59375,183368.4375,161727.75,175021.3125,691519.9375,189643.5625,0.057373046875,1.010986328125,-0.031494140625,-1.9836424589157104,-0.3051757514476776,0.5187987685203552,86.66667175292969,224014.0,1.0
15:43:07.122663,157986.421875,178445.96875,176928.90625,183388.03125,161713.265625,175019.984375,690972.8125,189649.90625,0.057861328125,1.009765625,-0.03125,-2.014159917831421,-0.3662109076976776,0.5493163466453552,86.66667175292969,224015.0,1.0
15:43:07.122694,158042.21875,178458.75,176942.9375,183388.734375,161724.53125,175026.0625,690673.0625,189652.140625,0.05712890625,1.01025390625,-0.03125,-2.014159917831421,-0.3356933295726776,0.5187987685203552,86.66667175292969,224016.0,1.0
15:43:07.130810,158137.171875,178475.640625,176956.625,183411.1875,161746.890625,175030.4375,691052.375,189659.125,0.059814453125,1.012451171875,-0.032958984375,-2.105712652206421,-0.2441406100988388,0.4577636420726776,86.66667175292969,224017.0,1.0
15:43:07.173979,158083.96875,178475.015625,176946.703125,183373.359375,161744.203125,175037.40625,691535.5625,189653.390625,0.059326171875,1.011474609375,-0.03076171875,-2.014159917831421,-0.2441406100988388,0.4577636420726776,86.66667175292969,224018.0,1.0
15:43:07.174044,157980.34375,178440.15625,176917.546875,183374.53125,161708.4375,175019.796875,691078.625,189642.140625,0.060791015625,1.00927734375,-0.0341796875,-2.044677495956421,-0.3967284858226776,0.3967284858226776,86.66667175292969,224019.0,1.0
15:43:07.185347,158003.6875,178440.25,176918.53125,183364.875,161703.25,175017.125,690668.5625,189634.71875,0.058837890625,1.01025390625,-0.03515625,-2.044677495956421,-0.3356933295726776,0.5798339247703552,86.66667175292969,224020.0,1.0
15:43:07.185423,158108.203125,178456.609375,176931.40625,183391.609375,161719.625,175017.65625,690957.1875,189638.109375,0.0576171875,1.01171875,-0.03076171875,-2.044677495956421,-0.2746581733226776,0.5798339247703552,86.66667175292969,224021.0,1.0
15:43:07.188979,158081.640625,178459.375,176927.390625,183357.09375,161720.6875,175020.34375,691511.25,189634.53125,0.05859375,1.0107421875,-0.0283203125,-2.105712652206421,-0.3356933295726776,0.5493163466453552,86.66667175292969,224022.0,1.0
15:43:07.189048,157989.828125,178439.796875,176917.734375,183375.421875,161705.40625,175014.96875,691214.25,189641.6875,0.057861328125,1.01171875,-0.031982421875,-2.044677495956421,-0.3356933295726776,0.5493163466453552,86.66667175292969,224023.0,1.0
15:43:07.189074,157999.390625,178444.71875,176928.734375,183379.359375,161708.265625,175018.015625,690705.5625,189644.09375,0.057373046875,1.00830078125,-0.031494140625,-1.9531248807907104,-0.4272460639476776,0.5798339247703552,86.66667175292969,224024.0,1.0
15:43:07.189096,158110.796875,178461.703125,176945.265625,183411.359375,161724.71875,175016.046875,690864.375,189649.546875,0.056396484375,1.00927734375,-0.031005859375,-2.044677495956421,-0.3051757514476776,0.5493163466453552,86.66667175292969,224025.0,1.0
15:43:07.191521,158102.84375,178460.1875,176934.625,183372.46875,161719.96875,175010.234375,691436.875,189634.4375,0.05712890625,1.01025390625,-0.028564453125,-1.9836424589157104,-0.3051757514476776,0.5798339247703552,86.66667175292969,224026.0,1.0
15:43:07.191586,157998.59375,178432.828125,176914.609375,183371.390625,161696.1875,174999.5,691303.4375,189629.53125,0.05712890625,1.008544921875,-0.03076171875,-1.9226073026657104,-0.2746581733226776,0.6103515028953552,86.66667175292969,224027.0,1.0
15:43:07.193359,157975.515625,178426.921875,176912.640625,183373.09375,161686.265625,174996.375,690720.875,189626.671875,0.055419921875,1.0078125,-0.03173828125,-1.9836424589157104,-0.3051757514476776,0.6103515028953552,86.66667175292969,224028.0,1.0
15:43:07.195932,158079.046875,178441.40625,176926.40625,183392.3125,161697.625,174993.875,690770.9375,189625.765625,0.05712890625,1.008544921875,-0.033203125,-1.9531248807907104,-0.3356933295726776,0.5187987685203552,86.66667175292969,224029.0,1.0
15:43:07.198410,158103.546875,178446.140625,176923.71875,183369.15625,161702.359375,174992.078125,691338.5,189617.640625,0.059326171875,1.0087890625,-0.0341796875,-1.8615721464157104,-0.2441406100988388,0.5187987685203552,86.66667175292969,224030.0,1.0
15:43:07.200856,158006.8125,178427.1875,176908.4375,183359.6875,161688.953125,174988.0625,691399.5625,189620.40625,0.0595703125,1.00830078125,-0.03125,-1.8615721464157104,-0.2441406100988388,0.5798339247703552,86.66667175292969,224031.0,1.0
15:43:07.203474,157958.53125,178413.234375,176903.0625,183363.96875,161676.609375,174981.265625,690784.4375,189622.015625,0.059814453125,1.007568359375,-0.0341796875,-1.8005369901657104,-0.2136230319738388,0.5493163466453552,86.66667175292969,224032.0,1.0
15:43:07.205928,158055.265625,178430.234375,176922.65625,183383.640625,161693.25,174985.109375,690726.6875,189629.796875,0.060302734375,1.007568359375,-0.0341796875,-1.8310545682907104,-0.1831054538488388,0.5798339247703552,86.66667175292969,224033.0,1.0
15:43:07.208329,158115.078125,178448.640625,176932.3125,183383.640625,161712.828125,174993.96875,691258.1875,189635.15625,0.058349609375,1.00927734375,-0.032958984375,-1.8005369901657104,-0.2441406100988388,0.5493163466453552,86.66667175292969,224034.0,1.0
15:43:07.210894,158031.578125,178439.703125,176922.296875,183363.4375,161707.90625,174997.71875,691486.5,189638.640625,0.060302734375,1.0107421875,-0.035400390625,-1.7089842557907104,-0.1220703050494194,0.4882812201976776,86.66667175292969,224035.0,1.0
15:43:07.213940,157972.390625,178428.984375,176920.140625,183383.828125,161698.875,174999.234375,690884.6875,189648.84375,0.060546875,1.009765625,-0.02734375,-1.7395018339157104,-0.1220703050494194,0.6713866591453552,86.66667175292969,224036.0,1.0
15:43:07.214009,158049.1875,178444.0,176937.578125,183398.84375,161713.8125,175004.515625,690700.125,189655.984375,0.05810546875,1.01025390625,-0.028564453125,-1.6784666776657104,-0.0915527269244194,0.7019042372703552,86.66667175292969,224037.0,1.0
15:43:07.215888,158127.25,178456.15625,176943.84375,183411.546875,161729.265625,175005.9375,691166.875,189657.15625,0.056640625,1.011962890625,-0.03076171875,-1.7089842557907104,-0.1831054538488388,0.6713866591453552,86.66667175292969,224038.0,1.0
15:43:07.222716,158057.5,178449.984375,176932.3125,183381.046875,161723.734375,175010.6875,691541.5625,189653.3125,0.056640625,1.0107421875,-0.033447265625,-1.6784666776657104,-0.2136230319738388,0.7019042372703552,86.66667175292969,224039.0,1.0
15:43:07.222779,157973.90625,178431.578125,176918.265625,183397.6875,161705.40625,175009.34375,691000.4375,189654.03125,0.057373046875,1.009765625,-0.02880859375,-1.7089842557907104,-0.1525878757238388,0.7019042372703552,86.66667175292969,224040.0,1.0
15:43:07.224993,158021.125,178442.03125,176926.671875,183393.65625,161709.78125,175015.953125,690688.6875,189647.3125,0.05859375,1.010986328125,-0.030517578125,-1.6784666776657104,-0.1831054538488388,0.7629393935203552,86.66667175292969,224041.0,1.0
15:43:07.236551,158120.8125,178464.390625,176939.8125,183412.34375,161727.9375,175024.453125,691066.375,189646.6875,0.060302734375,1.012939453125,-0.028564453125,-1.6479490995407104,-0.1831054538488388,0.7629393935203552,86.66667175292969,224042.0,1.0
15:43:07.236633,158072.34375,178464.5625,176931.328125,183371.390625,161726.59375,175031.328125,691564.5,189637.65625,0.06201171875,1.010986328125,-0.0302734375,-1.6784666776657104,-0.0610351525247097,0.7629393935203552,86.66667175292969,224043.0,1.0
15:43:07.241763,157980.4375,178440.15625,176918.453125,183390.625,161711.03125,175024.984375,691133.375,189642.84375,0.06396484375,1.01025390625,-0.0322265625,-1.6174315214157104,0.0610351525247097,0.7324218153953552,86.66667175292969,224044.0,1.0
15:43:07.241850,158006.1875,178443.28125,176925.515625,183387.484375,161712.734375,175024.984375,690699.25,189640.171875,0.0625,1.009033203125,-0.03173828125,-1.6174315214157104,0.0915527269244194,0.6713866591453552,86.66667175292969,224045.0,1.0
15:43:07.243520,158117.046875,178460.984375,176940.265625,183419.140625,161729.09375,175024.53125,690956.625,189645.890625,0.060791015625,1.008544921875,-0.02685546875,-1.6479490995407104,0.1831054538488388,0.7629393935203552,86.66667175292969,224046.0,1.0
15:43:07.256287,158091.578125,178460.0,176931.328125,183379.796875,161726.59375,175024.625,691520.5625,189636.859375,0.0595703125,1.009521484375,-0.028076171875,-1.6174315214157104,0.1831054538488388,0.7629393935203552,86.66667175292969,224047.0,1.0
15:43:07.268334,157996.703125,178439.265625,176920.234375,183395.171875,161710.5,175019.703125,691245.5,189642.9375,0.0595703125,1.007080078125,-0.0283203125,-1.5258787870407104,0.2746581733226776,0.7324218153953552,86.66667175292969,224048.0,1.0
15:43:07.268362,157996.703125,178440.25,176926.046875,183395.625,161709.421875,175020.0625,690720.25,189641.421875,0.0595703125,1.009033203125,-0.03076171875,-1.5869139432907104,0.3356933295726776,0.6713866591453552,86.66667175292969,224049.0,1.0
15:43:07.268370,158105.515625,178455.078125,176940.265625,183422.359375,161723.734375,175016.9375,690879.125,189644.015625,0.060302734375,1.010986328125,-0.031494140625,-1.5563963651657104,0.2746581733226776,0.6408690810203552,86.66667175292969,224050.0,1.0
15:43:07.270861,158108.734375,178458.03125,176934.890625,183390.34375,161724.53125,175014.53125,691459.625,189636.59375,0.0595703125,1.010009765625,-0.03271484375,-1.5563963651657104,0.2136230319738388,0.7019042372703552,86.66667175292969,224051.0,1.0
15:43:07.273638,158010.65625,178437.46875,176918.453125,183391.515625,161703.96875,175006.03125,691364.8125,189635.703125,0.0595703125,1.011474609375,-0.03173828125,-1.5258787870407104,0.3356933295726776,0.6713866591453552,86.66667175292969,224052.0,1.0
15:43:07.276036,157985.453125,178431.578125,176917.640625,183395.453125,161695.65625,175002.640625,690769.875,189636.140625,0.060546875,1.011962890625,-0.031982421875,-1.4343260526657104,0.2136230319738388,0.6103515028953552,86.66667175292969,224053.0,1.0
15:43:07.278336,158084.859375,178445.15625,176930.34375,183413.421875,161705.40625,174997.984375,690793.375,189636.046875,0.060546875,1.011962890625,-0.033935546875,-1.4648436307907104,0.3051757514476776,0.5493163466453552,86.66667175292969,224054.0,1.0
15:43:07.284907,158117.59375,178453.75,176930.78125,183395.53125,161710.9375,174996.46875,691356.375,189632.125,0.059814453125,1.01318359375,-0.03564453125,-1.4953612089157104,0.2441406100988388,0.6103515028953552,86.66667175292969,224055.0,1.0
15:43:07.291459,158025.046875,178436.3125,176915.578125,183383.90625,161697.359375,174992.171875,691451.625,189633.015625,0.0615234375,1.013916015625,-0.0322265625,-1.4953612089157104,0.2441406100988388,0.4272460639476776,86.66667175292969,224056.0,1.0
15:43:07.291487,157973.28125,178421.46875,176908.609375,183391.953125,161684.5625,174986.8125,690828.875,189632.75,0.0576171875,1.0126953125,-0.032470703125,-1.4648436307907104,0.3051757514476776,0.4272460639476776,86.66667175292969,224057.0,1.0
15:43:07.293899,158066.265625,178439.078125,176928.640625,183412.515625,161701.203125,174992.53125,690729.1875,189638.5625,0.056640625,1.013427734375,-0.03369140625,-1.3732908964157104,0.2746581733226776,0.3967284858226776,86.66667175292969,224058.0,1.0
15:43:07.293924,158126.796875,178453.828125,176934.1875,183411.359375,161714.796875,174997.984375,691240.25,189637.75,0.05712890625,1.012939453125,-0.029296875,-1.3427733182907104,0.2136230319738388,0.3051757514476776,86.66667175292969,224059.0,1.0
15:43:07.310173,158043.828125,178441.671875,176919.96875,183381.3125,161702.71875,174999.765625,691513.0,189630.875,0.0576171875,1.012939453125,-0.029541015625,-1.3732908964157104,0.2136230319738388,0.2746581733226776,86.66667175292969,224060.0,1.0
15:43:07.310195,157972.65625,178421.28125,176908.515625,183391.875,161685.640625,174995.921875,690921.875,189632.203125,0.056884765625,1.01220703125,-0.027099609375,-1.3732908964157104,0.3356933295726776,0.1525878757238388,86.66667175292969,224061.0,1.0
15:43:07.312064,158036.765625,178430.671875,176917.109375,183394.546875,161690.46875,174999.0625,690702.625,189629.609375,0.056396484375,1.012451171875,-0.02685546875,-1.5563963651657104,0.1831054538488388,0.1525878757238388,86.66667175292969,224062.0,1.0
15:43:07.315918,158114.640625,178441.859375,176918.453125,183402.15625,161697.984375,174997.09375,691138.9375,189625.140625,0.055908203125,1.012939453125,-0.02734375,-1.5563963651657104,0.1525878757238388,0.0915527269244194,86.66667175292969,224063.0,1.0
15:43:07.319569,158046.328125,178433.625,176903.515625,183363.625,161687.515625,174997.8125,691549.875,189618.4375,0.0556640625,1.012451171875,-0.02734375,-1.6784666776657104,0.1220703050494194,0.03051757626235485,86.66667175292969,224064.0,1.0
15:43:07.330217,157963.1875,178414.9375,176892.96875,183380.96875,161671.421875,174995.296875,691029.9375,189623.625,0.0556640625,1.012939453125,-0.027587890625,-1.6479490995407104,0.1220703050494194,0.0915527269244194,86.66667175292969,224065.0,1.0
15:43:07.330240,158011.28125,178427.546875,176908.515625,183383.109375,161682.875,175001.46875,690693.375,189626.671875,0.055419921875,1.012451171875,-0.029541015625,-1.6784666776657104,0.1220703050494194,0.0915527269244194,86.66667175292969,224066.0,1.0
15:43:07.332753,158120.359375,178450.609375,176931.234375,183415.203125,161709.0625,175009.34375,691049.5625,189638.921875,0.05615234375,1.012451171875,-0.0283203125,-1.8005369901657104,-0.03051757626235485,0.0610351525247097,86.66667175292969,224067.0,1.0
15:43:07.332788,158081.5625,178453.75,176929.359375,183379.171875,161715.5,175017.5625,691560.3125,189637.21875,0.05810546875,1.010986328125,-0.030029296875,-1.8310545682907104,-0.0610351525247097,0.0915527269244194,86.66667175292969,224068.0,1.0
15:43:07.342193,157991.25,178434.796875,176920.234375,183397.59375,161704.859375,175017.65625,691158.375,189645.265625,0.057373046875,1.01220703125,-0.0341796875,-1.8005369901657104,-0.03051757626235485,0.0915527269244194,86.66667175292969,224069.0,1.0
15:43:07.352734,158008.78125,178437.03125,176926.40625,183391.875,161709.78125,175018.90625,690707.9375,189642.765625,0.0576171875,1.011962890625,-0.0302734375,-1.7395018339157104,0.03051757626235485,0.1525878757238388,86.66667175292969,224070.0,1.0
15:43:07.352748,158117.953125,178454.8125,176941.78125,183419.5,161728.828125,175021.234375,690946.75,189647.765625,0.058837890625,1.010498046875,-0.029541015625,-1.8005369901657104,0.0610351525247097,0.2441406100988388,86.66667175292969,224071.0,1.0
15:43:07.355229,158094.4375,178453.296875,176932.21875,183376.40625,161726.6875,175020.6875,691519.1875,189636.765625,0.057373046875,1.011962890625,-0.030517578125,-1.7700194120407104,-0.0610351525247097,0.2746581733226776,86.66667175292969,224072.0,1.0
15:43:07.355276,158001.0,178435.765625,176921.390625,183391.0625,161712.375,175018.546875,691284.75,189643.65625,0.057373046875,1.01220703125,-0.03076171875,-1.7700194120407104,-0.0915527269244194,0.3662109076976776,86.66667175292969,224073.0,1.0
15:43:07.357562,157997.875,178440.0625,176928.8125,183394.8125,161713.265625,175022.296875,690746.4375,189646.25,0.056884765625,1.011962890625,-0.02734375,-1.8005369901657104,-0.0610351525247097,0.4882812201976776,86.66667175292969,224074.0,1.0
15:43:07.360882,158109.90625,178458.84375,176948.84375,183424.859375,161733.46875,175023.375,690861.875,189653.125,0.056396484375,1.011962890625,-0.02978515625,-1.8005369901657104,-0.0610351525247097,0.4577636420726776,86.66667175292969,224075.0,1.0
15:43:07.369584,158119.109375,178465.453125,176947.5,183396.78125,161739.734375,175023.203125,691448.8125,189648.125,0.055419921875,1.011474609375,-0.0302734375,-1.8920897245407104,-0.1220703050494194,0.4272460639476776,86.66667175292969,224076.0,1.0
15:43:07.397665,158022.453125,178448.015625,176934.71875,183395.09375,161721.9375,175017.125,691394.3125,189650.1875,0.05615234375,1.0126953125,-0.029052734375,-1.8920897245407104,0.0,0.5187987685203552,86.66667175292969,224077.0,1.0
15:43:07.397684,157993.21875,178441.3125,176934.265625,183398.21875,161710.9375,175010.859375,690799.75,189649.546875,0.055419921875,1.01123046875,-0.02783203125,-1.8920897245407104,-0.0915527269244194,0.4577636420726776,86.66667175292969,224078.0,1.0
15:43:07.399693,158090.59375,178452.21875,176945.53125,183416.28125,161718.09375,175002.546875,690807.25,189648.125,0.054931640625,1.011474609375,-0.028076171875,-1.8920897245407104,-0.0610351525247097,0.4272460639476776,86.66667175292969,224079.0,1.0
15:43:07.402071,158121.078125,178453.921875,176937.84375,183394.546875,161717.65625,174994.59375,691363.6875,189637.84375,0.05615234375,1.01025390625,-0.026123046875,-1.8920897245407104,-0.0915527269244194,0.3967284858226776,86.66667175292969,224080.0,1.0
15:43:07.404631,158022.015625,178432.734375,176917.109375,183372.921875,161696.1875,174986.8125,691490.6875,189631.40625,0.056396484375,1.0107421875,-0.028076171875,-1.8005369901657104,-0.0915527269244194,0.4272460639476776,86.66667175292969,224081.0,1.0
15:43:07.407077,157961.75,178413.6875,176905.03125,183378.09375,161677.6875,174980.90625,690874.8125,189629.265625,0.05810546875,1.009765625,-0.027587890625,-1.7700194120407104,-0.1220703050494194,0.4882812201976776,86.66667175292969,224082.0,1.0
15:43:07.412119,158043.65625,178423.53125,176917.109375,183390.4375,161686.453125,174981.890625,690751.75,189630.234375,0.057861328125,1.008544921875,-0.030029296875,-1.7700194120407104,-0.2136230319738388,0.4577636420726776,86.66667175292969,224083.0,1.0
15:43:07.414715,158110.078125,178438.0,176923.09375,183391.515625,161700.9375,174987.4375,691251.875,189630.59375,0.056640625,1.009765625,-0.029052734375,-1.7700194120407104,-0.1831054538488388,0.5187987685203552,86.66667175292969,224084.0,1.0
15:43:07.417074,158029.875,178428.078125,176908.515625,183362.09375,161691.71875,174989.84375,691555.9375,189626.75,0.0576171875,1.009765625,-0.02978515625,-1.7089842557907104,-0.0915527269244194,0.4882812201976776,86.66667175292969,224085.0,1.0
15:43:07.419656,157961.03125,178413.953125,176902.796875,183378.546875,161679.828125,174990.75,690965.5,189633.015625,0.056884765625,1.008056640625,-0.02734375,-1.6784666776657104,-0.1831054538488388,0.5187987685203552,86.66667175292969,224086.0,1.0
15:43:07.422082,158021.921875,178422.546875,176914.515625,183379.359375,161687.703125,174994.40625,690721.6875,189631.21875,0.057861328125,1.0087890625,-0.030029296875,-1.5869139432907104,-0.1525878757238388,0.5798339247703552,86.66667175292969,224087.0,1.0
15:43:07.425126,158107.21875,178436.578125,176923.09375,183391.515625,161702.1875,174996.546875,691137.1875,189633.1875,0.05810546875,1.0078125,-0.02685546875,-1.6174315214157104,-0.0915527269244194,0.5187987685203552,86.66667175292969,224088.0,1.0
15:43:07.425148,158047.3125,178432.546875,176914.421875,183357.453125,161697.4375,174999.859375,691573.125,189629.34375,0.056884765625,1.008544921875,-0.028076171875,-1.5258787870407104,0.03051757626235485,0.4272460639476776,86.66667175292969,224089.0,1.0
15:43:07.427714,157964.078125,178415.203125,176904.953125,183378.28125,161684.484375,174997.890625,691070.0,189635.15625,0.05712890625,1.009521484375,-0.031005859375,-1.3427733182907104,0.03051757626235485,0.4577636420726776,86.66667175292969,224090.0,1.0
15:43:07.427735,158009.046875,178427.90625,176918.53125,183378.015625,161693.59375,175005.765625,690708.75,189634.359375,0.05712890625,1.009765625,-0.03076171875,-1.3427733182907104,-0.03051757626235485,0.4577636420726776,86.66667175292969,224091.0,1.0
15:43:07.429583,158114.8125,178447.75,176934.8125,183406.4375,161712.640625,175010.046875,691032.75,189640.53125,0.058837890625,1.010498046875,-0.0283203125,-1.4038084745407104,-0.0610351525247097,0.4272460639476776,86.66667175292969,224092.0,1.0
15:43:07.440147,158072.96875,178446.328125,176925.421875,183363.96875,161706.5625,175011.3125,691571.9375,189629.703125,0.059326171875,1.012451171875,-0.031494140625,-1.3427733182907104,0.03051757626235485,0.4882812201976776,86.66667175292969,224093.0,1.0
15:43:07.440171,157973.28125,178421.640625,176907.625,183373.71875,161684.484375,175004.15625,691196.4375,189627.015625,0.056396484375,1.012451171875,-0.03369140625,-1.3122557401657104,0.1525878757238388,0.6408690810203552,86.66667175292969,224094.0,1.0
15:43:07.442071,157989.828125,178428.359375,176915.671875,183371.484375,161689.046875,175012.015625,690730.5625,189626.21875,0.0546875,1.011474609375,-0.0341796875,-1.2207030057907104,0.1831054538488388,0.5187987685203552,86.66667175292969,224095.0,1.0
15:43:07.457746,158102.65625,178449.09375,176934.359375,183401.96875,161711.125,175018.546875,690952.375,189634.796875,0.05517578125,1.01123046875,-0.030029296875,-1.2207030057907104,0.0915527269244194,0.4882812201976776,86.66667175292969,224096.0,1.0
15:43:07.457770,158091.75,178455.984375,176935.171875,183370.5,161722.125,175026.328125,691534.75,189632.5625,0.05419921875,1.01220703125,-0.029541015625,-1.0986326932907104,0.1220703050494194,0.4882812201976776,86.66667175292969,224097.0,1.0
15:43:07.460122,157999.21875,178440.0625,176928.640625,183383.46875,161713.71875,175024.625,691319.625,189641.15625,0.055419921875,1.0126953125,-0.0322265625,-1.0375975370407104,0.1220703050494194,0.5187987685203552,86.66667175292969,224098.0,1.0
15:43:07.460133,157993.140625,178439.4375,176935.796875,183386.953125,161715.6875,175024.625,690759.5,189644.8125,0.05615234375,1.011474609375,-0.030517578125,-0.9765624403953552,0.2441406100988388,0.5493163466453552,86.66667175292969,224099.0,1.0
15:43:07.468082,158101.765625,178455.703125,176952.59375,183412.875,161732.671875,175023.90625,690869.125,189651.4375,0.055419921875,1.00927734375,-0.031005859375,-0.9765624403953552,0.1525878757238388,0.5493163466453552,86.66667175292969,224100.0,1.0
15:43:07.468101,158113.65625,178461.4375,176948.21875,183383.5625,161736.609375,175021.140625,691446.125,189643.75,0.05517578125,1.010986328125,-0.03125,-0.9155272841453552,0.03051757626235485,0.5187987685203552,86.66667175292969,224101.0,1.0
15:43:07.470185,158018.25,178444.359375,176934.359375,183380.875,161720.953125,175017.65625,691422.5625,189644.09375,0.056396484375,1.010498046875,-0.029541015625,-0.8544921278953552,0.1831054538488388,0.5493163466453552,86.66667175292969,224102.0,1.0
15:43:07.470200,157983.75,178436.75,176932.390625,183387.40625,161711.75,175016.671875,690809.5,189645.625,0.05615234375,1.009521484375,-0.0302734375,-0.7934569716453552,0.1220703050494194,0.5493163466453552,86.66667175292969,224103.0,1.0
15:43:07.479825,158083.4375,178453.65625,176948.75,183407.96875,161725.15625,175018.546875,690789.75,189650.359375,0.056884765625,1.009765625,-0.03076171875,-0.7934569716453552,0.1831054538488388,0.5493163466453552,86.66667175292969,224104.0,1.0
15:43:07.486555,158126.890625,178464.203125,176950.8125,183398.125,161733.75,175019.359375,691338.6875,189648.84375,0.056640625,1.01123046875,-0.03271484375,-0.7629393935203552,0.2136230319738388,0.6103515028953552,86.66667175292969,224105.0,1.0
15:43:07.486580,158033.8125,178444.625,176930.96875,183376.671875,161713.890625,175012.015625,691500.3125,189642.3125,0.05517578125,1.009033203125,-0.034423828125,-0.6713866591453552,0.2746581733226776,0.6103515028953552,86.66667175292969,224106.0,1.0
15:43:07.496536,157977.75,178428.984375,176925.328125,183388.03125,161700.21875,175005.765625,690884.0625,189644.453125,0.058349609375,1.008544921875,-0.032470703125,-0.7019042372703552,0.2441406100988388,0.5493163466453552,86.66667175292969,224107.0,1.0
15:43:07.496558,158057.0625,178438.984375,176939.1875,183398.390625,161710.046875,175002.640625,690736.375,189644.546875,0.0595703125,1.00830078125,-0.029296875,-0.5798339247703552,0.3051757514476776,0.7629393935203552,86.66667175292969,224108.0,1.0
15:43:07.498436,158128.046875,178451.953125,176944.734375,183404.46875,161721.046875,175000.046875,691218.3125,189644.453125,0.06005859375,1.009521484375,-0.03466796875,-0.6103515028953552,0.3356933295726776,0.6408690810203552,86.66667175292969,224109.0,1.0
15:43:07.505198,158046.59375,178436.046875,176926.40625,183371.3125,161702.359375,174991.28125,691544.3125,189634.71875,0.05810546875,1.009765625,-0.03466796875,-0.6103515028953552,0.2441406100988388,0.6408690810203552,86.66667175292969,224110.0,1.0
15:43:07.505229,157972.21875,178416.8125,176916.65625,183390.96875,161684.84375,174984.84375,690974.5,189638.109375,0.056396484375,1.01171875,-0.03271484375,-0.6713866591453552,0.2746581733226776,0.5798339247703552,86.66667175292969,224111.0,1.0
15:43:07.532162,158031.046875,178427.1875,176929.171875,183397.40625,161691.28125,174986.890625,690709.8125,189640.53125,0.056884765625,1.013671875,-0.032470703125,-0.7019042372703552,0.2746581733226776,0.5798339247703552,86.66667175292969,224112.0,1.0
15:43:07.557153,158117.40625,178438.546875,176933.375,183411.890625,161700.484375,174983.59375,691112.6875,189638.015625,0.0546875,1.014404296875,-0.03173828125,-0.6408690810203552,0.2746581733226776,0.5187987685203552,86.66667175292969,224113.0,1.0
15:43:07.557214,158059.75,178435.140625,176923.28125,183374.4375,161695.484375,174985.828125,691562.8125,189631.21875,0.056640625,1.01123046875,-0.032470703125,-0.7324218153953552,0.1831054538488388,0.6103515028953552,86.66667175292969,224114.0,1.0
15:43:07.557220,157977.3125,178419.328125,176916.84375,183395.453125,161684.390625,174985.46875,691072.6875,189640.171875,0.056640625,1.011962890625,-0.031982421875,-0.7629393935203552,0.2746581733226776,0.6103515028953552,86.66667175292969,224115.0,1.0
15:43:07.565138,158012.53125,178425.3125,176924.796875,183389.71875,161687.78125,174987.96875,690688.625,189637.21875,0.056640625,1.01123046875,-0.03173828125,-0.8239745497703552,0.2136230319738388,0.6408690810203552,86.66667175292969,224116.0,1.0
15:43:07.565186,158114.90625,178441.578125,176937.21875,183411.453125,161704.15625,174990.75,690998.3125,189640.078125,0.058349609375,1.011962890625,-0.02978515625,-0.8239745497703552,0.2746581733226776,0.5187987685203552,86.66667175292969,224117.0,1.0
15:43:07.565205,158076.46875,178442.203125,176927.5625,183366.203125,161702.625,174996.28125,691543.875,189630.875,0.058837890625,1.009765625,-0.03173828125,-0.9155272841453552,0.3051757514476776,0.5187987685203552,86.66667175292969,224118.0,1.0
15:43:07.565220,157975.96875,178417.359375,176910.484375,183375.15625,161683.234375,174991.28125,691202.0625,189633.015625,0.0576171875,1.010009765625,-0.033447265625,-0.9765624403953552,0.3662109076976776,0.4882812201976776,86.66667175292969,224119.0,1.0
15:43:07.567258,157983.5625,178418.703125,176913.96875,183370.328125,161681.984375,174995.21875,690719.1875,189631.40625,0.057861328125,1.010009765625,-0.029052734375,-1.0681151151657104,0.2746581733226776,0.5493163466453552,86.66667175292969,224120.0,1.0
15:43:07.569612,158091.03125,178434.25,176925.515625,183396.34375,161695.125,174996.640625,690915.8125,189632.5625,0.060791015625,1.009765625,-0.032958984375,-1.0681151151657104,0.2441406100988388,0.5493163466453552,86.66667175292969,224121.0,1.0
15:43:07.572308,158078.78125,178435.859375,176916.390625,183358.96875,161693.25,174997.890625,691503.375,189622.28125,0.058837890625,1.009033203125,-0.03662109375,-1.0986326932907104,0.2746581733226776,0.6103515028953552,86.66667175292969,224122.0,1.0
15:43:07.574599,157978.03125,178415.5625,176901.8125,183362.8125,161677.953125,174995.578125,691333.3125,189623.53125,0.060302734375,1.0107421875,-0.034912109375,-1.1596678495407104,0.2746581733226776,0.7324218153953552,86.66667175292969,224123.0,1.0
15:43:07.577141,157965.234375,178415.75,176908.34375,183365.5,161679.296875,175001.03125,690766.0625,189625.140625,0.060791015625,1.011962890625,-0.03759765625,-1.1596678495407104,0.3356933295726776,0.6408690810203552,86.66667175292969,224124.0,1.0
15:43:07.579711,158078.78125,178438.546875,176930.703125,183393.921875,161701.28125,175007.8125,690833.8125,189632.75,0.06298828125,1.012939453125,-0.03759765625,-1.0681151151657104,0.3356933295726776,0.6713866591453552,86.66667175292969,224125.0,1.0
15:43:07.582389,158099.53125,178449.625,176932.484375,183371.578125,161711.921875,175013.1875,691416.4375,189628.90625,0.06298828125,1.009521484375,-0.036865234375,-1.0375975370407104,0.3967284858226776,0.7019042372703552,86.66667175292969,224126.0,1.0
15:43:07.584646,158005.5625,178435.6875,176921.75,183365.9375,161702.453125,175015.0625,691431.9375,189630.953125,0.063232421875,1.010986328125,-0.037841796875,-1.1291502714157104,0.4577636420726776,0.7324218153953552,86.66667175292969,224127.0,1.0
15:43:07.587207,157966.578125,178424.859375,176918.0,183369.078125,161692.796875,175012.734375,690812.5,189629.4375,0.06298828125,1.009765625,-0.0380859375,-1.0681151151657104,0.6408690810203552,0.7934569716453552,86.66667175292969,224128.0,1.0
15:43:07.589908,158061.796875,178439.796875,176935.171875,183388.734375,161708.890625,175014.25,690767.0,189632.484375,0.060546875,1.007568359375,-0.036376953125,-1.0986326932907104,0.5798339247703552,0.7934569716453552,86.66667175292969,224129.0,1.0
15:43:07.592058,158108.46875,178448.203125,176937.578125,183378.8125,161720.15625,175014.53125,691302.625,189629.609375,0.05908203125,1.010009765625,-0.037353515625,-1.0986326932907104,0.6408690810203552,0.7629393935203552,86.66667175292969,224130.0,1.0
15:43:07.595384,158017.453125,178431.390625,176920.140625,183355.03125,161704.6875,175010.234375,691501.3125,189623.265625,0.057861328125,1.012451171875,-0.03369140625,-1.1291502714157104,0.7324218153953552,0.7629393935203552,86.66667175292969,224131.0,1.0
15:43:07.595435,157960.046875,178417.71875,176915.5,183372.640625,161692.96875,175006.75,690890.5625,189628.28125,0.05712890625,1.01171875,-0.032470703125,-1.1291502714157104,0.7019042372703552,0.6103515028953552,86.66667175292969,224132.0,1.0
15:43:07.597124,158040.078125,178430.859375,176930.515625,183385.171875,161702.359375,175005.671875,690729.1875,189630.234375,0.05712890625,1.012939453125,-0.03369140625,-1.1901854276657104,0.7324218153953552,0.4577636420726776,86.66667175292969,224133.0,1.0
15:43:07.601450,158116.609375,178445.875,176939.90625,183394.109375,161716.671875,175004.515625,691204.125,189631.84375,0.057373046875,1.013427734375,-0.0341796875,-1.1901854276657104,0.6103515028953552,0.3356933295726776,86.66667175292969,224134.0,1.0
15:43:07.601481,158045.171875,178437.734375,176929.53125,183365.046875,161709.875,175003.078125,691550.5,189629.703125,0.05615234375,1.013427734375,-0.03466796875,-1.2817381620407104,0.6408690810203552,0.3356933295726776,86.66667175292969,224135.0,1.0
15:43:07.613379,157976.5,178424.5,176926.40625,183390.796875,161700.84375,175001.109375,690985.875,189642.765625,0.056640625,1.009765625,-0.03369140625,-1.2817381620407104,0.6103515028953552,0.2441406100988388,86.66667175292969,224136.0,1.0
15:43:07.616496,158037.03125,178438.359375,176942.9375,183396.515625,161710.234375,175003.96875,690696.0,189645.4375,0.056396484375,1.0087890625,-0.038330078125,-1.2817381620407104,0.4882812201976776,0.1525878757238388,86.66667175292969,224137.0,1.0
15:43:07.616523,158130.640625,178452.140625,176952.953125,183416.28125,161722.75,174999.421875,691077.5,189647.3125,0.056640625,1.0126953125,-0.036865234375,-1.2512205839157104,0.4577636420726776,0.2136230319738388,86.66667175292969,224138.0,1.0
15:43:07.618387,158075.484375,178447.21875,176942.3125,183379.171875,161716.578125,174999.59375,691551.75,189641.0625,0.057373046875,1.014404296875,-0.033935546875,-1.3122557401657104,0.3967284858226776,0.03051757626235485,86.66667175292969,224139.0,1.0
15:43:07.622084,157986.609375,178427.09375,176930.78125,183398.484375,161699.59375,174995.484375,691088.625,189648.21875,0.05810546875,1.01318359375,-0.03564453125,-1.3732908964157104,0.4577636420726776,-0.0610351525247097,86.66667175292969,224140.0,1.0
15:43:07.632719,158018.171875,178434.703125,176939.09375,183394.734375,161703.4375,175000.3125,690686.1875,189650.0,0.059326171875,1.012939453125,-0.036376953125,-1.4343260526657104,0.3967284858226776,-0.0610351525247097,86.66667175292969,224141.0,1.0
15:43:07.632862,158113.921875,178441.5,176941.78125,183411.546875,161709.515625,174992.0,690972.3125,189645.265625,0.059814453125,1.01318359375,-0.033447265625,-1.3732908964157104,0.5187987685203552,-0.03051757626235485,86.66667175292969,224142.0,1.0
15:43:07.635235,158080.3125,178440.15625,176930.96875,183368.71875,161704.6875,174991.8125,691516.0625,189634.984375,0.0615234375,1.012939453125,-0.03564453125,-1.3427733182907104,0.4882812201976776,-0.03051757626235485,86.66667175292969,224143.0,1.0
15:43:07.635245,157976.765625,178411.09375,176910.3125,183373.984375,161680.8125,174981.171875,691204.8125,189632.484375,0.060302734375,1.013916015625,-0.0361328125,-1.4648436307907104,0.5187987685203552,0.03051757626235485,86.66667175292969,224144.0,1.0
15:43:07.649623,157974.0,178402.515625,176906.375,183365.140625,161672.046875,174974.921875,690702.1875,189625.765625,0.0595703125,1.017822265625,-0.033203125,-1.4953612089157104,0.3967284858226776,0.0610351525247097,86.66667175292969,224145.0,1.0
15:43:07.652813,158079.234375,178414.21875,176917.1875,183390.4375,161683.59375,174971.703125,690881.0,189626.84375,0.05810546875,1.01416015625,-0.03369140625,-1.5258787870407104,0.3051757514476776,0.0610351525247097,86.66667175292969,224146.0,1.0
15:43:07.652840,158074.3125,178419.59375,176910.75,183354.3125,161683.234375,174974.921875,691464.75,189617.28125,0.057861328125,1.01318359375,-0.03662109375,-1.6784666776657104,0.3967284858226776,0.2136230319738388,86.66667175292969,224147.0,1.0
15:43:07.654612,157974.625,178400.546875,176895.203125,183356.375,161666.6875,174973.390625,691330.5625,189618.703125,0.0556640625,1.013427734375,-0.03173828125,-1.7089842557907104,0.3967284858226776,0.2441406100988388,86.66667175292969,224148.0,1.0
15:43:07.657256,157953.890625,178398.484375,176897.4375,183357.265625,161665.34375,174979.828125,690762.25,189620.765625,0.0546875,1.010986328125,-0.03369140625,-1.7395018339157104,0.1831054538488388,0.2746581733226776,86.66667175292969,224149.0,1.0
15:43:07.665925,158061.53125,178421.109375,176917.46875,183384.09375,161686.171875,174989.140625,690834.6875,189626.75,0.054931640625,1.011962890625,-0.029541015625,-1.7395018339157104,0.2441406100988388,0.3356933295726776,86.66667175292969,224150.0,1.0
15:43:07.671500,158091.03125,178436.3125,176921.046875,183367.375,161698.515625,174998.609375,691408.0,189624.078125,0.0537109375,1.01025390625,-0.03076171875,-1.7700194120407104,0.2136230319738388,0.3356933295726776,86.66667175292969,224151.0,1.0
15:43:07.671567,158002.609375,178424.5,176912.8125,183361.828125,161689.3125,175002.90625,691453.8125,189626.046875,0.053955078125,1.01171875,-0.031982421875,-1.9226073026657104,0.0,0.3356933295726776,86.66667175292969,224152.0,1.0
15:43:07.673349,157967.296875,178421.734375,176918.796875,183375.515625,161689.046875,175011.125,690840.875,189633.1875,0.0537109375,1.012451171875,-0.032470703125,-1.9226073026657104,0.0610351525247097,0.2441406100988388,86.66667175292969,224153.0,1.0
15:43:07.684336,158068.421875,178445.875,176945.171875,183402.0625,161715.140625,175023.734375,690781.4375,189644.1875,0.052734375,1.01220703125,-0.031982421875,-1.9226073026657104,0.03051757626235485,0.1525878757238388,86.66667175292969,224154.0,1.0
15:43:07.684433,158123.21875,178460.71875,176951.796875,183398.21875,161729.984375,175026.78125,691304.0,189643.296875,0.05517578125,1.012451171875,-0.030029296875,-2.044677495956421,0.0,0.2136230319738388,86.66667175292969,224155.0,1.0
15:43:07.686498,158041.234375,178450.53125,176942.3125,183378.90625,161722.203125,175026.859375,691528.5,189643.65625,0.054443359375,1.00927734375,-0.02685546875,-2.014159917831421,-0.2441406100988388,0.1220703050494194,86.66667175292969,224156.0,1.0
15:43:07.686564,157979.546875,178433.625,176934.984375,183393.390625,161709.0625,175018.90625,690908.875,189645.984375,0.055419921875,1.00927734375,-0.031494140625,-2.014159917831421,-0.3356933295726776,0.1525878757238388,86.66667175292969,224157.0,1.0
15:43:07.693425,158056.609375,178445.96875,176951.265625,183404.296875,161720.328125,175017.828125,690724.875,189647.5,0.055419921875,1.010986328125,-0.02880859375,-2.014159917831421,-0.3356933295726776,0.1831054538488388,86.66667175292969,224158.0,1.0
15:43:07.703363,158134.390625,178459.28125,176961.1875,183414.578125,161735.359375,175014.796875,691178.0,189650.265625,0.05712890625,1.01220703125,-0.028564453125,-2.044677495956421,-0.3967284858226776,0.1831054538488388,86.66667175292969,224159.0,1.0
15:43:07.706548,158062.0625,178449.90625,176947.953125,183378.90625,161725.25,175010.046875,691549.25,189645.265625,0.055419921875,1.01171875,-0.030029296875,-2.014159917831421,-0.4272460639476776,0.1220703050494194,86.66667175292969,224160.0,1.0
15:43:07.706661,157985.796875,178432.46875,176939.1875,183398.9375,161709.78125,175003.265625,691005.375,189652.140625,0.05615234375,1.012451171875,-0.029296875,-2.105712652206421,-0.4882812201976776,0.3356933295726776,86.66667175292969,224161.0,1.0
15:43:07.708390,158041.6875,178446.59375,176955.109375,183403.84375,161719.34375,175008.53125,690694.9375,189654.65625,0.055908203125,1.012451171875,-0.0283203125,-2.166747808456421,-0.5493163466453552,0.2746581733226776,86.66667175292969,224162.0,1.0
15:43:07.719648,158140.03125,178464.46875,176968.875,183426.203125,161735.625,175010.234375,691063.3125,189658.859375,0.056640625,1.01220703125,-0.02783203125,-2.166747808456421,-0.4882812201976776,0.1525878757238388,86.66667175292969,224163.0,1.0
15:43:07.724478,158086.75,178461.515625,176958.5,183383.46875,161729.359375,175012.203125,691546.3125,189649.734375,0.058837890625,1.013427734375,-0.029296875,-2.136230230331421,-0.4882812201976776,0.2441406100988388,86.66667175292969,224164.0,1.0
15:43:07.724510,157993.671875,178438.71875,176944.109375,183398.84375,161710.40625,175008.09375,691111.9375,189653.390625,0.058349609375,1.011962890625,-0.02783203125,-2.166747808456421,-0.5798339247703552,0.2441406100988388,86.66667175292969,224165.0,1.0
15:43:07.724525,158018.25,178440.875,176949.921875,183395.171875,161710.234375,175010.6875,690693.25,189652.421875,0.057861328125,1.01416015625,-0.027587890625,-2.044677495956421,-0.4882812201976776,0.2136230319738388,86.66667175292969,224166.0,1.0
15:43:07.727078,158118.125,178449.90625,176955.8125,183415.46875,161717.828125,175004.78125,690962.9375,189650.1875,0.05810546875,1.01318359375,-0.030517578125,-2.075195074081421,-0.5187987685203552,0.1831054538488388,86.66667175292969,224167.0,1.0
15:43:07.730893,158085.9375,178446.140625,176942.765625,183371.578125,161711.125,175001.203125,691511.5,189638.5625,0.0595703125,1.0107421875,-0.025146484375,-2.075195074081421,-0.5187987685203552,0.1831054538488388,86.66667175292969,224168.0,1.0
15:43:07.746569,157986.25,178422.0,176926.3125,183381.046875,161691.09375,174994.140625,691222.375,189640.171875,0.056396484375,1.00927734375,-0.02490234375,-2.075195074081421,-0.4577636420726776,0.0915527269244194,86.66667175292969,224169.0,1.0
15:43:07.746628,157982.671875,178419.234375,176926.765625,183373.625,161685.46875,174992.796875,690701.6875,189636.671875,0.056640625,1.009765625,-0.026611328125,-2.014159917831421,-0.3967284858226776,0.1525878757238388,86.66667175292969,224170.0,1.0
15:43:07.748397,158086.828125,178433.453125,176937.21875,183395.453125,161697.359375,174990.296875,690869.9375,189635.875,0.057373046875,1.010986328125,-0.028076171875,-2.014159917831421,-0.3356933295726776,0.2441406100988388,86.66667175292969,224171.0,1.0
15:43:07.755949,158085.21875,178437.46875,176929.625,183357.0,161696.28125,174989.9375,691445.4375,189620.3125,0.056640625,1.0107421875,-0.025390625,-1.8920897245407104,-0.3967284858226776,0.2136230319738388,86.66667175292969,224172.0,1.0
15:43:07.762176,157988.65625,178419.859375,176916.390625,183358.796875,161681.0,174988.421875,691343.4375,189621.21875,0.057861328125,1.010009765625,-0.03173828125,-1.8920897245407104,-0.4882812201976776,0.1525878757238388,86.66667175292969,224173.0,1.0
15:43:07.765396,157968.453125,178417.359375,176920.59375,183366.390625,161679.828125,174992.359375,690760.5625,189625.765625,0.057861328125,1.01025390625,-0.031982421875,-1.8005369901657104,-0.4882812201976776,0.1831054538488388,86.66667175292969,224174.0,1.0
15:43:07.765460,158074.3125,178436.21875,176941.78125,183393.84375,161701.109375,174998.4375,690808.9375,189633.90625,0.05712890625,1.008544921875,-0.02783203125,-1.6784666776657104,-0.3356933295726776,0.0915527269244194,86.66667175292969,224175.0,1.0
15:43:07.771570,158109.453125,178449.1875,176946.15625,183379.703125,161715.859375,175004.59375,691377.9375,189636.671875,0.05712890625,1.0078125,-0.028076171875,-1.6479490995407104,-0.3356933295726776,0.1525878757238388,86.66667175292969,224176.0,1.0
15:43:07.771632,158016.203125,178433.09375,176932.390625,183368.625,161702.625,175001.65625,691455.8125,189636.953125,0.055908203125,1.008056640625,-0.028564453125,-1.6784666776657104,-0.3967284858226776,0.1525878757238388,86.66667175292969,224177.0,1.0
15:43:07.777914,157975.609375,178426.46875,176933.734375,183383.203125,161695.296875,175003.96875,690835.6875,189641.78125,0.055419921875,1.00830078125,-0.029296875,-1.5869139432907104,-0.2746581733226776,0.0915527269244194,86.66667175292969,224178.0,1.0
15:43:07.777972,158069.484375,178444.625,176954.03125,183402.859375,161713.625,175010.046875,690750.8125,189647.234375,0.0546875,1.008544921875,-0.030517578125,-1.5563963651657104,-0.2441406100988388,0.03051757626235485,86.66667175292969,224179.0,1.0
15:43:07.791511,158127.515625,178457.59375,176960.640625,183399.46875,161729.71875,175012.46875,691264.5,189646.421875,0.053466796875,1.00927734375,-0.029541015625,-1.4648436307907104,-0.3051757514476776,0.0,86.66667175292969,224180.0,1.0
15:43:07.791561,158042.578125,178445.78125,176948.75,183373.984375,161720.875,175011.390625,691525.25,189643.296875,0.0546875,1.009765625,-0.03076171875,-1.4343260526657104,-0.3356933295726776,0.0610351525247097,86.66667175292969,224181.0,1.0
15:43:07.794026,157976.5,178429.875,176940.984375,183392.765625,161706.75,175005.234375,690925.8125,189649.28125,0.056396484375,1.010009765625,-0.029296875,-1.2817381620407104,-0.2136230319738388,-0.03051757626235485,86.66667175292969,224182.0,1.0
15:43:07.794074,158048.390625,178442.484375,176954.65625,183403.5,161716.578125,175004.59375,690715.6875,189652.6875,0.054931640625,1.00927734375,-0.028564453125,-1.2512205839157104,-0.2136230319738388,-0.03051757626235485,86.66667175292969,224183.0,1.0
15:43:07.799694,158133.5,178457.765625,176964.578125,183420.296875,161731.78125,175002.984375,691156.9375,189656.796875,0.0556640625,1.011962890625,-0.02734375,-1.2512205839157104,-0.2136230319738388,-0.03051757626235485,86.66667175292969,224184.0,1.0
15:43:07.807707,158069.671875,178451.953125,176957.96875,183390.625,161728.640625,175004.0625,691553.0625,189656.265625,0.055908203125,1.011474609375,-0.03125,-1.4038084745407104,-0.1831054538488388,-0.1525878757238388,86.66667175292969,224185.0,1.0
15:43:07.807723,157987.5,178428.703125,176946.609375,183406.890625,161711.921875,174996.28125,691016.5625,189659.296875,0.05712890625,1.010986328125,-0.03173828125,-1.3427733182907104,-0.2441406100988388,-0.03051757626235485,86.66667175292969,224186.0,1.0
15:43:07.812968,158031.21875,178434.796875,176955.015625,183401.796875,161715.765625,174997.265625,690675.0,189655.8125,0.056396484375,1.01171875,-0.03125,-1.2207030057907104,-0.2746581733226776,0.03051757626235485,86.66667175292969,224187.0,1.0
15:43:07.813034,158130.640625,178453.296875,176967.890625,183424.765625,161732.578125,175001.03125,691017.25,189659.390625,0.054931640625,1.012451171875,-0.029541015625,-1.3732908964157104,-0.3051757514476776,0.0,86.66667175292969,224188.0,1.0
15:43:07.814748,158085.671875,178453.65625,176960.296875,183384.984375,161729.984375,175005.234375,691527.9375,189652.59375,0.054443359375,1.0126953125,-0.029052734375,-1.3122557401657104,-0.2441406100988388,0.03051757626235485,86.66667175292969,224189.0,1.0
15:43:07.824702,157992.78125,178432.90625,176946.609375,183401.96875,161711.21875,175000.21875,691119.0,189657.0625,0.05419921875,1.012451171875,-0.02978515625,-1.2512205839157104,-0.2746581733226776,0.0915527269244194,86.66667175292969,224190.0,1.0
15:43:07.828933,158011.375,178435.140625,176950.09375,183397.6875,161706.65625,174999.6875,690673.125,189653.9375,0.056396484375,1.013427734375,-0.0322265625,-1.3427733182907104,-0.3051757514476776,0.0610351525247097,86.66667175292969,224191.0,1.0
15:43:07.829009,158117.671875,178450.078125,176960.015625,183424.140625,161716.578125,174997.625,690927.25,189653.75,0.05322265625,1.013427734375,-0.031005859375,-1.4343260526657104,-0.3356933295726776,0.1831054538488388,86.66667175292969,224192.0,1.0
15:43:07.835851,158092.5625,178449.453125,176947.953125,183381.859375,161709.96875,174996.375,691491.5625,189639.890625,0.0546875,1.013671875,-0.033203125,-1.3732908964157104,-0.3356933295726776,0.1220703050494194,86.66667175292969,224193.0,1.0
15:43:07.846483,157989.640625,178424.15625,176928.28125,183386.78125,161686.09375,174988.953125,691244.375,189638.5625,0.054443359375,1.014404296875,-0.032470703125,-1.4648436307907104,-0.3356933295726776,0.1525878757238388,86.66667175292969,224194.0,1.0
15:43:07.846526,157975.515625,178415.390625,176922.921875,183375.78125,161674.46875,174986.8125,690712.6875,189631.046875,0.05517578125,1.012451171875,-0.03173828125,-1.5258787870407104,-0.3051757514476776,0.1831054538488388,86.66667175292969,224195.0,1.0
15:43:07.855213,158077.890625,178427.546875,176933.203125,183396.34375,161685.734375,174986.0,690845.0625,189629.796875,0.053466796875,1.010986328125,-0.03173828125,-1.4648436307907104,-0.3967284858226776,0.2441406100988388,86.66667175292969,224196.0,1.0
15:43:07.855258,158079.6875,178431.578125,176925.78125,183360.84375,161686.359375,174986.265625,691424.9375,189620.046875,0.05419921875,1.01220703125,-0.031005859375,-1.4343260526657104,-0.3662109076976776,0.2746581733226776,86.66667175292969,224197.0,1.0
15:43:07.857701,157983.484375,178415.65625,176910.125,183356.640625,161670.4375,174985.828125,691360.75,189621.125,0.056640625,1.009765625,-0.02978515625,-1.4953612089157104,-0.3967284858226776,0.3356933295726776,86.66667175292969,224198.0,1.0
15:43:07.857742,157953.609375,178412.265625,176910.84375,183360.21875,161665.171875,174988.78125,690771.125,189622.640625,0.055908203125,1.011962890625,-0.030029296875,-1.4648436307907104,-0.3662109076976776,0.3356933295726776,86.66667175292969,224199.0,1.0
15:43:07.859586,158047.3125,178421.828125,176920.765625,183374.4375,161673.9375,174984.9375,690786.6875,189620.046875,0.05322265625,1.011474609375,-0.031494140625,-1.5869139432907104,-0.2746581733226776,0.3051757514476776,86.66667175292969,224200.0,1.0
15:43:07.870862,158081.296875,178427.546875,176918.265625,183353.25,161681.625,174984.3125,691347.8125,189611.5625,0.0537109375,1.01025390625,-0.031005859375,-1.5869139432907104,-0.2746581733226776,0.3356933295726776,86.66667175292969,224201.0,1.0
15:43:07.906288,157987.328125,178410.109375,176903.421875,183335.71875,161668.296875,174981.625,691464.5,189607.890625,0.054931640625,1.0107421875,-0.029052734375,-1.5869139432907104,-0.3662109076976776,0.5493163466453552,86.66667175292969,224202.0,1.0
15:43:07.906335,157936.453125,178399.296875,176897.609375,183344.9375,161657.921875,174980.640625,690844.875,189609.5,0.056396484375,1.011962890625,-0.029052734375,-1.6479490995407104,-0.3662109076976776,0.5798339247703552,86.66667175292969,224203.0,1.0
15:43:07.906349,158025.5,178417.09375,176916.125,183361.296875,161675.8125,174986.984375,690736.6875,189615.3125,0.056396484375,1.010498046875,-0.03076171875,-1.6174315214157104,-0.3356933295726776,0.5187987685203552,86.66667175292969,224204.0,1.0
15:43:07.922192,158091.578125,178433.453125,176927.484375,183366.484375,161697.359375,174992.078125,691238.5625,189620.9375,0.054931640625,1.010986328125,-0.03125,-1.5563963651657104,-0.3051757514476776,0.4272460639476776,86.66667175292969,224205.0,1.0
