Timestamp,Fz,FC3,FCz,FC4,Cz,C3,C4
15:38:18.522415,162154.046875,184477.8125,178864.03125,191566.625,184339.21875,182919.359375,690951.5625,195509.203125,0.05419921875,1.009521484375,-0.03515625,-1.0375975370407104,-1.0375975370407104,-1.3122557401657104,93.33334350585938,151805.0,1.0
15:38:18.526849,162102.640625,184473.96875,178853.390625,191528.703125,184331.625,182917.65625,691556.3125,195501.421875,0.05517578125,1.010009765625,-0.034423828125,-1.0986326932907104,-0.9460448622703552,-1.0681151151657104,93.33334350585938,151806.0,1.0
15:38:18.526897,161988.828125,184449.203125,178838.015625,191536.484375,184312.578125,182911.484375,691042.0625,195499.453125,0.054443359375,1.0087890625,-0.031494140625,-0.9765624403953552,-0.7934569716453552,-1.0986326932907104,93.33334350585938,151807.0,1.0
15:38:18.532327,162027.0,184460.109375,178850.890625,191544.265625,184318.03125,182917.390625,690519.0625,195508.125,0.052001953125,1.0107421875,-0.033203125,-1.0681151151657104,-0.7934569716453552,-0.9765624403953552,93.33334350585938,151808.0,1.0
15:38:18.543262,162149.9375,184477.1875,178862.875,191570.546875,184332.96875,182917.828125,690821.0,195509.90625,0.049072265625,1.010986328125,-0.03515625,-1.1291502714157104,-0.7934569716453552,-0.9765624403953552,93.33334350585938,151809.0,1.0
15:38:18.543354,162123.5625,184478.34375,178852.671875,191530.765625,184330.375,182918.453125,691509.125,195497.484375,0.05029296875,1.011474609375,-0.0322265625,-1.2207030057907104,-0.7629393935203552,-0.9460448622703552,93.33334350585938,151810.0,1.0
15:38:18.545474,162001.96875,184451.609375,178833.28125,191533.71875,184308.828125,182911.578125,691186.0625,195499.1875,0.051025390625,1.01171875,-0.033935546875,-1.1901854276657104,-0.7019042372703552,-0.9155272841453552,93.33334350585938,151811.0,1.0
15:38:18.545553,162000.171875,184449.015625,178836.21875,191523.875,184306.328125,182912.015625,690546.8125,195493.8125,0.050537109375,1.012939453125,-0.033935546875,-1.1901854276657104,-0.6713866591453552,-0.7934569716453552,93.33334350585938,151812.0,1.0
15:38:18.560351,162132.953125,184469.765625,178857.421875,191567.328125,184326.890625,182913.453125,690707.625,195504.375,0.0517578125,1.01025390625,-0.034912109375,-1.2817381620407104,-0.7019042372703552,-0.7629393935203552,93.33334350585938,151813.0,1.0
15:38:18.563271,162136.4375,184472.4375,178848.125,191529.25,184325.28125,182911.390625,691421.125,195484.609375,0.05419921875,1.00830078125,-0.036865234375,-1.2512205839157104,-0.7019042372703552,-0.7934569716453552,93.33334350585938,151814.0,1.0
15:38:18.563354,162020.5625,184456.703125,178834.609375,191535.234375,184309.453125,182912.734375,691327.4375,195494.171875,0.052001953125,1.011474609375,-0.036376953125,-1.2207030057907104,-0.5798339247703552,-0.7324218153953552,93.33334350585938,151815.0,1.0
15:38:18.565100,161989.453125,184445.359375,178833.28125,191529.515625,184299.4375,182904.421875,690611.4375,195486.84375,0.0546875,1.012451171875,-0.037841796875,-1.3427733182907104,-0.5187987685203552,-0.5493163466453552,93.33334350585938,151816.0,1.0
15:38:18.567587,162119.53125,184470.65625,178862.515625,191572.78125,184325.1875,182914.171875,690649.1875,195506.15625,0.05322265625,1.01611328125,-0.0361328125,-1.4038084745407104,-0.4272460639476776,-0.4272460639476776,93.33334350585938,151817.0,1.0
15:38:18.578189,162173.0,184488.984375,178872.34375,191567.78125,184340.5625,182922.578125,691330.8125,195509.90625,0.050048828125,1.0166015625,-0.033935546875,-1.4038084745407104,-0.4272460639476776,-0.3662109076976776,93.33334350585938,151818.0,1.0
15:38:18.578276,162061.15625,184473.6875,178856.4375,191547.125,184326.890625,182920.515625,691452.0625,195502.578125,0.0498046875,1.016845703125,-0.035888671875,-1.5869139432907104,-0.4882812201976776,-0.2746581733226776,93.33334350585938,151819.0,1.0
15:38:18.580585,162009.296875,184470.5625,178858.578125,191553.75,184321.25,182926.78125,690697.0,195509.46875,0.050537109375,1.0166015625,-0.0341796875,-1.6784666776657104,-0.3662109076976776,-0.2441406100988388,93.33334350585938,151820.0,1.0
15:38:18.580626,162121.765625,184489.515625,178881.828125,191585.84375,184339.40625,182933.484375,690571.6875,195523.5,0.052734375,1.015869140625,-0.032958984375,-1.7700194120407104,-0.3356933295726776,-0.1220703050494194,93.33334350585938,151821.0,1.0
15:38:18.588766,162196.0625,184497.921875,178889.609375,191593.625,184352.1875,182931.15625,691186.5,195528.875,0.05322265625,1.014892578125,-0.03271484375,-1.9531248807907104,-0.3662109076976776,-0.2136230319738388,93.33334350585938,151822.0,1.0
15:38:18.599423,162096.46875,184482.8125,178871.90625,191559.203125,184338.953125,182925.078125,691524.1875,195516.890625,0.052490234375,1.013671875,-0.037353515625,-2.075195074081421,-0.1831054538488388,-0.03051757626235485,93.33334350585938,151823.0,1.0
15:38:18.599509,162014.484375,184469.046875,178863.3125,191558.125,184325.90625,182924.71875,690792.6875,195510.625,0.0537109375,1.01318359375,-0.03369140625,-2.197265386581421,-0.0610351525247097,0.0915527269244194,93.33334350585938,151824.0,1.0
15:38:18.601799,162101.65625,184487.46875,178882.359375,191571.453125,184341.109375,182932.140625,690530.25,195518.140625,0.052734375,1.013427734375,-0.03564453125,-2.166747808456421,-0.03051757626235485,0.1220703050494194,93.33334350585938,151825.0,1.0
15:38:18.601878,162195.984375,184496.5,178889.875,191584.953125,184353.4375,182927.9375,691052.125,195513.9375,0.052490234375,1.01318359375,-0.037109375,-2.197265386581421,-0.03051757626235485,0.3051757514476776,93.33334350585938,151826.0,1.0
15:38:18.605069,162118.28125,184485.40625,178874.21875,191544.53125,184342.53125,182923.375,691560.5625,195504.453125,0.052978515625,1.013916015625,-0.0361328125,-2.349853277206421,0.0,0.4577636420726776,93.33334350585938,151827.0,1.0
15:38:18.616233,162021.453125,184470.5625,178870.203125,191565.09375,184333.59375,182925.4375,690930.8125,195515.546875,0.052001953125,1.0146484375,-0.035888671875,-2.349853277206421,0.03051757626235485,0.4882812201976776,93.33334350585938,151828.0,1.0
15:38:18.619366,162078.234375,184478.875,178883.609375,191568.859375,184341.1875,182927.3125,690514.625,195516.4375,0.051513671875,1.015869140625,-0.03515625,-2.410888433456421,0.0610351525247097,0.5187987685203552,93.33334350585938,151829.0,1.0
15:38:18.619446,162190.796875,184489.078125,178888.53125,191592.8125,184347.8125,182918.8125,690914.625,195515.546875,0.054443359375,1.01513671875,-0.037353515625,-2.380370855331421,0.1525878757238388,0.4577636420726776,93.33334350585938,151830.0,1.0
15:38:18.626741,162134.46875,184480.046875,178871.984375,191548.375,184338.0625,182912.921875,691547.625,195505.625,0.052490234375,1.0126953125,-0.037109375,-2.471923589706421,0.2136230319738388,0.5493163466453552,93.33334350585938,151831.0,1.0
15:38:18.630404,162015.640625,184455.640625,178856.515625,191559.015625,184322.78125,182910.0625,691058.0625,195513.3125,0.0517578125,1.013671875,-0.03662109375,-2.532958745956421,0.3356933295726776,0.5493163466453552,93.33334350585938,151832.0,1.0
15:38:18.630429,162039.6875,184459.84375,178862.59375,191554.90625,184323.484375,182914.34375,690508.0,195515.453125,0.05224609375,1.01416015625,-0.036865234375,-2.563476324081421,0.3662109076976776,0.5493163466453552,93.33334350585938,151833.0,1.0
15:38:18.637509,162167.1875,184476.640625,178874.21875,191577.34375,184334.3125,182911.75,690792.3125,195507.40625,0.051025390625,1.013916015625,-0.038818359375,-2.593993902206421,0.3051757514476776,0.6713866591453552,93.33334350585938,151834.0,1.0
15:38:18.644539,162151.0,184482.28125,178869.578125,191548.5625,184338.25,182913.984375,691489.8125,195507.234375,0.050537109375,1.012939453125,-0.036865234375,-2.655029058456421,0.5187987685203552,0.7324218153953552,93.33334350585938,151835.0,1.0
15:38:18.644603,162025.75,184455.1875,178849.640625,191542.75,184317.59375,182909.78125,691200.75,195500.890625,0.052734375,1.013916015625,-0.0361328125,-2.716064214706421,0.5493163466453552,0.8239745497703552,93.33334350585938,151836.0,1.0
15:38:18.650408,162021.71875,184457.59375,178855.984375,191542.203125,184319.109375,182918.109375,690545.5625,195506.0625,0.05322265625,1.013916015625,-0.038818359375,-2.716064214706421,0.5493163466453552,0.9155272841453552,93.33334350585938,151837.0,1.0
15:38:18.650428,162146.171875,184472.0,178868.6875,191562.859375,184331.53125,182916.21875,690691.9375,195493.640625,0.052978515625,1.013427734375,-0.034912109375,-2.746581792831421,0.4272460639476776,1.0375975370407104,93.33334350585938,151838.0,1.0
15:38:18.652461,162169.328125,184484.953125,178873.515625,191551.78125,184342.53125,182919.359375,691405.1875,195500.25,0.052978515625,1.014892578125,-0.03564453125,-2.746581792831421,0.4272460639476776,1.0681151151657104,93.33334350585938,151839.0,1.0
15:38:18.663568,162052.5625,184467.796875,178858.75,191543.90625,184329.03125,182920.25,691344.6875,195503.46875,0.053955078125,1.015625,-0.033935546875,-2.807616949081421,0.3662109076976776,1.1596678495407104,93.33334350585938,151840.0,1.0
15:38:18.666686,162025.125,184468.421875,178864.921875,191552.765625,184327.609375,182927.84375,690616.25,195515.71875,0.055419921875,1.01708984375,-0.03515625,-2.838134527206421,0.4577636420726776,1.1901854276657104,93.33334350585938,151841.0,1.0
15:38:18.666747,162136.515625,184480.046875,178876.640625,191562.78125,184337.890625,182921.671875,690625.125,195500.53125,0.052734375,1.015869140625,-0.034912109375,-2.838134527206421,0.5187987685203552,1.3732908964157104,93.33334350585938,151842.0,1.0
15:38:18.672367,162184.0,184484.515625,178881.28125,191563.9375,184349.515625,182918.375,691302.5625,195511.796875,0.052734375,1.015380859375,-0.036376953125,-2.929687261581421,0.4882812201976776,1.3122557401657104,93.33334350585938,151843.0,1.0
15:38:18.679162,162073.21875,184473.875,178864.125,191541.3125,184333.328125,182920.875,691463.4375,195502.40625,0.052001953125,1.014892578125,-0.034423828125,-3.021239995956421,0.5187987685203552,1.4648436307907104,93.33334350585938,151844.0,1.0
15:38:18.679188,162010.1875,184463.953125,178859.109375,191550.25,184322.6875,182921.671875,690710.0,195508.296875,0.0517578125,1.0146484375,-0.031005859375,-2.990722417831421,0.5187987685203552,1.4648436307907104,93.33334350585938,151845.0,1.0
15:38:18.688527,162112.203125,184475.03125,178876.1875,191571.53125,184336.28125,182921.765625,690565.9375,195513.9375,0.0498046875,1.012939453125,-0.027099609375,-2.960204839706421,0.5187987685203552,1.6174315214157104,93.33334350585938,151846.0,1.0
15:38:18.701590,162190.796875,184492.203125,178885.84375,191572.96875,184349.15625,182924.890625,691168.1875,195510.0,0.050048828125,1.01123046875,-0.02880859375,-3.051757574081421,0.4577636420726776,1.5258787870407104,93.33334350585938,151847.0,1.0
15:38:18.701612,162097.546875,184478.703125,178872.796875,191546.328125,184339.140625,182921.671875,691535.8125,195509.46875,0.05126953125,1.009033203125,-0.030029296875,-2.990722417831421,0.4272460639476776,1.5869139432907104,93.33334350585938,151848.0,1.0
15:38:18.703527,162009.921875,184463.6875,178862.0625,191549.984375,184325.546875,182921.59375,690817.0,195507.40625,0.049560546875,1.009765625,-0.031494140625,-2.960204839706421,0.4882812201976776,1.7089842557907104,93.33334350585938,151849.0,1.0
15:38:18.706084,162089.9375,184475.296875,178878.25,191559.90625,184336.71875,182925.078125,690532.5,195511.796875,0.0498046875,1.009033203125,-0.033935546875,-2.929687261581421,0.3662109076976776,1.6174315214157104,93.33334350585938,151850.0,1.0
15:38:18.708574,162198.390625,184502.484375,178895.859375,191587.09375,184358.625,182933.21875,691041.3125,195522.15625,0.0517578125,1.009033203125,-0.03759765625,-2.899169683456421,0.3967284858226776,1.6479490995407104,93.33334350585938,151851.0,1.0
15:38:18.711215,162122.65625,184491.3125,178881.28125,191540.6875,184351.03125,182930.984375,691571.9375,195505.4375,0.052734375,1.009033203125,-0.033447265625,-2.807616949081421,0.2746581733226776,1.7395018339157104,93.33334350585938,151852.0,1.0
15:38:18.714511,162017.96875,184469.578125,178870.109375,191556.15625,184336.984375,182928.390625,690953.625,195514.46875,0.05615234375,1.00830078125,-0.03125,-2.716064214706421,0.2746581733226776,1.8005369901657104,93.33334350585938,151853.0,1.0
15:38:18.714534,162072.5,184480.125,178882.0,191561.25,184341.8125,182931.609375,690513.75,195515.71875,0.057861328125,1.007568359375,-0.031005859375,-2.716064214706421,0.4882812201976776,1.8920897245407104,93.33334350585938,151854.0,1.0
15:38:18.716075,162195.0,184500.34375,178896.578125,191596.296875,184355.671875,182931.421875,690898.375,195522.34375,0.06005859375,1.005859375,-0.03076171875,-2.563476324081421,0.4272460639476776,1.8920897245407104,93.33334350585938,151855.0,1.0
15:38:18.723531,162147.703125,184496.578125,178886.921875,191556.609375,184352.640625,182929.546875,691546.75,195517.0625,0.060791015625,1.00439453125,-0.033203125,-2.502441167831421,0.4577636420726776,1.9226073026657104,93.33334350585938,151856.0,1.0
15:38:18.755317,162021.359375,184459.921875,178865.90625,191559.5625,184330.90625,182915.328125,691092.125,195518.046875,0.059814453125,1.003173828125,-0.036376953125,-2.471923589706421,0.4272460639476776,2.014159917831421,93.33334350585938,151857.0,1.0
15:38:18.757867,162043.53125,184464.21875,178871.625,191555.078125,184329.390625,182916.3125,690528.0,195515.546875,0.061279296875,1.00390625,-0.033935546875,-2.349853277206421,0.4882812201976776,2.044677495956421,93.33334350585938,151858.0,1.0
15:38:18.757893,162174.609375,184487.640625,178886.65625,191587.546875,184342.71875,182920.78125,690786.9375,195516.890625,0.05908203125,1.00439453125,-0.033203125,-2.227782964706421,0.6103515028953552,1.8920897245407104,93.33334350585938,151859.0,1.0
15:38:18.759765,162156.375,184487.28125,178875.921875,191547.21875,184339.671875,182918.734375,691494.0625,195503.921875,0.055908203125,1.007568359375,-0.03173828125,-2.197265386581421,0.5493163466453552,1.8005369901657104,93.33334350585938,151860.0,1.0
15:38:18.762317,162031.46875,184462.15625,178859.390625,191545.78125,184321.703125,182912.203125,691238.75,195504.734375,0.05615234375,1.00927734375,-0.034423828125,-2.075195074081421,0.4882812201976776,1.7395018339157104,93.33334350585938,151861.0,1.0
15:38:18.764772,162023.59375,184461.71875,178865.46875,191545.78125,184320.0,182912.640625,690568.375,195507.40625,0.056884765625,1.009033203125,-0.03076171875,-1.9836424589157104,0.3967284858226776,1.7395018339157104,93.33334350585938,151862.0,1.0
15:38:18.767295,162158.25,184489.34375,178888.0,191582.890625,184338.59375,182919.625,690693.0625,195515.453125,0.05615234375,1.01025390625,-0.031005859375,-2.044677495956421,0.3662109076976776,1.6479490995407104,93.33334350585938,151863.0,1.0
15:38:18.770355,162179.34375,184495.15625,178886.828125,191561.25,184345.21875,182920.78125,691401.0,195510.8125,0.05615234375,1.01318359375,-0.029052734375,-2.044677495956421,0.3967284858226776,1.5563963651657104,93.33334350585938,151864.0,1.0
15:38:18.770380,162056.6875,184470.828125,178869.125,191548.828125,184331.53125,182918.546875,691370.6875,195511.515625,0.055908203125,1.014892578125,-0.033203125,-2.075195074081421,0.4272460639476776,1.4343260526657104,93.33334350585938,151865.0,1.0
15:38:18.772323,162020.65625,184467.96875,178872.703125,191553.203125,184328.234375,182923.640625,690625.375,195514.828125,0.057861328125,1.013427734375,-0.029541015625,-2.258300542831421,0.3356933295726776,1.4038084745407104,93.33334350585938,151866.0,1.0
15:38:18.774754,162148.140625,184498.453125,178899.265625,191587.890625,184350.84375,182937.859375,690614.125,195523.859375,0.058349609375,1.016845703125,-0.0322265625,-2.288818120956421,0.2136230319738388,1.4343260526657104,93.33334350585938,151867.0,1.0
15:38:18.777444,162201.96875,184506.953125,178904.984375,191583.421875,184365.78125,182930.984375,691276.25,195525.109375,0.05810546875,1.019287109375,-0.03125,-2.380370855331421,0.2136230319738388,1.3732908964157104,93.33334350585938,151868.0,1.0
15:38:18.779729,162098.078125,184495.15625,178894.4375,191566.796875,184359.34375,182935.453125,691467.25,195526.546875,0.060546875,1.0185546875,-0.02978515625,-2.532958745956421,0.0915527269244194,1.4343260526657104,93.33334350585938,151869.0,1.0
15:38:18.784500,162033.53125,184488.890625,178890.234375,191573.0625,184349.59375,182940.28125,690717.8125,195529.84375,0.061279296875,1.017822265625,-0.029052734375,-2.746581792831421,0.2136230319738388,1.4648436307907104,93.33334350585938,151870.0,1.0
15:38:18.784521,162132.59375,184499.796875,178903.90625,191586.015625,184358.265625,182940.0,690552.8125,195530.65625,0.06005859375,1.019287109375,-0.028564453125,-2.868652105331421,0.2441406100988388,1.4953612089157104,93.33334350585938,151871.0,1.0
15:38:18.829193,162207.6875,184503.375,178906.859375,191590.484375,184368.015625,182933.484375,691137.5,195529.84375,0.061767578125,1.018310546875,-0.028076171875,-2.899169683456421,0.2136230319738388,1.4953612089157104,93.33334350585938,151872.0,1.0
15:38:18.829226,162111.046875,184489.25,178891.5625,191558.21875,184360.421875,182934.109375,691535.125,195527.796875,0.060546875,1.016357421875,-0.03173828125,-3.051757574081421,0.2136230319738388,1.5563963651657104,93.33334350585938,151873.0,1.0
15:38:18.836965,162020.375,184472.4375,178882.453125,191567.15625,184345.3125,182933.21875,690834.0,195529.3125,0.057861328125,1.017578125,-0.028076171875,-3.173827886581421,0.1525878757238388,1.5258787870407104,93.33334350585938,151874.0,1.0
15:38:18.836989,162101.203125,184489.515625,178900.78125,191579.40625,184356.921875,182936.515625,690524.1875,195534.671875,0.06005859375,1.0185546875,-0.02685546875,-3.326415777206421,0.0610351525247097,1.5869139432907104,93.33334350585938,151875.0,1.0
15:38:18.838553,162208.40625,184506.59375,178913.390625,191604.703125,184374.71875,182937.859375,691022.4375,195539.78125,0.061279296875,1.016357421875,-0.0263671875,-3.387450933456421,0.03051757626235485,1.4953612089157104,93.33334350585938,151876.0,1.0
15:38:18.841082,162139.828125,184504.984375,178903.015625,191569.75,184371.140625,182944.390625,691572.1875,195533.875,0.06201171875,1.0146484375,-0.02197265625,-3.479003667831421,0.03051757626235485,1.4953612089157104,93.33334350585938,151877.0,1.0
15:38:18.844723,162028.96875,184479.0625,178888.171875,191572.78125,184352.453125,182934.546875,690978.125,195531.90625,0.062255859375,1.01220703125,-0.02685546875,-3.601073980331421,0.03051757626235485,1.4953612089157104,93.33334350585938,151878.0,1.0
15:38:18.844754,162081.53125,184490.953125,178903.28125,191576.28125,184360.0625,182940.453125,690522.0625,195534.328125,0.06201171875,1.011474609375,-0.02783203125,-3.631591558456421,-0.0610351525247097,1.2512205839157104,93.33334350585938,151879.0,1.0
15:38:18.844760,162204.46875,184507.765625,178915.53125,191604.796875,184374.28125,182939.5625,690891.9375,195536.203125,0.062744140625,1.011474609375,-0.025390625,-3.601073980331421,0.0,1.0681151151657104,93.33334350585938,151880.0,1.0
15:38:18.849041,162157.796875,184506.59375,178902.296875,191555.890625,184367.5625,182939.5625,691547.625,195523.140625,0.064208984375,1.011474609375,-0.028564453125,-3.723144292831421,0.0610351525247097,0.9155272841453552,93.33334350585938,151881.0,1.0
15:38:18.849059,162041.484375,184484.953125,178887.375,191563.484375,184347.71875,182935.890625,691122.5,195524.484375,0.0634765625,1.01025390625,-0.029052734375,-3.723144292831421,0.1831054538488388,0.9155272841453552,93.33334350585938,151882.0,1.0
15:38:18.849066,162066.421875,184491.046875,178900.234375,191570.640625,184351.296875,182939.828125,690536.0,195532.53125,0.062255859375,1.010498046875,-0.027587890625,-3.936767339706421,0.2441406100988388,0.7324218153953552,93.33334350585938,151883.0,1.0
15:38:18.849072,162200.453125,184515.453125,178920.8125,191610.25,184370.515625,182945.546875,690764.25,195541.65625,0.06298828125,1.011474609375,-0.0283203125,-3.906249761581421,0.2746581733226776,0.6103515028953552,93.33334350585938,151884.0,1.0
15:38:18.851580,162187.75,184513.75,178912.40625,191576.1875,184369.625,182941.171875,691470.8125,195531.546875,0.0625,1.01171875,-0.026611328125,-3.875732183456421,0.2746581733226776,0.4577636420726776,93.33334350585938,151885.0,1.0
15:38:18.851603,162065.171875,184491.484375,178893.359375,191569.84375,184348.34375,182935.53125,691250.875,195527.703125,0.06103515625,1.011962890625,-0.0263671875,-3.845214605331421,0.2441406100988388,0.3967284858226776,93.33334350585938,151886.0,1.0
15:38:18.853533,162052.75,184494.703125,178896.9375,191568.671875,184343.421875,182943.046875,690564.4375,195528.15625,0.06005859375,1.011962890625,-0.026611328125,-3.967284917831421,0.2746581733226776,0.2746581733226776,93.33334350585938,151887.0,1.0
15:38:18.856093,162175.140625,184503.640625,178914.1875,191602.109375,184359.515625,182934.375,690683.625,195537.0,0.058349609375,1.011962890625,-0.024169921875,-3.936767339706421,0.3051757514476776,0.1831054538488388,93.33334350585938,151888.0,1.0
15:38:18.858579,162199.28125,184508.296875,178913.109375,191579.140625,184367.296875,182931.953125,691379.125,195524.84375,0.05859375,1.010986328125,-0.02294921875,-3.967284917831421,0.2746581733226776,0.0610351525247097,93.33334350585938,151889.0,1.0
15:38:18.861093,162086.453125,184498.546875,178900.15625,191569.5625,184354.6875,182936.4375,691383.1875,195523.859375,0.060302734375,1.010498046875,-0.02490234375,-3.845214605331421,0.2441406100988388,0.03051757626235485,93.33334350585938,151890.0,1.0
15:38:18.863544,162047.109375,184491.390625,178902.390625,191575.375,184349.515625,182939.109375,690641.25,195530.390625,0.0595703125,1.010986328125,-0.02490234375,-3.875732183456421,0.2136230319738388,0.1220703050494194,93.33334350585938,151891.0,1.0
15:38:18.874222,162166.46875,184513.21875,178924.65625,191602.5625,184368.375,182946.890625,690608.875,195537.625,0.059814453125,1.008544921875,-0.021728515625,-3.967284917831421,0.2136230319738388,0.03051757626235485,93.33334350585938,151892.0,1.0
15:38:18.874262,162225.125,184525.734375,178928.578125,191598.53125,184378.75,182947.78125,691263.375,195534.953125,0.0595703125,1.0087890625,-0.021484375,-3.845214605331421,0.1831054538488388,-0.1525878757238388,93.33334350585938,151893.0,1.0
15:38:18.876608,162119.53125,184509.8125,178913.296875,191577.265625,184368.015625,182947.703125,691490.3125,195535.578125,0.05859375,1.010498046875,-0.0224609375,-3.784179449081421,0.1831054538488388,-0.1831054538488388,93.33334350585938,151894.0,1.0
15:38:18.876636,162049.4375,184497.390625,178908.203125,191586.109375,184358.359375,182947.421875,690742.625,195543.53125,0.0576171875,1.01025390625,-0.021728515625,-3.753661870956421,0.1831054538488388,-0.1220703050494194,93.33334350585938,151895.0,1.0
15:38:18.888683,162142.328125,184510.171875,178920.8125,191595.40625,184367.75,182948.328125,690555.9375,195537.0,0.05810546875,1.0107421875,-0.021240234375,-3.753661870956421,0.1831054538488388,-0.2746581733226776,93.33334350585938,151896.0,1.0
15:38:18.893601,162221.1875,184517.765625,178921.78125,191595.5,184375.34375,182943.578125,691124.5625,195532.265625,0.059814453125,1.00927734375,-0.018310546875,-3.753661870956421,0.1831054538488388,-0.2441406100988388,93.33334350585938,151897.0,1.0
15:38:18.893636,162134.46875,184504.0,178907.484375,191570.28125,184364.265625,182937.953125,691544.0625,195534.5,0.059326171875,1.01025390625,-0.020263671875,-3.753661870956421,0.2746581733226776,-0.2136230319738388,93.33334350585938,151898.0,1.0
15:38:18.893648,162044.171875,184488.796875,178897.921875,191579.40625,184348.703125,182936.15625,690851.25,195534.140625,0.058837890625,1.008056640625,-0.0224609375,-3.570556402206421,0.1831054538488388,-0.3051757514476776,93.33334350585938,151899.0,1.0
15:38:18.898599,162114.4375,184500.421875,178914.90625,191584.765625,184359.515625,182939.296875,690518.3125,195533.515625,0.05859375,1.00927734375,-0.02197265625,-3.509521245956421,0.2441406100988388,-0.2441406100988388,93.33334350585938,151900.0,1.0
15:38:18.901050,162216.09375,184510.078125,178922.328125,191602.5625,184369.625,182934.375,690997.25,195532.09375,0.057861328125,1.011962890625,-0.02001953125,-3.540038824081421,0.1525878757238388,-0.2746581733226776,93.33334350585938,151901.0,1.0
15:38:18.907347,162146.796875,184501.140625,178900.953125,191553.296875,184353.0,182930.078125,691562.5,195514.5625,0.058349609375,1.010009765625,-0.01904296875,-3.479003667831421,0.0915527269244194,-0.3662109076976776,93.33334350585938,151902.0,1.0
15:38:18.917870,162041.296875,184480.84375,178887.546875,191569.296875,184332.96875,182926.953125,690998.375,195521.53125,0.057373046875,1.01025390625,-0.019775390625,-3.448486089706421,0.03051757626235485,-0.3662109076976776,93.33334350585938,151903.0,1.0
15:38:18.917892,162080.015625,184485.140625,178895.0625,191568.40625,184334.21875,182925.609375,690515.25,195519.296875,0.05712890625,1.009765625,-0.0205078125,-3.326415777206421,0.0610351525247097,-0.2746581733226776,93.33334350585938,151904.0,1.0
15:38:18.919765,162201.796875,184502.484375,178908.5625,191593.0,184351.46875,182926.328125,690871.625,195518.671875,0.057861328125,1.01171875,-0.02001953125,-3.326415777206421,0.03051757626235485,-0.2441406100988388,93.33334350585938,151905.0,1.0
15:38:18.922297,162166.734375,184503.28125,178903.28125,191556.34375,184354.15625,182929.90625,691532.9375,195517.25,0.056884765625,1.011962890625,-0.017578125,-3.234863042831421,0.03051757626235485,-0.2441406100988388,93.33334350585938,151906.0,1.0
15:38:18.932869,162055.4375,184488.453125,178895.328125,191573.765625,184343.875,182931.953125,691139.5,195532.53125,0.056884765625,1.01025390625,-0.016357421875,-3.173827886581421,-0.0610351525247097,-0.2441406100988388,93.33334350585938,151907.0,1.0
15:38:18.932894,162071.609375,184498.375,178906.328125,191571.984375,184348.703125,182941.34375,690539.5625,195529.140625,0.05712890625,1.00927734375,-0.015380859375,-3.082275152206421,-0.0610351525247097,-0.3051757514476776,93.33334350585938,151908.0,1.0
15:38:18.937916,162203.84375,184516.875,178926.703125,191613.46875,184369.171875,182942.328125,690754.25,195544.515625,0.055908203125,1.00732421875,-0.01806640625,-2.929687261581421,-0.0610351525247097,-0.3051757514476776,93.33334350585938,151909.0,1.0
15:38:18.937933,162199.546875,184518.125,178921.609375,191581.109375,184372.390625,182940.0,691467.0625,195538.53125,0.057373046875,1.007568359375,-0.016845703125,-2.868652105331421,-0.1831054538488388,-0.3662109076976776,93.33334350585938,151910.0,1.0
15:38:18.939734,162078.046875,184497.390625,178905.15625,191581.1875,184357.734375,182938.9375,691281.625,195543.265625,0.056884765625,1.008056640625,-0.019287109375,-2.746581792831421,-0.1831054538488388,-0.3356933295726776,93.33334350585938,151911.0,1.0
15:38:18.949785,162053.46875,184490.6875,178902.203125,191569.125,184348.96875,182937.765625,690582.125,195529.578125,0.056396484375,1.00830078125,-0.01953125,-2.655029058456421,-0.2746581733226776,-0.3051757514476776,93.33334350585938,151912.0,1.0
15:38:18.954253,162173.890625,184506.0625,178916.609375,191594.25,184361.578125,182936.34375,690680.9375,195531.109375,0.05615234375,1.008056640625,-0.020751953125,-2.563476324081421,-0.2136230319738388,-0.2441406100988388,93.33334350585938,151913.0,1.0
15:38:18.954280,162202.859375,184516.34375,178916.6875,191576.0,184369.359375,182939.46875,691371.3125,195529.40625,0.056396484375,1.007080078125,-0.017578125,-2.410888433456421,-0.2441406100988388,-0.2136230319738388,93.33334350585938,151914.0,1.0
15:38:18.963576,162087.609375,184500.15625,178899.4375,191561.96875,184353.703125,182939.65625,691407.6875,195530.203125,0.05517578125,1.0087890625,-0.02001953125,-2.319335699081421,-0.2746581733226776,-0.1220703050494194,93.33334350585938,151915.0,1.0
15:38:18.967868,162038.890625,184489.25,178897.203125,191565.015625,184346.640625,182940.09375,690656.4375,195528.875,0.0546875,1.008056640625,-0.0185546875,-2.227782964706421,-0.3356933295726776,-0.1525878757238388,93.33334350585938,151916.0,1.0
15:38:18.967904,162154.21875,184510.171875,178920.71875,191595.3125,184367.125,182944.65625,690587.5,195538.25,0.056396484375,1.007568359375,-0.019287109375,-2.166747808456421,-0.3662109076976776,-0.1525878757238388,93.33334350585938,151917.0,1.0
15:38:18.967917,162217.34375,184523.765625,178925.28125,191592.90625,184377.578125,182946.0,691229.3125,195537.453125,0.055419921875,1.008056640625,-0.01953125,-2.075195074081421,-0.4272460639476776,-0.03051757626235485,93.33334350585938,151918.0,1.0
15:38:18.974825,162120.15625,184514.90625,178913.65625,191571.09375,184369.09375,182949.9375,691500.5,195538.875,0.05712890625,1.007080078125,-0.017822265625,-1.8310545682907104,-0.3967284858226776,0.0610351525247097,93.33334350585938,151919.0,1.0
15:38:18.978566,162044.875,184499.265625,178906.765625,191580.46875,184358.359375,182947.609375,690760.25,195542.71875,0.055419921875,1.0048828125,-0.018798828125,-1.7700194120407104,-0.4882812201976776,-0.03051757626235485,93.33334350585938,151920.0,1.0
15:38:18.989404,162134.5625,184510.171875,178921.25,191590.046875,184370.421875,182948.40625,690554.875,195543.4375,0.054931640625,1.006591796875,-0.01806640625,-1.7089842557907104,-0.4882812201976776,-0.0610351525247097,93.33334350585938,151921.0,1.0
15:38:18.989428,162218.78125,184520.0,178922.765625,191598.625,184376.6875,182943.40625,691117.25,195540.484375,0.055908203125,1.007568359375,-0.02001953125,-1.4648436307907104,-0.5493163466453552,0.0915527269244194,93.33334350585938,151922.0,1.0
15:38:18.991615,162128.296875,184505.25,178902.203125,191557.3125,184359.25,182937.234375,691562.625,195530.03125,0.05615234375,1.00830078125,-0.0205078125,-1.5258787870407104,-0.5187987685203552,0.0610351525247097,93.33334350585938,151923.0,1.0
15:38:18.991639,162031.109375,184486.390625,178890.9375,191566.796875,184345.3125,182935.09375,690887.0625,195533.421875,0.054931640625,1.010009765625,-0.018798828125,-1.4648436307907104,-0.5493163466453552,0.0,93.33334350585938,151924.0,1.0
15:38:19.001045,162093.609375,184494.078125,178899.796875,191564.65625,184349.15625,182934.734375,690525.6875,195519.921875,0.0576171875,1.00927734375,-0.020263671875,-1.3427733182907104,-0.5798339247703552,0.0915527269244194,93.33334350585938,151925.0,1.0
15:38:19.003556,162207.875,184511.0625,178913.46875,191593.171875,184361.046875,182932.765625,690972.625,195522.25,0.056640625,1.0107421875,-0.018310546875,-1.2817381620407104,-0.6103515028953552,0.3356933295726776,93.33334350585938,151926.0,1.0
15:38:19.006104,162152.34375,184509.015625,178907.21875,191560.1875,184359.078125,182933.65625,691561.9375,195520.1875,0.054931640625,1.009765625,-0.01904296875,-1.3122557401657104,-0.6103515028953552,0.3356933295726776,93.33334350585938,151927.0,1.0
15:38:19.016071,162042.90625,184487.640625,178896.578125,191572.15625,184346.734375,182931.6875,691019.25,195528.15625,0.056884765625,1.010498046875,-0.019287109375,-1.0986326932907104,-0.7019042372703552,0.3356933295726776,93.33334350585938,151928.0,1.0
15:38:19.019119,162078.40625,184493.359375,178905.609375,191568.046875,184351.46875,182934.203125,690518.625,195526.0,0.0576171875,1.01220703125,-0.021484375,-1.1596678495407104,-0.6103515028953552,0.3967284858226776,93.33334350585938,151929.0,1.0
15:38:19.019154,162206.96875,184514.015625,178922.234375,191605.78125,184367.65625,182935.625,690842.0,195533.421875,0.05615234375,1.013671875,-0.021240234375,-1.1901854276657104,-0.5187987685203552,0.4272460639476776,93.33334350585938,151930.0,1.0
15:38:19.021000,162177.828125,184516.34375,178912.21875,191565.640625,184364.34375,182937.234375,691526.25,195524.671875,0.05517578125,1.01220703125,-0.0205078125,-1.1901854276657104,-0.4882812201976776,0.4577636420726776,93.33334350585938,151931.0,1.0
15:38:19.032334,162055.4375,184489.078125,178892.46875,191567.78125,184341.109375,182929.640625,691152.0,195521.53125,0.05517578125,1.01220703125,-0.021484375,-1.1291502714157104,-0.5187987685203552,0.3967284858226776,93.33334350585938,151932.0,1.0
15:38:19.036605,162061.234375,184489.78125,178900.59375,191568.40625,184346.375,182932.859375,690530.1875,195531.109375,0.05615234375,1.010986328125,-0.0205078125,-1.1596678495407104,-0.6103515028953552,0.4577636420726776,93.33334350585938,151933.0,1.0
15:38:19.036612,162193.5625,184512.140625,178921.96875,191608.109375,184369.171875,182937.5,690725.875,195542.28125,0.05712890625,1.011474609375,-0.016845703125,-1.1596678495407104,-0.7019042372703552,0.4272460639476776,93.33334350585938,151934.0,1.0
15:38:19.036614,162198.390625,184520.640625,178919.46875,191579.140625,184374.1875,182942.15625,691436.25,195534.765625,0.0576171875,1.012939453125,-0.017333984375,-1.1291502714157104,-0.6408690810203552,0.4882812201976776,93.33334350585938,151935.0,1.0
15:38:19.043586,162077.328125,184500.78125,178903.546875,191571.453125,184360.234375,182942.953125,691286.5625,195531.109375,0.0595703125,1.01318359375,-0.021240234375,-1.2512205839157104,-0.6408690810203552,0.4272460639476776,93.33334350585938,151936.0,1.0
15:38:19.047326,162052.75,184495.6875,178904.359375,191570.1875,184356.390625,182945.109375,690583.4375,195533.15625,0.057861328125,1.01416015625,-0.0244140625,-1.2512205839157104,-0.6408690810203552,0.3356933295726776,93.33334350585938,151937.0,1.0
15:38:19.054854,162173.625,184509.640625,178919.46875,191601.21875,184368.734375,182943.140625,690649.875,195540.140625,0.05712890625,1.013427734375,-0.021728515625,-1.3427733182907104,-0.5187987685203552,0.4577636420726776,93.33334350585938,151938.0,1.0
15:38:19.059393,162211.0,184522.328125,178923.125,191588.96875,184377.140625,182946.265625,691337.1875,195541.390625,0.05615234375,1.0126953125,-0.021240234375,-1.3122557401657104,-0.5493163466453552,0.3662109076976776,93.33334350585938,151939.0,1.0
15:38:19.059480,162097.8125,184505.703125,178907.65625,191573.0625,184364.703125,182945.734375,691410.0,195539.15625,0.05712890625,1.01171875,-0.0185546875,-1.2817381620407104,-0.5493163466453552,0.3662109076976776,93.33334350585938,151940.0,1.0
15:38:19.066627,162049.078125,184498.1875,178908.828125,191586.734375,184361.484375,182950.015625,690670.4375,195552.296875,0.058349609375,1.013671875,-0.020263671875,-1.3427733182907104,-0.6713866591453552,0.3967284858226776,93.33334350585938,151941.0,1.0
15:38:19.066689,162156.015625,184515.453125,178925.359375,191598.71875,184373.734375,182952.703125,690590.0625,195546.21875,0.0595703125,1.012451171875,-0.018310546875,-1.3427733182907104,-0.6408690810203552,0.3662109076976776,93.33334350585938,151942.0,1.0
15:38:19.072328,162220.828125,184527.875,178928.9375,191595.234375,184382.671875,182951.09375,691224.9375,195542.375,0.05859375,1.01318359375,-0.02197265625,-1.3427733182907104,-0.6103515028953552,0.4272460639476776,93.33334350585938,151943.0,1.0
15:38:19.076682,162117.296875,184511.0625,178908.734375,191567.78125,184362.921875,182943.5,691510.8125,195537.0,0.056396484375,1.013427734375,-0.023681640625,-1.3732908964157104,-0.5798339247703552,0.4882812201976776,93.33334350585938,151944.0,1.0
15:38:19.076734,162031.921875,184486.484375,178890.765625,191569.921875,184337.4375,182931.6875,690762.0,195530.03125,0.05712890625,1.0126953125,-0.02490234375,-1.3732908964157104,-0.5798339247703552,0.4272460639476776,93.33334350585938,151945.0,1.0
15:38:19.086110,162117.296875,184495.953125,178904.171875,191584.40625,184346.46875,182931.328125,690534.3125,195533.15625,0.05810546875,1.011962890625,-0.026611328125,-1.4648436307907104,-0.5798339247703552,0.3662109076976776,93.33334350585938,151946.0,1.0
15:38:19.089185,162200.71875,184503.203125,178904.4375,191581.453125,184354.515625,182926.0625,691078.6875,195521.265625,0.058349609375,1.011474609375,-0.026611328125,-1.4648436307907104,-0.5493163466453552,0.3662109076976776,93.33334350585938,151947.0,1.0
15:38:19.089218,162113.90625,184488.0,178884.859375,191536.9375,184340.125,182921.234375,691545.375,195504.546875,0.058349609375,1.01318359375,-0.024169921875,-1.4038084745407104,-0.4882812201976776,0.3356933295726776,93.33334350585938,151948.0,1.0
15:38:19.091029,162016.09375,184468.859375,178873.59375,191546.765625,184322.234375,182918.015625,690878.625,195504.546875,0.0576171875,1.014892578125,-0.021728515625,-1.4038084745407104,-0.4882812201976776,0.2746581733226776,93.33334350585938,151949.0,1.0
15:38:19.102370,162081.359375,184482.1875,178890.234375,191553.921875,184332.96875,182923.203125,690494.3125,195509.28125,0.058349609375,1.014404296875,-0.025634765625,-1.4038084745407104,-0.5798339247703552,0.2136230319738388,93.33334350585938,151950.0,1.0
15:38:19.105425,162202.140625,184504.546875,178909.453125,191591.65625,184352.015625,182927.484375,690927.6875,195521.265625,0.058349609375,1.01318359375,-0.02099609375,-1.4648436307907104,-0.5493163466453552,0.3356933295726776,93.33334350585938,151951.0,1.0
15:38:19.105462,162146.09375,184499.0,178894.515625,191549.1875,184342.71875,182925.609375,691535.5,195511.34375,0.059814453125,1.0126953125,-0.020263671875,-1.4038084745407104,-0.4577636420726776,0.1525878757238388,93.33334350585938,151952.0,1.0
15:38:19.107331,162037.734375,184480.046875,178884.6875,191568.578125,184328.046875,182923.203125,691018.25,195524.046875,0.058349609375,1.01220703125,-0.01904296875,-1.4038084745407104,-0.5187987685203552,0.0610351525247097,93.33334350585938,151953.0,1.0
15:38:19.116032,162072.59375,184487.546875,178895.328125,191566.34375,184333.0625,182926.5,690503.625,195522.609375,0.056884765625,1.0107421875,-0.022705078125,-1.5258787870407104,-0.4882812201976776,0.03051757626235485,93.33334350585938,151954.0,1.0
15:38:19.120397,162193.921875,184501.953125,178907.03125,191591.5625,184346.734375,182924.09375,690821.1875,195524.390625,0.05615234375,1.011962890625,-0.0224609375,-1.4343260526657104,-0.3356933295726776,0.0915527269244194,93.33334350585938,151955.0,1.0
15:38:19.120431,162165.21875,184502.296875,178897.375,191551.6875,184346.375,182925.171875,691495.3125,195510.984375,0.05615234375,1.01220703125,-0.025146484375,-1.5258787870407104,-0.3967284858226776,0.0915527269244194,93.33334350585938,151956.0,1.0
15:38:19.129987,162044.875,184481.03125,178881.828125,191556.609375,184330.28125,182923.375,691163.25,195515.09375,0.057373046875,1.013427734375,-0.0244140625,-1.5869139432907104,-0.5493163466453552,0.03051757626235485,93.33334350585938,151957.0,1.0
15:38:19.132997,162051.3125,184486.03125,178892.828125,191564.828125,184334.9375,182931.421875,690533.125,195526.984375,0.054443359375,1.014892578125,-0.021484375,-1.5563963651657104,-0.5798339247703552,0.0915527269244194,93.33334350585938,151958.0,1.0
15:38:19.133070,162181.9375,184505.515625,178912.765625,191599.96875,184353.890625,182934.203125,690714.6875,195532.796875,0.0546875,1.0126953125,-0.021484375,-1.5258787870407104,-0.5187987685203552,0.0610351525247097,93.33334350585938,151959.0,1.0
15:38:19.134883,162188.109375,184509.71875,178906.40625,191565.90625,184356.65625,182933.484375,691414.4375,195519.75,0.055908203125,1.012451171875,-0.022216796875,-1.4953612089157104,-0.5187987685203552,0.0915527269244194,93.33334350585938,151960.0,1.0
15:38:19.146134,162064.1875,184483.625,178886.5625,191562.328125,184338.515625,182926.59375,691295.4375,195523.234375,0.056640625,1.011474609375,-0.0234375,-1.6174315214157104,-0.4882812201976776,0.03051757626235485,93.33334350585938,151961.0,1.0
15:38:19.152872,162035.21875,184479.140625,178886.65625,191561.171875,184333.0625,182928.109375,690584.0,195523.59375,0.05615234375,1.011962890625,-0.0234375,-1.5869139432907104,-0.5187987685203552,0.0915527269244194,93.33334350585938,151962.0,1.0
15:38:19.152905,162161.375,184500.78125,178908.203125,191592.546875,184353.078125,182933.21875,690636.1875,195530.65625,0.056884765625,1.011962890625,-0.0234375,-1.6479490995407104,-0.5798339247703552,0.03051757626235485,93.33334350585938,151963.0,1.0
15:38:19.154782,162204.828125,184515.984375,178912.765625,191578.59375,184364.890625,182938.125,691320.5625,195530.203125,0.05712890625,1.011474609375,-0.0244140625,-1.5563963651657104,-0.4882812201976776,0.0915527269244194,93.33334350585938,151964.0,1.0
15:38:19.179805,162098.25,184504.1875,178901.21875,191570.46875,184353.984375,182939.734375,691430.9375,195534.671875,0.055419921875,1.011962890625,-0.0244140625,-1.6174315214157104,-0.5493163466453552,0.1220703050494194,93.33334350585938,151965.0,1.0
15:38:19.201730,162037.015625,184489.15625,178893.359375,191568.671875,184340.203125,182935.171875,690675.4375,195529.3125,0.0537109375,1.012451171875,-0.02392578125,-1.7089842557907104,-0.6103515028953552,0.1831054538488388,93.33334350585938,151966.0,1.0
15:38:19.201800,162141.796875,184505.96875,178912.84375,191584.859375,184356.75,182939.109375,690569.5,195533.703125,0.056396484375,1.0126953125,-0.026123046875,-1.7700194120407104,-0.6103515028953552,0.1220703050494194,93.33334350585938,151967.0,1.0
15:38:19.203674,162207.328125,184514.015625,178912.40625,191580.65625,184361.75,182934.375,691180.0,195525.734375,0.05419921875,1.01220703125,-0.0263671875,-1.8005369901657104,-0.6713866591453552,-0.03051757626235485,93.33334350585938,151968.0,1.0
15:38:19.206023,162107.46875,184500.515625,178892.734375,191550.078125,184342.53125,182931.25,691506.6875,195516.96875,0.054931640625,1.01416015625,-0.02783203125,-1.8310545682907104,-0.6103515028953552,-0.0610351525247097,93.33334350585938,151969.0,1.0
15:38:19.208659,162026.109375,184483.796875,178883.34375,191558.390625,184327.328125,182928.734375,690785.4375,195520.109375,0.056396484375,1.0126953125,-0.027099609375,-1.8920897245407104,-0.5493163466453552,-0.2136230319738388,93.33334350585938,151970.0,1.0
15:38:19.211080,162110.234375,184495.59375,178897.828125,191568.578125,184336.09375,182931.25,690534.3125,195519.03125,0.053466796875,1.0146484375,-0.024169921875,-1.8615721464157104,-0.5187987685203552,-0.1525878757238388,93.33334350585938,151971.0,1.0
15:38:19.213651,162212.96875,184516.875,178912.484375,191590.578125,184355.40625,182938.125,691068.4375,195528.0625,0.05322265625,1.01611328125,-0.024169921875,-1.9226073026657104,-0.6408690810203552,-0.1525878757238388,93.33334350585938,151972.0,1.0
15:38:19.216076,162142.515625,184515.09375,178904.984375,191562.78125,184354.0625,182944.5625,691561.5,195532.71875,0.05322265625,1.014404296875,-0.023681640625,-1.9226073026657104,-0.7019042372703552,-0.2136230319738388,93.33334350585938,151973.0,1.0
15:38:19.218649,162035.578125,184487.828125,178884.953125,191567.875,184329.84375,182933.125,690910.9375,195528.328125,0.052978515625,1.013671875,-0.024658203125,-2.014159917831421,-0.7019042372703552,-0.3051757514476776,93.33334350585938,151974.0,1.0
15:38:19.221253,162086.640625,184491.75,178891.390625,191556.0625,184330.015625,182929.640625,690497.625,195516.796875,0.052734375,1.01416015625,-0.021240234375,-1.9836424589157104,-0.8239745497703552,-0.2441406100988388,93.33334350585938,151975.0,1.0
15:38:19.223798,162201.609375,184508.828125,178906.859375,191582.71875,184348.609375,182929.640625,690902.0,195520.828125,0.052001953125,1.016845703125,-0.020263671875,-2.044677495956421,-0.8239745497703552,-0.2746581733226776,93.33334350585938,151976.0,1.0
15:38:19.226118,162157.796875,184515.453125,178903.546875,191549.546875,184351.921875,182938.21875,691528.6875,195518.859375,0.05224609375,1.01513671875,-0.02294921875,-2.197265386581421,-0.8850097060203552,-0.2136230319738388,93.33334350585938,151977.0,1.0
15:38:19.231139,162049.171875,184496.84375,178892.46875,191568.140625,184337.078125,182936.78125,691039.8125,195528.234375,0.0537109375,1.01220703125,-0.02001953125,-2.166747808456421,-0.9765624403953552,-0.1220703050494194,93.33334350585938,151978.0,1.0
15:38:19.233582,162075.09375,184499.53125,178900.59375,191560.625,184341.015625,182938.3125,690499.0,195523.5,0.052978515625,1.01123046875,-0.0224609375,-2.166747808456421,-1.0375975370407104,-0.1525878757238388,93.33334350585938,151979.0,1.0
15:38:19.236619,162199.546875,184515.171875,178913.109375,191590.84375,184355.3125,182935.265625,690792.9375,195525.375,0.0517578125,1.010498046875,-0.023681640625,-2.166747808456421,-1.0681151151657104,-0.2136230319738388,93.33334350585938,151980.0,1.0
15:38:19.236630,162184.53125,184522.515625,178908.828125,191556.609375,184357.828125,182941.078125,691489.3125,195523.6875,0.051513671875,1.010498046875,-0.02490234375,-2.227782964706421,-1.1291502714157104,-0.3356933295726776,93.33334350585938,151981.0,1.0
15:38:19.238864,162061.328125,184498.90625,178892.375,191555.625,184340.125,182938.046875,691189.1875,195524.484375,0.052490234375,1.009521484375,-0.024658203125,-2.166747808456421,-1.1291502714157104,-0.2746581733226776,93.33334350585938,151982.0,1.0
15:38:19.246825,162056.859375,184498.375,178899.171875,191555.078125,184342.890625,182942.15625,690540.75,195526.71875,0.0537109375,1.010986328125,-0.0244140625,-2.227782964706421,-1.2512205839157104,-0.1220703050494194,93.33334350585938,151983.0,1.0
15:38:19.246906,162180.875,184513.75,178914.1875,191584.234375,184358.8125,182942.875,690695.5,195531.1875,0.053466796875,1.01171875,-0.0244140625,-2.166747808456421,-1.1596678495407104,-0.3051757514476776,93.33334350585938,151984.0,1.0
15:38:19.246933,162185.703125,184514.203125,178900.875,191548.921875,184351.65625,182936.34375,691391.0,195516.34375,0.0537109375,1.00927734375,-0.0234375,-2.136230230331421,-1.1901854276657104,-0.3051757514476776,93.33334350585938,151985.0,1.0
15:38:19.246956,162073.9375,184500.25,178889.328125,191552.578125,184339.046875,182938.671875,691312.125,195523.328125,0.052001953125,1.010009765625,-0.022705078125,-2.075195074081421,-1.2207030057907104,-0.3051757514476776,93.33334350585938,151986.0,1.0
15:38:19.249222,162041.484375,184494.890625,178888.265625,191549.28125,184331.890625,182939.46875,690589.625,195519.125,0.05224609375,1.009521484375,-0.023193359375,-2.075195074081421,-1.1901854276657104,-0.1220703050494194,93.33334350585938,151987.0,1.0
15:38:19.249298,162164.234375,184513.921875,178910.171875,191578.6875,184352.546875,182944.484375,690604.8125,195528.328125,0.052734375,1.01123046875,-0.023681640625,-2.166747808456421,-1.3427733182907104,-0.1525878757238388,93.33334350585938,151988.0,1.0
15:38:19.254060,162210.8125,184525.109375,178915.703125,191573.5,184365.25,182947.15625,691277.875,195533.78125,0.05224609375,1.011474609375,-0.023681640625,-2.075195074081421,-1.2817381620407104,-0.0915527269244194,93.33334350585938,151989.0,1.0
15:38:19.259829,162099.859375,184510.078125,178900.78125,191551.234375,184354.15625,182946.890625,691424.1875,195527.34375,0.052490234375,1.01171875,-0.023193359375,-2.105712652206421,-1.2512205839157104,-0.1525878757238388,93.33334350585938,151990.0,1.0
15:38:19.269207,162037.546875,184497.5625,178894.96875,191553.828125,184342.171875,182944.828125,690671.6875,195526.71875,0.052001953125,1.011474609375,-0.02099609375,-2.105712652206421,-1.2817381620407104,-0.2441406100988388,93.33334350585938,151991.0,1.0
15:38:19.269238,162149.484375,184520.90625,178917.765625,191578.421875,184359.25,182954.21875,690549.6875,195534.234375,0.0517578125,1.012939453125,-0.021240234375,-2.136230230331421,-1.3732908964157104,-0.2441406100988388,93.33334350585938,151992.0,1.0
15:38:19.271769,162241.03125,184550.140625,178938.59375,191598.453125,184382.953125,182968.890625,691167.5,195546.296875,0.052734375,1.013427734375,-0.01953125,-2.044677495956421,-1.3427733182907104,-0.1525878757238388,93.33334350585938,151993.0,1.0
15:38:19.271823,162134.640625,184529.578125,178915.265625,191559.28125,184364.703125,182960.921875,691509.4375,195536.109375,0.052734375,1.0146484375,-0.0205078125,-2.044677495956421,-1.3732908964157104,-0.2136230319738388,93.33334350585938,151994.0,1.0
15:38:19.278707,162039.96875,184504.546875,178898.8125,191557.234375,184345.578125,182951.09375,690792.875,195529.40625,0.05078125,1.01220703125,-0.01953125,-2.044677495956421,-1.3122557401657104,-0.1525878757238388,93.33334350585938,151995.0,1.0
15:38:19.289476,162117.921875,184512.9375,178909.8125,191568.3125,184352.1875,182947.703125,690503.8125,195529.84375,0.05126953125,1.011474609375,-0.017578125,-2.136230230331421,-1.2817381620407104,-0.1831054538488388,93.33334350585938,151996.0,1.0
15:38:19.289567,162215.015625,184527.15625,178914.8125,191580.203125,184359.875,182944.828125,691014.6875,195524.390625,0.05224609375,1.013916015625,-0.0185546875,-2.166747808456421,-1.2817381620407104,-0.2746581733226776,93.33334350585938,151997.0,1.0
15:38:19.292043,162138.578125,184516.25,178898.09375,191538.984375,184347.984375,182940.90625,691530.125,195515.453125,0.051513671875,1.0126953125,-0.017822265625,-2.136230230331421,-1.4343260526657104,-0.2746581733226776,93.33334350585938,151998.0,1.0
15:38:19.292098,162029.6875,184490.859375,178882.0,191545.421875,184330.28125,182934.546875,690918.5625,195515.453125,0.0517578125,1.0126953125,-0.017822265625,-2.105712652206421,-1.4648436307907104,-0.1831054538488388,93.33334350585938,151999.0,1.0
15:38:19.298717,162079.921875,184500.15625,178896.21875,191543.28125,184342.71875,182940.1875,690495.125,195515.71875,0.052734375,1.01318359375,-0.017333984375,-2.105712652206421,-1.3732908964157104,-0.3662109076976776,93.33334350585938,152000.0,1.0
15:38:19.309332,162195.359375,184513.484375,178908.203125,191569.921875,184358.1875,182937.234375,690898.8125,195518.40625,0.051513671875,1.012451171875,-0.017333984375,-2.044677495956421,-1.3427733182907104,-0.3356933295726776,93.33334350585938,152001.0,1.0
15:38:19.309389,162147.515625,184507.9375,178895.859375,191530.5,184352.015625,182934.90625,691512.125,195511.25,0.051513671875,1.01123046875,-0.017822265625,-2.075195074081421,-1.4343260526657104,-0.3051757514476776,93.33334350585938,152002.0,1.0
15:38:19.312468,162037.1875,184488.453125,178882.1875,191545.875,184334.046875,182931.875,691044.6875,195516.796875,0.05322265625,1.01220703125,-0.01806640625,-2.044677495956421,-1.4038084745407104,-0.2441406100988388,93.33334350585938,152003.0,1.0
15:38:19.312497,162058.109375,184491.125,178888.34375,191540.6875,184333.765625,182932.3125,690485.75,195514.390625,0.053466796875,1.011962890625,-0.018310546875,-2.044677495956421,-1.3427733182907104,-0.1831054538488388,93.33334350585938,152004.0,1.0
15:38:19.318671,162184.984375,184511.78125,178905.96875,191574.75,184352.28125,182935.265625,690777.5,195524.75,0.052978515625,1.01318359375,-0.0224609375,-2.105712652206421,-1.3122557401657104,-0.2136230319738388,93.33334350585938,152005.0,1.0
15:38:19.324903,162168.984375,184517.0625,178897.46875,191538.640625,184349.59375,182938.3125,691459.0,195511.796875,0.052734375,1.01171875,-0.01708984375,-2.105712652206421,-1.3122557401657104,-0.2746581733226776,93.33334350585938,152006.0,1.0
15:38:19.333057,162055.515625,184499.0,178884.859375,191547.671875,184334.3125,182939.03125,691190.0625,195516.625,0.05126953125,1.01025390625,-0.020751953125,-2.075195074081421,-1.3122557401657104,-0.2136230319738388,93.33334350585938,152007.0,1.0
15:38:19.333085,162056.328125,184506.328125,178897.46875,191554.28125,184341.46875,182949.75,690535.5625,195526.71875,0.05078125,1.0107421875,-0.01806640625,-2.136230230331421,-1.3122557401657104,-0.2441406100988388,93.33334350585938,152008.0,1.0
15:38:19.335465,162194.8125,184537.171875,178928.9375,191597.734375,184373.203125,182965.40625,690688.0,195543.4375,0.051025390625,1.010986328125,-0.01513671875,-2.014159917831421,-1.3427733182907104,-0.1525878757238388,93.33334350585938,152009.0,1.0
15:38:19.335488,162201.609375,184536.90625,178919.015625,191563.484375,184373.203125,182960.65625,691382.3125,195529.84375,0.0517578125,1.011962890625,-0.016845703125,-1.9531248807907104,-1.2512205839157104,-0.1525878757238388,93.33334350585938,152010.0,1.0
15:38:19.342379,162081.359375,184513.75,178898.28125,191555.078125,184351.828125,182953.78125,691335.0,195526.8125,0.05126953125,1.011474609375,-0.016845703125,-1.8920897245407104,-1.1901854276657104,-0.03051757626235485,93.33334350585938,152011.0,1.0
15:38:19.349844,162038.265625,184502.296875,178890.5,191544.453125,184338.78125,182950.015625,690607.3125,195516.34375,0.052490234375,1.0107421875,-0.0185546875,-1.8920897245407104,-1.1901854276657104,0.03051757626235485,93.33334350585938,152012.0,1.0
15:38:19.359141,162158.609375,184522.6875,178912.84375,191573.59375,184360.6875,182955.65625,690601.6875,195524.671875,0.05224609375,1.009765625,-0.01904296875,-1.9836424589157104,-1.2207030057907104,0.03051757626235485,93.33334350585938,152013.0,1.0
15:38:19.359171,162204.296875,184530.734375,178912.140625,191561.515625,184368.1875,182952.53125,691261.875,195519.75,0.051025390625,1.01171875,-0.01708984375,-1.8920897245407104,-1.1901854276657104,0.03051757626235485,93.33334350585938,152014.0,1.0
15:38:19.361668,162092.71875,184513.21875,178892.546875,191538.359375,184348.171875,182947.515625,691435.4375,195514.65625,0.050048828125,1.011474609375,-0.01904296875,-1.8310545682907104,-1.2512205839157104,-0.0915527269244194,93.33334350585938,152015.0,1.0
15:38:19.361688,162031.109375,184500.875,178888.4375,191552.765625,184337.34375,182945.546875,690689.875,195523.765625,0.04833984375,1.0107421875,-0.015869140625,-1.9226073026657104,-1.2512205839157104,-0.1220703050494194,93.33334350585938,152016.0,1.0
15:38:19.363730,162128.125,184510.171875,178901.3125,191566.34375,184345.125,182942.78125,690538.3125,195523.40625,0.050048828125,1.009765625,-0.014404296875,-1.9226073026657104,-1.1901854276657104,-0.0610351525247097,93.33334350585938,152017.0,1.0
15:38:19.394895,162203.3125,184516.34375,178899.53125,191564.296875,184347.90625,182934.109375,691125.4375,195515.28125,0.05078125,1.010009765625,-0.017333984375,-1.9531248807907104,-1.2207030057907104,0.1220703050494194,93.33334350585938,152018.0,1.0
15:38:19.397920,162112.109375,184504.984375,178885.671875,191537.03125,184336.984375,182932.234375,691498.4375,195511.703125,0.05224609375,1.0107421875,-0.017333984375,-1.8920897245407104,-1.2512205839157104,0.1831054538488388,93.33334350585938,152019.0,1.0
15:38:19.397947,162026.015625,184488.09375,178879.046875,191552.046875,184324.203125,182929.71875,690795.875,195518.9375,0.054443359375,1.01123046875,-0.01806640625,-1.8005369901657104,-1.1596678495407104,0.2136230319738388,93.33334350585938,152020.0,1.0
15:38:19.399773,162105.9375,184504.0,178899.34375,191565.71875,184339.5,182934.546875,690498.5,195527.609375,0.052734375,1.010986328125,-0.0185546875,-1.7700194120407104,-1.0986326932907104,0.2746581733226776,93.33334350585938,152021.0,1.0
15:38:19.402389,162219.046875,184528.953125,178920.71875,191595.046875,184365.78125,182941.34375,691011.25,195541.921875,0.051513671875,1.008056640625,-0.017333984375,-1.8005369901657104,-1.1901854276657104,0.3051757514476776,93.33334350585938,152022.0,1.0
15:38:19.404844,162148.140625,184521.171875,178907.65625,191554.09375,184358.359375,182939.03125,691527.4375,195536.28125,0.05029296875,1.009033203125,-0.019287109375,-1.8920897245407104,-1.0681151151657104,0.3356933295726776,93.33334350585938,152023.0,1.0
15:38:19.407411,162040.671875,184499.4375,178892.28125,191559.015625,184338.25,182934.375,690936.1875,195526.71875,0.05029296875,1.005859375,-0.018310546875,-1.7700194120407104,-1.0681151151657104,0.3967284858226776,93.33334350585938,152024.0,1.0
15:38:19.409992,162091.734375,184511.0625,178904.796875,191559.015625,184344.328125,182940.984375,690487.625,195525.375,0.05029296875,1.00830078125,-0.018798828125,-1.7395018339157104,-1.0375975370407104,0.3967284858226776,93.33334350585938,152025.0,1.0
15:38:19.412315,162210.109375,184527.609375,178917.234375,191591.65625,184359.703125,182941.078125,690860.6875,195532.71875,0.05029296875,1.01025390625,-0.016357421875,-1.6479490995407104,-0.9155272841453552,0.4272460639476776,93.33334350585938,152026.0,1.0
15:38:19.414794,162163.796875,184520.09375,178904.09375,191553.203125,184355.5,182938.125,691506.875,195526.71875,0.05126953125,1.0107421875,-0.01708984375,-1.5869139432907104,-0.8544921278953552,0.3356933295726776,93.33334350585938,152027.0,1.0
15:38:19.417944,162047.390625,184495.234375,178888.984375,191566.703125,184338.25,182934.109375,691075.5625,195534.765625,0.052001953125,1.013427734375,-0.019287109375,-1.5258787870407104,-0.9155272841453552,0.3967284858226776,93.33334350585938,152028.0,1.0
15:38:19.417963,162060.265625,184495.15625,178889.25,191543.546875,184332.078125,182933.484375,690503.4375,195514.828125,0.052001953125,1.014404296875,-0.020263671875,-1.5563963651657104,-0.8544921278953552,0.3967284858226776,93.33334350585938,152029.0,1.0
15:38:19.419880,162195.703125,184519.46875,178911.0625,191582.078125,184352.453125,182939.03125,690761.8125,195525.296875,0.0537109375,1.013671875,-0.022705078125,-1.6174315214157104,-0.7934569716453552,0.3662109076976776,93.33334350585938,152030.0,1.0
15:38:19.426033,162186.59375,184526.53125,178909.546875,191552.578125,184358.984375,182943.046875,691461.0,195525.828125,0.053466796875,1.01416015625,-0.021484375,-1.4648436307907104,-0.7629393935203552,0.4577636420726776,93.33334350585938,152031.0,1.0
15:38:19.434185,162073.9375,184512.234375,178900.59375,191558.390625,184348.34375,182947.609375,691230.0625,195525.375,0.053955078125,1.01220703125,-0.0224609375,-1.4648436307907104,-0.6408690810203552,0.4272460639476776,93.33334350585938,152032.0,1.0
15:38:19.434201,162067.40625,184516.96875,178911.5,191567.0625,184351.46875,182956.015625,690555.9375,195534.59375,0.0546875,1.013916015625,-0.022216796875,-1.4038084745407104,-0.5187987685203552,0.3662109076976776,93.33334350585938,152033.0,1.0
15:38:19.440395,162201.15625,184542.8125,178938.0625,191607.125,184376.78125,182964.234375,690683.75,195548.171875,0.052490234375,1.01318359375,-0.021728515625,-1.3732908964157104,-0.5798339247703552,0.3967284858226776,93.33334350585938,152034.0,1.0
15:38:19.440418,162216.09375,184546.203125,178930.90625,191567.609375,184379.28125,182962.984375,691378.1875,195528.6875,0.05029296875,1.012939453125,-0.0185546875,-1.2817381620407104,-0.4577636420726776,0.3051757514476776,93.33334350585938,152035.0,1.0
15:38:19.442925,162103.984375,184528.046875,178918.921875,191567.78125,184369.796875,182963.4375,691366.5,195538.796875,0.051513671875,1.011962890625,-0.017333984375,-1.2207030057907104,-0.4577636420726776,0.3051757514476776,93.33334350585938,152036.0,1.0
15:38:19.442947,162058.46875,184514.015625,178914.640625,191571.625,184360.5,182958.78125,690632.125,195540.9375,0.05126953125,1.01318359375,-0.019287109375,-1.2817381620407104,-0.4577636420726776,0.2746581733226776,93.33334350585938,152037.0,1.0
15:38:19.454878,162171.390625,184529.390625,178931.4375,191597.90625,184375.34375,182958.328125,690607.0,195549.875,0.051025390625,1.013671875,-0.01953125,-1.3427733182907104,-0.3051757514476776,0.2441406100988388,93.33334350585938,152038.0,1.0
15:38:19.457930,162224.859375,184538.609375,178934.578125,191593.53125,184384.203125,182956.09375,691262.4375,195548.53125,0.051025390625,1.01513671875,-0.019775390625,-1.3732908964157104,-0.3967284858226776,0.1831054538488388,93.33334350585938,152039.0,1.0
15:38:19.457962,162116.234375,184518.21875,178915.359375,191572.15625,184365.59375,182949.125,691470.1875,195543.890625,0.0498046875,1.013427734375,-0.016845703125,-1.4953612089157104,-0.3051757514476776,0.1525878757238388,93.33334350585938,152040.0,1.0
15:38:19.464811,162044.078125,184502.578125,178904.359375,191569.484375,184346.640625,182944.65625,690726.625,195538.34375,0.0498046875,1.01416015625,-0.01611328125,-1.5869139432907104,-0.2136230319738388,0.0,93.33334350585938,152041.0,1.0
15:38:19.471655,162129.546875,184510.171875,178907.3125,191558.125,184345.84375,182939.109375,690560.3125,195512.421875,0.050537109375,1.01416015625,-0.01953125,-1.7089842557907104,-0.2441406100988388,0.0,93.33334350585938,152042.0,1.0
15:38:19.471692,162212.78125,184523.140625,178916.515625,191574.84375,184361.9375,182939.921875,691143.75,195524.484375,0.0517578125,1.01513671875,-0.017578125,-1.8615721464157104,-0.2136230319738388,0.03051757626235485,93.33334350585938,152043.0,1.0
15:38:19.477912,162125.609375,184513.921875,178903.453125,191544.171875,184353.0,182940.8125,691542.375,195518.859375,0.05078125,1.01416015625,-0.01904296875,-1.8615721464157104,-0.2441406100988388,0.1220703050494194,93.33334350585938,152044.0,1.0
15:38:19.477953,162041.125,184499.265625,178898.359375,191562.59375,184342.71875,182940.0,690847.5625,195528.15625,0.052978515625,1.012939453125,-0.019287109375,-1.8615721464157104,-0.1831054538488388,0.0915527269244194,93.33334350585938,152045.0,1.0
15:38:19.487561,162117.75,184514.46875,178917.3125,191576.8125,184357.28125,182946.0,690524.4375,195538.25,0.052734375,1.01318359375,-0.01708984375,-1.9226073026657104,-0.0915527269244194,0.2441406100988388,93.33334350585938,152046.0,1.0
15:38:19.490481,162215.828125,184520.71875,178920.0,191590.484375,184363.546875,182937.765625,690989.3125,195537.265625,0.053955078125,1.012939453125,-0.015869140625,-1.9226073026657104,0.03051757626235485,0.3051757514476776,93.33334350585938,152047.0,1.0
15:38:19.490514,162145.640625,184509.453125,178903.640625,191546.765625,184353.796875,182932.140625,691546.125,195530.03125,0.0537109375,1.012451171875,-0.019775390625,-1.9531248807907104,0.1525878757238388,0.3356933295726776,93.33334350585938,152048.0,1.0
15:38:19.496111,162037.546875,184486.296875,178889.328125,191556.96875,184334.125,182925.4375,690977.8125,195529.578125,0.05419921875,1.011962890625,-0.016845703125,-1.8920897245407104,0.2441406100988388,0.5187987685203552,93.33334350585938,152049.0,1.0
15:38:19.500352,162080.203125,184491.21875,178896.9375,191558.125,184335.375,182923.5625,690508.8125,195526.1875,0.0537109375,1.01318359375,-0.016845703125,-1.8615721464157104,0.3356933295726776,0.4882812201976776,93.33334350585938,152050.0,1.0
15:38:19.500383,162194.28125,184500.515625,178904.53125,191587.265625,184344.765625,182914.53125,690866.8125,195529.21875,0.0517578125,1.011962890625,-0.01611328125,-1.8310545682907104,0.3356933295726776,0.5798339247703552,93.33334350585938,152051.0,1.0
15:38:19.509770,162151.984375,184495.875,178893.359375,191544.0,184342.171875,182913.984375,691523.9375,195522.4375,0.050537109375,1.013427734375,-0.014892578125,-1.8310545682907104,0.3662109076976776,0.6713866591453552,93.33334350585938,152052.0,1.0
15:38:19.514126,162033.078125,184469.140625,178874.21875,191546.6875,184320.890625,182907.90625,691112.5,195519.125,0.049560546875,1.0146484375,-0.015625,-1.8005369901657104,0.3967284858226776,0.7934569716453552,93.33334350585938,152053.0,1.0
15:38:19.514172,162051.3125,184476.109375,178884.0625,191551.328125,184324.921875,182914.703125,690529.5625,195531.015625,0.0498046875,1.01318359375,-0.012451171875,-1.8005369901657104,0.3967284858226776,0.7324218153953552,93.33334350585938,152054.0,1.0
15:38:19.523619,162182.390625,184500.515625,178903.90625,191579.21875,184345.03125,182922.03125,690765.9375,195525.5625,0.049560546875,1.012939453125,-0.012451171875,-1.8005369901657104,0.4272460639476776,0.8850097060203552,93.33334350585938,152055.0,1.0
15:38:19.566756,162176.9375,184508.5625,178903.109375,191545.875,184353.078125,182928.921875,691470.75,195518.859375,0.048095703125,1.01220703125,-0.015380859375,-1.8005369901657104,0.5187987685203552,0.8850097060203552,93.33334350585938,152056.0,1.0
15:38:19.566792,162059.71875,184490.6875,178888.984375,191548.5625,184337.609375,182930.984375,691275.1875,195520.28125,0.04736328125,1.011474609375,-0.014404296875,-1.7700194120407104,0.3662109076976776,0.8544921278953552,93.33334350585938,152057.0,1.0
15:38:19.571060,162046.3125,184492.375,178894.078125,191550.96875,184335.203125,182936.78125,690592.3125,195521.453125,0.048095703125,1.01171875,-0.013671875,-1.8310545682907104,0.3051757514476776,0.8544921278953552,93.33334350585938,152058.0,1.0
15:38:19.573562,162179.703125,184517.765625,178920.890625,191595.671875,184359.796875,182945.8125,690683.4375,195538.53125,0.0498046875,1.010498046875,-0.016357421875,-1.8615721464157104,0.3356933295726776,0.9155272841453552,93.33334350585938,152059.0,1.0
15:38:19.576287,162203.578125,184522.875,178915.53125,191563.75,184361.75,182944.203125,691381.9375,195521.71875,0.050537109375,1.010009765625,-0.018310546875,-1.7700194120407104,0.3356933295726776,0.7629393935203552,93.33334350585938,152060.0,1.0
15:38:19.578753,162086.90625,184500.15625,178898.1875,191550.796875,184345.03125,182938.390625,691410.1875,195521.71875,0.050537109375,1.009033203125,-0.015380859375,-1.6784666776657104,0.3356933295726776,0.8239745497703552,93.33334350585938,152061.0,1.0
15:38:19.581107,162040.59375,184488.984375,178896.578125,191560.265625,184337.53125,182935.890625,690663.6875,195532.53125,0.05078125,1.007568359375,-0.014404296875,-1.6784666776657104,0.3662109076976776,0.7934569716453552,93.33334350585938,152062.0,1.0
15:38:19.583746,162153.78125,184506.234375,178915.078125,191580.203125,184351.125,182936.515625,690615.8125,195533.15625,0.050537109375,1.009521484375,-0.015869140625,-1.6174315214157104,0.3967284858226776,0.8544921278953552,93.33334350585938,152063.0,1.0
15:38:19.586137,162218.0625,184524.828125,178925.1875,191580.65625,184367.03125,182941.4375,691265.625,195530.828125,0.052734375,1.00927734375,-0.015625,-1.4953612089157104,0.3967284858226776,0.8544921278953552,93.33334350585938,152064.0,1.0
15:38:19.588723,162117.84375,184515.359375,178915.4375,191563.40625,184358.265625,182943.046875,691512.5625,195531.90625,0.051025390625,1.011474609375,-0.014892578125,-1.4648436307907104,0.4882812201976776,0.8544921278953552,93.33334350585938,152065.0,1.0
15:38:19.591178,162041.921875,184496.046875,178903.546875,191560.0,184339.671875,182935.171875,690758.875,195523.5,0.05029296875,1.00927734375,-0.01416015625,-1.4648436307907104,0.4577636420726776,0.7934569716453552,93.33334350585938,152066.0,1.0
15:38:19.593714,162141.171875,184512.234375,178922.140625,191579.046875,184352.015625,182936.609375,690569.25,195533.78125,0.0517578125,1.009033203125,-0.01513671875,-1.2817381620407104,0.4882812201976776,0.8544921278953552,93.33334350585938,152067.0,1.0
15:38:19.596365,162231.109375,184527.25,178932.96875,191593.984375,184366.046875,182936.4375,691136.0,195538.4375,0.052001953125,1.01220703125,-0.014404296875,-1.2512205839157104,0.4577636420726776,0.9155272841453552,93.33334350585938,152068.0,1.0
15:38:19.598544,162141.265625,184511.515625,178916.25,191559.109375,184354.609375,182931.78125,691566.375,195533.609375,0.05224609375,1.009033203125,-0.0146484375,-1.2512205839157104,0.4272460639476776,0.9155272841453552,93.33334350585938,152069.0,1.0
15:38:19.601630,162045.5,184489.15625,178904.625,191575.109375,184339.9375,182927.3125,690883.0625,195539.234375,0.052978515625,1.010986328125,-0.015625,-1.2512205839157104,0.5493163466453552,0.8239745497703552,93.33334350585938,152070.0,1.0
15:38:19.601641,162108.71875,184498.109375,178912.578125,191572.15625,184343.25,182928.109375,690540.5625,195532.71875,0.0546875,1.0126953125,-0.017333984375,-1.2207030057907104,0.6713866591453552,0.9765624403953552,93.33334350585938,152071.0,1.0
15:38:19.604111,162213.953125,184510.171875,178917.671875,191587.625,184351.296875,182923.109375,690996.0625,195529.671875,0.0537109375,1.010498046875,-0.0166015625,-1.0986326932907104,0.6103515028953552,0.9460448622703552,93.33334350585938,152072.0,1.0
15:38:19.604137,162154.046875,184507.484375,178909.984375,191553.203125,184350.578125,182925.875,691580.0625,195531.1875,0.054443359375,1.01025390625,-0.01904296875,-1.1291502714157104,0.6408690810203552,0.8850097060203552,93.33334350585938,152073.0,1.0
15:38:19.606059,162042.109375,184484.15625,178895.765625,191563.671875,184334.3125,182920.0625,691017.5625,195538.53125,0.053466796875,1.012939453125,-0.01708984375,-1.1291502714157104,0.7019042372703552,1.0070799589157104,93.33334350585938,152074.0,1.0
15:38:19.609143,162075.453125,184484.0625,178900.59375,191561.515625,184335.375,182919.0,690531.8125,195537.453125,0.05224609375,1.01220703125,-0.015869140625,-1.0375975370407104,0.7324218153953552,1.0681151151657104,93.33334350585938,152075.0,1.0
15:38:19.609173,162197.046875,184497.828125,178912.578125,191592.28125,184351.390625,182916.3125,690878.6875,195542.546875,0.053955078125,1.011474609375,-0.016845703125,-1.0986326932907104,0.8544921278953552,0.9765624403953552,93.33334350585938,152076.0,1.0
15:38:19.611094,162163.875,184498.8125,178905.34375,191553.46875,184352.09375,182920.0625,691550.5,195537.8125,0.05322265625,1.013916015625,-0.018798828125,-1.1596678495407104,0.9460448622703552,0.9765624403953552,93.33334350585938,152077.0,1.0
15:38:19.614182,162047.03125,184477.359375,178890.671875,191557.40625,184336.90625,182919.796875,691172.3125,195534.328125,0.053466796875,1.011962890625,-0.015380859375,-1.0681151151657104,0.9460448622703552,0.9765624403953552,93.33334350585938,152078.0,1.0
15:38:19.614212,162053.375,184477.265625,178897.5625,191558.484375,184340.921875,182922.578125,690565.875,195538.703125,0.0556640625,1.00927734375,-0.016845703125,-0.9460448622703552,1.0375975370407104,0.8544921278953552,93.33334350585938,152079.0,1.0
15:38:19.625021,162181.578125,184496.578125,178914.453125,191586.5625,184357.28125,182926.328125,690781.75,195535.484375,0.055419921875,1.01123046875,-0.01708984375,-0.8850097060203552,1.0070799589157104,0.9155272841453552,93.33334350585938,152080.0,1.0
15:38:19.631645,162185.609375,184507.046875,178912.40625,191558.84375,184360.859375,182931.15625,691495.6875,195532.0,0.0517578125,1.01171875,-0.018310546875,-0.9155272841453552,1.0070799589157104,0.9765624403953552,93.33334350585938,152081.0,1.0
15:38:19.631685,162073.125,184491.390625,178902.296875,191564.5625,184350.3125,182932.9375,691333.3125,195544.6875,0.051025390625,1.010498046875,-0.019775390625,-0.8850097060203552,1.0986326932907104,0.8850097060203552,93.33334350585938,152082.0,1.0
15:38:19.631702,162045.859375,184480.9375,178898.359375,191556.78125,184339.140625,182927.484375,690623.875,195539.15625,0.05029296875,1.011474609375,-0.02099609375,-0.8239745497703552,1.1291502714157104,0.8850097060203552,93.33334350585938,152083.0,1.0
15:38:19.639163,162173.625,184502.65625,178922.5,191587.359375,184359.96875,182930.34375,690688.0625,195538.25,0.0517578125,1.011962890625,-0.016845703125,-0.8239745497703552,1.1596678495407104,0.8850097060203552,93.33334350585938,152084.0,1.0
15:38:19.639202,162212.078125,184518.21875,178930.90625,191575.734375,184374.71875,182935.453125,691388.8125,195539.234375,0.05029296875,1.01123046875,-0.015869140625,-0.7019042372703552,1.1596678495407104,0.8850097060203552,93.33334350585938,152085.0,1.0
15:38:19.645388,162099.421875,184500.609375,178915.53125,191562.59375,184359.96875,182934.203125,691455.0,195537.453125,0.05126953125,1.012939453125,-0.018310546875,-0.6408690810203552,1.1596678495407104,0.9155272841453552,93.33334350585938,152086.0,1.0
15:38:19.645428,162053.015625,184493.8125,178916.515625,191573.0625,184352.09375,182936.078125,690705.125,195547.28125,0.052001953125,1.012451171875,-0.020751953125,-0.7019042372703552,1.0375975370407104,0.9765624403953552,93.33334350585938,152087.0,1.0
15:38:19.647314,162169.15625,184513.484375,178936.09375,191600.859375,184364.890625,182938.125,690635.9375,195547.28125,0.05126953125,1.010009765625,-0.0224609375,-0.6408690810203552,1.0681151151657104,0.8544921278953552,93.33334350585938,152088.0,1.0
15:38:19.659927,162224.40625,184521.34375,178931.359375,191579.21875,184365.59375,182933.484375,691270.75,195519.5625,0.052001953125,1.010986328125,-0.01953125,-0.5798339247703552,1.0375975370407104,0.8544921278953552,93.33334350585938,152089.0,1.0
15:38:19.664141,162125.796875,184513.125,178920.8125,191558.484375,184358.265625,182938.75,691556.1875,195523.953125,0.051025390625,1.0126953125,-0.02099609375,-0.6103515028953552,0.9460448622703552,0.8544921278953552,93.33334350585938,152090.0,1.0
15:38:19.664209,162052.921875,184501.671875,178916.328125,191567.78125,184349.59375,182941.703125,690806.0625,195529.40625,0.052490234375,1.012451171875,-0.022216796875,-0.5187987685203552,1.0070799589157104,0.7934569716453552,93.33334350585938,152091.0,1.0
15:38:19.664237,162138.40625,184509.28125,178926.4375,191582.625,184353.625,182935.0,690583.5625,195531.375,0.052001953125,1.0146484375,-0.02197265625,-0.5187987685203552,0.9460448622703552,0.8544921278953552,93.33334350585938,152092.0,1.0
15:38:19.672791,162222.53125,184515.53125,178925.359375,191587.546875,184355.59375,182924.359375,691123.6875,195523.328125,0.050537109375,1.013916015625,-0.023681640625,-0.5493163466453552,0.9765624403953552,0.9460448622703552,93.33334350585938,152093.0,1.0
15:38:19.683062,162132.234375,184499.890625,178903.640625,191534.703125,184341.1875,182916.671875,691584.75,195508.296875,0.052490234375,1.012939453125,-0.021484375,-0.7019042372703552,0.9460448622703552,0.8544921278953552,93.33334350585938,152094.0,1.0
15:38:19.683140,162036.46875,184476.90625,178894.34375,191558.84375,184328.9375,182910.0625,690911.3125,195528.328125,0.05322265625,1.0126953125,-0.021240234375,-0.7324218153953552,1.0070799589157104,0.7934569716453552,93.33334350585938,152095.0,1.0
15:38:19.700465,162098.796875,184486.65625,178907.65625,191560.453125,184338.953125,182912.734375,690549.5,195528.15625,0.05322265625,1.013427734375,-0.01953125,-0.8544921278953552,1.0070799589157104,0.7629393935203552,93.33334350585938,152096.0,1.0
15:38:19.700521,162224.234375,184516.875,178931.71875,191600.421875,184365.515625,182926.328125,691010.3125,195551.3125,0.050537109375,1.0146484375,-0.01904296875,-0.8239745497703552,0.9765624403953552,0.8544921278953552,93.33334350585938,152097.0,1.0
15:38:19.708859,162163.796875,184510.796875,178918.484375,191557.671875,184359.34375,182927.484375,691610.6875,195543.0,0.050048828125,1.01025390625,-0.01904296875,-0.8544921278953552,0.8850097060203552,0.9155272841453552,93.33334350585938,152098.0,1.0
15:38:19.708936,162042.640625,184480.046875,178897.375,191569.75,184339.046875,182919.171875,691071.5625,195549.4375,0.051513671875,1.0107421875,-0.02197265625,-0.9765624403953552,0.7934569716453552,0.8850097060203552,93.33334350585938,152099.0,1.0
15:38:19.708961,162068.9375,184480.40625,178899.890625,191563.046875,184336.0,182918.640625,690560.8125,195544.15625,0.051513671875,1.01220703125,-0.022216796875,-0.9765624403953552,0.7934569716453552,0.9460448622703552,93.33334350585938,152100.0,1.0
15:38:19.708982,162192.484375,184497.921875,178910.4375,191573.953125,184345.484375,182919.71875,690880.1875,195521.984375,0.052001953125,1.0107421875,-0.02392578125,-1.0375975370407104,0.7934569716453552,0.9460448622703552,93.33334350585938,152101.0,1.0
15:38:19.709003,162162.453125,184494.171875,178901.5,191543.546875,184344.328125,182916.9375,691572.125,195531.8125,0.053466796875,1.01171875,-0.023681640625,-1.0375975370407104,0.7324218153953552,1.0681151151657104,93.33334350585938,152102.0,1.0
15:38:19.712275,162008.9375,184437.21875,178852.3125,191517.4375,184294.796875,182880.734375,691193.9375,195497.125,0.0537109375,1.011962890625,-0.022216796875,-1.0986326932907104,0.7019042372703552,0.9765624403953552,93.33334350585938,152103.0,1.0
15:38:19.712344,162018.6875,184446.6875,178860.359375,191508.765625,184295.15625,182889.84375,690579.625,195487.46875,0.054443359375,1.0126953125,-0.021484375,-1.0986326932907104,0.7019042372703552,1.0681151151657104,93.33334350585938,152104.0,1.0
15:38:19.720722,162160.390625,184475.578125,178888.890625,191559.46875,184322.15625,182898.796875,690779.375,195507.40625,0.053466796875,1.010009765625,-0.0224609375,-1.0986326932907104,0.7324218153953552,1.0681151151657104,93.33334350585938,152105.0,1.0
15:38:19.720756,162172.640625,184489.703125,178896.671875,191538.546875,184340.5625,182910.5,691494.9375,195511.515625,0.054443359375,1.009765625,-0.0224609375,-1.1291502714157104,0.7629393935203552,1.0986326932907104,93.33334350585938,152106.0,1.0
15:38:19.727559,162058.296875,184472.890625,178885.765625,191536.21875,184329.5625,182911.84375,691365.5,195511.875,0.0517578125,1.01025390625,-0.02392578125,-1.0986326932907104,0.7629393935203552,1.0986326932907104,93.33334350585938,152107.0,1.0
15:38:19.734250,162046.125,184478.609375,178899.171875,191552.765625,184335.375,182920.34375,690651.3125,195525.109375,0.050537109375,1.00830078125,-0.02294921875,-1.0070799589157104,0.6103515028953552,1.0986326932907104,93.33334350585938,152108.0,1.0
15:38:19.734269,162174.96875,184503.46875,178925.09375,191580.5625,184359.078125,182927.3125,690693.6875,195536.109375,0.05126953125,1.009033203125,-0.02294921875,-1.1596678495407104,0.5798339247703552,1.1291502714157104,93.33334350585938,152109.0,1.0
15:38:19.744254,162219.765625,184518.671875,178932.515625,191574.3125,184372.84375,182931.875,691381.75,195537.265625,0.05029296875,1.009765625,-0.0234375,-1.1596678495407104,0.6103515028953552,1.1291502714157104,93.33334350585938,152110.0,1.0
15:38:19.744277,162108.53125,184501.40625,178915.703125,191555.4375,184353.53125,182927.484375,691480.6875,195523.859375,0.05029296875,1.01171875,-0.026123046875,-1.0986326932907104,0.5493163466453552,1.0070799589157104,93.33334350585938,152111.0,1.0
15:38:19.746149,162064.28125,184500.0625,178921.515625,191572.703125,184352.90625,182935.71875,690726.0625,195537.890625,0.0517578125,1.010986328125,-0.0244140625,-1.1901854276657104,0.5493163466453552,0.8850097060203552,93.33334350585938,152112.0,1.0
15:38:19.752330,162175.140625,184520.453125,178942.53125,191598.359375,184372.125,182943.3125,690641.5,195544.78125,0.05078125,1.01220703125,-0.026611328125,-1.1596678495407104,0.4577636420726776,0.7934569716453552,93.33334350585938,152113.0,1.0
15:38:19.762931,162228.4375,184517.5,178930.28125,191588.34375,184365.328125,182927.40625,691254.5625,195530.203125,0.048828125,1.013427734375,-0.0234375,-1.1291502714157104,0.3967284858226776,0.7934569716453552,93.33334350585938,152114.0,1.0
15:38:19.762961,162115.875,184492.015625,178904.171875,191547.578125,184342.984375,182915.421875,691561.1875,195517.421875,0.049072265625,1.014404296875,-0.022705078125,-1.1596678495407104,0.3356933295726776,0.7934569716453552,93.33334350585938,152115.0,1.0
15:38:19.769758,162030.125,184471.453125,178891.21875,191549.359375,184326.890625,182910.6875,690825.9375,195515.71875,0.051025390625,1.01416015625,-0.02392578125,-1.2207030057907104,0.3662109076976776,0.8850097060203552,93.33334350585938,152116.0,1.0
15:38:19.769797,162118.90625,184487.1875,178908.5625,191565.09375,184338.328125,182913.8125,690581.5625,195524.84375,0.0517578125,1.015380859375,-0.02490234375,-1.2817381620407104,0.2746581733226776,1.0070799589157104,93.33334350585938,152117.0,1.0
15:38:19.769807,162225.921875,184511.78125,178929.296875,191592.71875,184361.484375,182921.40625,691114.875,195538.96875,0.05322265625,1.015869140625,-0.024658203125,-1.3122557401657104,0.1525878757238388,0.9765624403953552,93.33334350585938,152118.0,1.0
15:38:19.773540,162156.015625,184510.890625,178924.921875,191566.890625,184362.65625,182928.921875,691617.625,195544.421875,0.05419921875,1.016845703125,-0.0234375,-1.3732908964157104,0.1525878757238388,0.9460448622703552,93.33334350585938,152119.0,1.0
15:38:19.778525,162047.296875,184479.140625,178903.109375,191572.25,184335.46875,182914.25,690947.6875,195540.21875,0.054931640625,1.016357421875,-0.02392578125,-1.4648436307907104,0.1525878757238388,0.9155272841453552,93.33334350585938,152120.0,1.0
15:38:19.789129,162110.59375,184492.65625,178918.921875,191582.796875,184346.46875,182920.78125,690559.3125,195552.734375,0.05615234375,1.018798828125,-0.024169921875,-1.5258787870407104,0.1525878757238388,1.0070799589157104,93.33334350585938,152121.0,1.0
15:38:19.789151,162225.03125,184513.03125,178932.875,191600.421875,184365.15625,182927.3125,690981.6875,195545.5,0.055908203125,1.015625,-0.021240234375,-1.6174315214157104,0.0610351525247097,0.9460448622703552,93.33334350585938,152122.0,1.0
15:38:19.791633,162168.890625,184510.4375,178920.0,191553.828125,184362.65625,182932.046875,691606.1875,195530.5625,0.056396484375,1.015869140625,-0.021484375,-1.8005369901657104,0.03051757626235485,1.0070799589157104,93.33334350585938,152123.0,1.0
15:38:19.791657,162058.015625,184490.5,178906.953125,191566.171875,184346.109375,182930.53125,691096.375,195536.203125,0.05712890625,1.017578125,-0.0224609375,-1.8310545682907104,0.0915527269244194,0.9460448622703552,93.33334350585938,152124.0,1.0
15:38:19.806090,162086.453125,184493.984375,178913.5625,191563.75,184345.03125,182930.34375,690566.1875,195535.21875,0.056640625,1.015380859375,-0.023193359375,-1.9836424589157104,0.1220703050494194,1.0681151151657104,93.33334350585938,152125.0,1.0
15:38:19.809112,162207.15625,184507.765625,178924.921875,191591.828125,184358.0,182926.78125,690858.5625,195538.53125,0.055419921875,1.016357421875,-0.01953125,-1.9226073026657104,0.0915527269244194,0.9460448622703552,93.33334350585938,152126.0,1.0
15:38:19.809137,162174.4375,184500.515625,178911.0625,191547.484375,184352.640625,182920.25,691545.5625,195523.6875,0.056640625,1.015869140625,-0.01904296875,-2.014159917831421,0.0610351525247097,0.9460448622703552,93.33334350585938,152127.0,1.0
15:38:19.811638,162052.84375,184473.96875,178894.96875,191549.984375,184335.828125,182915.328125,691228.0625,195524.84375,0.053955078125,1.014404296875,-0.02099609375,-2.014159917831421,0.1831054538488388,1.0070799589157104,93.33334350585938,152128.0,1.0
15:38:19.811666,162044.34375,184469.046875,178892.109375,191537.296875,184328.859375,182912.5625,690585.1875,195517.875,0.052490234375,1.012939453125,-0.018798828125,-2.136230230331421,0.0610351525247097,0.8544921278953552,93.33334350585938,152129.0,1.0
15:38:19.821098,162176.3125,184492.109375,178911.78125,191573.140625,184347.265625,182914.53125,690760.9375,195523.0625,0.053466796875,1.012451171875,-0.020263671875,-2.227782964706421,0.0,0.9460448622703552,93.33334350585938,152130.0,1.0
15:38:19.825517,162187.65625,184499.71875,178912.578125,191550.703125,184355.40625,182916.21875,691467.1875,195522.78125,0.054443359375,1.011962890625,-0.02099609375,-2.258300542831421,0.1220703050494194,0.8850097060203552,93.33334350585938,152131.0,1.0
15:38:19.825538,162074.390625,184484.0625,178903.28125,191552.84375,184345.03125,182918.453125,691376.0625,195531.109375,0.0546875,1.012939453125,-0.023193359375,-2.319335699081421,0.0610351525247097,0.8239745497703552,93.33334350585938,152132.0,1.0
15:38:19.831002,162040.234375,184477.8125,178900.328125,191547.9375,184335.734375,182917.921875,690654.75,195528.78125,0.0556640625,1.01171875,-0.0205078125,-2.380370855331421,0.0610351525247097,0.6408690810203552,93.33334350585938,152133.0,1.0
15:38:19.841685,162156.1875,184492.46875,178915.078125,191570.828125,184350.140625,182916.046875,690677.6875,195529.3125,0.0546875,1.013427734375,-0.018798828125,-2.410888433456421,-0.0915527269244194,0.6103515028953552,93.33334350585938,152134.0,1.0
15:38:19.841725,162205.546875,184508.203125,178921.78125,191567.15625,184363.015625,182920.515625,691354.9375,195532.359375,0.055419921875,1.01171875,-0.0185546875,-2.380370855331421,-0.1220703050494194,0.6408690810203552,93.33334350585938,152135.0,1.0
15:38:19.844181,162097.984375,184494.078125,178905.703125,191545.875,184346.921875,182920.515625,691486.3125,195524.21875,0.056884765625,1.01416015625,-0.021240234375,-2.441406011581421,-0.1831054538488388,0.6408690810203552,93.33334350585938,152136.0,1.0
15:38:19.844221,162046.046875,184490.328125,178908.5625,191561.25,184344.765625,182928.390625,690735.375,195537.359375,0.058349609375,1.010986328125,-0.021240234375,-2.441406011581421,-0.03051757626235485,0.5493163466453552,93.33334350585938,152137.0,1.0
15:38:19.853590,162156.375,184511.6875,178932.609375,191583.515625,184365.875,182937.953125,690614.5,195538.703125,0.05859375,1.0087890625,-0.02099609375,-2.502441167831421,-0.1220703050494194,0.4577636420726776,93.33334350585938,152138.0,1.0
15:38:19.856762,162230.84375,184525.8125,178941.28125,191591.03125,184382.5,182940.71875,691225.875,195543.890625,0.05712890625,1.009033203125,-0.020751953125,-2.349853277206421,-0.0915527269244194,0.3967284858226776,93.33334350585938,152139.0,1.0
15:38:19.856786,162137.421875,184516.078125,178929.125,191567.0625,184374.453125,182942.78125,691571.75,195545.3125,0.05517578125,1.010009765625,-0.02294921875,-2.380370855331421,-0.03051757626235485,0.4272460639476776,93.33334350585938,152140.0,1.0
15:38:19.863622,162060.703125,184503.640625,178924.734375,191580.65625,184361.75,182942.6875,690839.5,195554.171875,0.056640625,1.01171875,-0.021728515625,-2.319335699081421,-0.03051757626235485,0.3662109076976776,93.33334350585938,152141.0,1.0
15:38:19.874236,162144.296875,184517.140625,178942.0,191591.828125,184374.546875,182944.5625,690571.5625,195556.671875,0.05712890625,1.010986328125,-0.018798828125,-2.319335699081421,-0.0610351525247097,0.3356933295726776,93.33334350585938,152142.0,1.0
15:38:19.874262,162247.125,184536.28125,178956.921875,191616.15625,184394.5625,182949.125,691085.0625,195569.453125,0.056396484375,1.009033203125,-0.017578125,-2.288818120956421,-0.03051757626235485,0.3356933295726776,93.33334350585938,152143.0,1.0
15:38:19.876681,162165.125,184524.03125,178936.453125,191567.78125,184378.921875,182943.765625,691596.625,195549.34375,0.054931640625,1.010986328125,-0.0166015625,-2.227782964706421,-0.03051757626235485,0.3967284858226776,93.33334350585938,152144.0,1.0
15:38:19.876704,162054.0,184496.3125,178914.453125,191567.6875,184352.640625,182933.65625,690958.0625,195541.75,0.055908203125,1.01025390625,-0.016357421875,-2.227782964706421,-0.0610351525247097,0.2746581733226776,93.33334350585938,152145.0,1.0
15:38:19.882375,162104.515625,184501.671875,178921.609375,191566.0,184353.359375,182933.75,690546.8125,195539.234375,0.056884765625,1.01171875,-0.018310546875,-2.288818120956421,-0.03051757626235485,0.3051757514476776,93.33334350585938,152146.0,1.0
15:38:19.888641,162213.59375,184510.34375,178928.671875,191590.046875,184361.125,182925.4375,690950.125,195540.578125,0.056640625,1.010009765625,-0.017822265625,-2.227782964706421,0.03051757626235485,0.2746581733226776,93.33334350585938,152147.0,1.0
15:38:19.932932,162163.96875,184508.03125,178919.46875,191553.390625,184358.453125,182927.9375,691581.8125,195534.671875,0.054443359375,1.0087890625,-0.01806640625,-2.105712652206421,0.0,0.2441406100988388,93.33334350585938,152148.0,1.0
15:38:19.932953,162042.90625,184478.4375,178897.015625,191556.15625,184333.765625,182916.21875,691096.6875,195532.359375,0.054443359375,1.01025390625,-0.01708984375,-2.166747808456421,0.03051757626235485,0.2136230319738388,93.33334350585938,152149.0,1.0
15:38:19.934952,162064.375,184478.515625,178901.21875,191547.125,184333.421875,182913.71875,690546.625,195525.5625,0.0537109375,1.0107421875,-0.018310546875,-2.197265386581421,-0.03051757626235485,0.1525878757238388,93.33334350585938,152150.0,1.0
15:38:19.938213,162194.015625,184497.203125,178919.375,191586.5625,184351.390625,182913.71875,690831.375,195533.0625,0.0537109375,1.01025390625,-0.0185546875,-1.9836424589157104,-0.0610351525247097,0.1831054538488388,93.33334350585938,152151.0,1.0
15:38:19.939868,162178.8125,184498.546875,178915.703125,191554.1875,184352.1875,182913.90625,691523.125,195528.953125,0.05322265625,1.010009765625,-0.0185546875,-1.8920897245407104,0.0,0.2136230319738388,93.33334350585938,152152.0,1.0
15:38:19.942330,162053.109375,184469.40625,178894.875,191551.421875,184331.09375,182904.609375,691230.0625,195527.34375,0.052978515625,1.010986328125,-0.018798828125,-1.9226073026657104,0.03051757626235485,0.2441406100988388,93.33334350585938,152153.0,1.0
15:38:19.944908,162045.59375,184469.046875,178896.125,191546.953125,184327.421875,182905.046875,690575.75,195525.5625,0.05224609375,1.010498046875,-0.02099609375,-1.8920897245407104,0.03051757626235485,0.2441406100988388,93.33334350585938,152154.0,1.0
15:38:19.947348,162177.5625,184493.359375,178919.640625,191583.421875,184349.59375,182911.125,690737.0,195534.953125,0.0537109375,1.012451171875,-0.017578125,-1.8615721464157104,0.0,0.2441406100988388,93.33334350585938,152155.0,1.0
15:38:19.949865,162198.03125,184504.625,178925.8125,191567.0625,184365.15625,182917.203125,691440.0625,195538.796875,0.052978515625,1.01416015625,-0.016845703125,-1.8920897245407104,-0.03051757626235485,0.2136230319738388,93.33334350585938,152156.0,1.0
15:38:19.952302,162086.28125,184489.78125,178915.703125,191568.671875,184355.953125,182917.125,691373.5625,195548.453125,0.053466796875,1.01220703125,-0.016845703125,-1.8615721464157104,-0.0915527269244194,0.2441406100988388,93.33334350585938,152157.0,1.0
15:38:19.954846,162049.4375,184484.6875,178912.671875,191559.28125,184347.265625,182916.9375,690644.4375,195537.453125,0.052734375,1.0107421875,-0.018798828125,-1.8920897245407104,-0.2136230319738388,0.3356933295726776,93.33334350585938,152158.0,1.0
15:38:19.957304,162173.53125,184505.796875,178935.375,191590.3125,184366.9375,182922.21875,690652.5,195546.390625,0.05322265625,1.01123046875,-0.016357421875,-1.8920897245407104,-0.1831054538488388,0.3051757514476776,93.33334350585938,152159.0,1.0
15:38:19.959857,162218.953125,184511.515625,178934.03125,191577.34375,184372.03125,182919.171875,691315.1875,195542.09375,0.051513671875,1.012451171875,-0.01904296875,-1.8005369901657104,-0.2441406100988388,0.2136230319738388,93.33334350585938,152160.0,1.0
15:38:19.962377,162107.640625,184492.46875,178915.703125,191557.234375,184353.625,182914.609375,691479.0625,195540.140625,0.05322265625,1.0126953125,-0.0166015625,-1.7395018339157104,-0.3051757514476776,0.1831054538488388,93.33334350585938,152161.0,1.0
15:38:19.965370,162044.171875,184480.21875,178910.796875,191562.140625,184342.53125,182914.796875,690727.4375,195538.4375,0.052734375,1.013427734375,-0.015380859375,-1.8005369901657104,-0.3967284858226776,0.3356933295726776,93.33334350585938,152162.0,1.0
15:38:19.965402,162147.96875,184500.15625,178931.171875,191581.8125,184359.96875,182922.03125,690597.6875,195543.171875,0.05322265625,1.01171875,-0.0166015625,-1.8005369901657104,-0.3662109076976776,0.3051757514476776,93.33334350585938,152163.0,1.0
15:38:19.967358,162226.640625,184517.765625,178938.6875,191586.28125,184372.9375,182927.3125,691199.0,195542.453125,0.053466796875,1.013427734375,-0.01904296875,-1.8005369901657104,-0.3662109076976776,0.2746581733226776,93.33334350585938,152164.0,1.0
15:38:19.970407,162133.65625,184508.109375,178923.125,191551.15625,184361.21875,182928.46875,691564.0,195536.734375,0.052978515625,1.013427734375,-0.0166015625,-1.8310545682907104,-0.3051757514476776,0.3967284858226776,93.33334350585938,152165.0,1.0
15:38:19.970444,162053.640625,184495.421875,178918.484375,191564.65625,184352.1875,182932.5,690845.625,195543.53125,0.0546875,1.011962890625,-0.015380859375,-1.8615721464157104,-0.3051757514476776,0.3967284858226776,93.33334350585938,152166.0,1.0
15:38:19.972370,162122.3125,184497.203125,178923.046875,191565.640625,184353.4375,182926.5,690543.6875,195536.015625,0.0537109375,1.012451171875,-0.015869140625,-1.8310545682907104,-0.3051757514476776,0.4272460639476776,93.33334350585938,152167.0,1.0
15:38:19.974966,162225.03125,184512.234375,178931.625,191587.984375,184365.78125,182925.875,691041.75,195538.078125,0.0537109375,1.01025390625,-0.0185546875,-1.7700194120407104,-0.3967284858226776,0.4577636420726776,93.33334350585938,152168.0,1.0
15:38:19.978016,162154.84375,184507.578125,178918.296875,191550.875,184356.03125,182927.9375,691584.375,195532.71875,0.05517578125,1.011474609375,-0.017578125,-1.8310545682907104,-0.3662109076976776,0.6103515028953552,93.33334350585938,152169.0,1.0
15:38:19.978103,162045.5,184483.265625,178897.828125,191551.953125,184329.296875,182920.34375,690968.5625,195525.734375,0.05419921875,1.011474609375,-0.016357421875,-1.8310545682907104,-0.3967284858226776,0.6103515028953552,93.33334350585938,152170.0,1.0
15:38:19.988732,162090.03125,184488.0,178901.21875,191538.71875,184327.515625,182919.359375,690540.875,195513.765625,0.052978515625,1.0126953125,-0.0166015625,-1.8310545682907104,-0.3662109076976776,0.6103515028953552,93.33334350585938,152171.0,1.0
15:38:19.997425,162204.375,184501.953125,178911.59375,191565.8125,184340.296875,182917.828125,690938.125,195517.328125,0.0537109375,1.011962890625,-0.01904296875,-1.8310545682907104,-0.3051757514476776,0.5798339247703552,93.33334350585938,152172.0,1.0
15:38:19.997492,162156.015625,184497.484375,178898.984375,191523.078125,184333.421875,182917.125,691580.6875,195509.5625,0.0546875,1.011474609375,-0.0224609375,-1.8920897245407104,-0.2441406100988388,0.6103515028953552,93.33334350585938,152173.0,1.0
15:38:19.997518,162036.125,184468.78125,178877.359375,191525.9375,184307.9375,182906.84375,691127.25,195507.953125,0.05615234375,1.011474609375,-0.016357421875,-1.8615721464157104,-0.2441406100988388,0.6713866591453552,93.33334350585938,152174.0,1.0
15:38:20.000422,162052.296875,184465.5625,178879.140625,191520.484375,184305.34375,182901.390625,690557.875,195503.921875,0.05517578125,1.01416015625,-0.016845703125,-1.8615721464157104,-0.1831054538488388,0.6103515028953552,93.33334350585938,152175.0,1.0
15:38:20.000486,162182.125,184485.859375,178900.78125,191558.921875,184329.5625,182903.0,690816.5625,195512.0625,0.05712890625,1.01220703125,-0.018798828125,-1.8005369901657104,-0.2136230319738388,0.6408690810203552,93.33334350585938,152176.0,1.0
15:38:20.002387,162168.0,184487.015625,178894.4375,191521.109375,184331.265625,182900.671875,691509.8125,195504.109375,0.05615234375,1.011474609375,-0.020263671875,-1.8615721464157104,-0.1831054538488388,0.6408690810203552,93.33334350585938,152177.0,1.0
15:38:20.035308,162054.453125,184468.859375,178883.25,191531.921875,184316.96875,182899.140625,691258.5625,195513.21875,0.05712890625,1.01171875,-0.018310546875,-1.9226073026657104,-0.03051757626235485,0.6713866591453552,93.33334350585938,152178.0,1.0
15:38:20.038587,162051.578125,184472.703125,178893.796875,191541.046875,184320.8125,182904.609375,690586.5625,195522.25,0.056640625,1.0126953125,-0.016845703125,-1.8005369901657104,-0.1220703050494194,0.7324218153953552,93.33334350585938,152179.0,1.0
15:38:20.038716,162173.359375,184488.71875,178908.109375,191555.4375,184335.109375,182902.90625,690717.1875,195513.125,0.055908203125,1.01171875,-0.016357421875,-1.8005369901657104,0.03051757626235485,0.7934569716453552,93.33334350585938,152180.0,1.0
15:38:20.038753,162196.609375,184497.921875,178910.171875,191539.53125,184343.078125,182904.25,691413.25,195516.96875,0.056396484375,1.01220703125,-0.01806640625,-1.8310545682907104,0.0,0.7019042372703552,93.33334350585938,152181.0,1.0
15:38:20.042526,162077.328125,184474.234375,178893.53125,191530.859375,184326.625,182898.34375,691385.4375,195517.15625,0.055908203125,1.010986328125,-0.018798828125,-1.8310545682907104,0.03051757626235485,0.7324218153953552,93.33334350585938,152182.0,1.0
15:38:20.042703,162032.8125,184462.078125,178892.546875,191529.515625,184320.0,182895.484375,690646.25,195514.109375,0.0576171875,1.0107421875,-0.018310546875,-1.7700194120407104,0.03051757626235485,0.7934569716453552,93.33334350585938,152183.0,1.0
15:38:20.042742,162149.578125,184481.109375,178912.578125,191556.25,184337.796875,182898.796875,690630.75,195520.1875,0.05615234375,1.009765625,-0.017578125,-1.8615721464157104,0.0915527269244194,0.7019042372703552,93.33334350585938,152184.0,1.0
15:38:20.046156,162205.28125,184495.515625,178915.359375,191549.90625,184347.265625,182900.9375,691291.3125,195517.609375,0.058349609375,1.01171875,-0.0185546875,-1.8615721464157104,0.1220703050494194,0.6713866591453552,93.33334350585938,152185.0,1.0
15:38:20.046213,162103.4375,184483.96875,178903.109375,191532.640625,184337.4375,182903.171875,691495.75,195520.1875,0.055419921875,1.010986328125,-0.016357421875,-1.8005369901657104,0.1220703050494194,0.5187987685203552,93.33334350585938,152186.0,1.0
15:38:20.047545,162038.171875,184470.5625,178900.59375,191545.609375,184329.21875,182902.90625,690738.0625,195524.390625,0.057373046875,1.01171875,-0.0166015625,-1.8310545682907104,0.1831054538488388,0.3967284858226776,93.33334350585938,152187.0,1.0
15:38:20.050555,162135.359375,184488.0,178918.390625,191554.015625,184344.5,182909.96875,690581.125,195521.984375,0.058837890625,1.01123046875,-0.019287109375,-1.8310545682907104,0.3356933295726776,0.5493163466453552,93.33334350585938,152188.0,1.0
15:38:20.060441,162220.125,184506.0625,178928.3125,191564.46875,184360.234375,182915.328125,691166.875,195525.109375,0.05908203125,1.011962890625,-0.0166015625,-1.7395018339157104,0.3051757514476776,0.5187987685203552,93.33334350585938,152189.0,1.0
15:38:20.060515,162133.578125,184499.078125,178916.15625,191539.96875,184353.359375,182920.515625,691565.6875,195528.0625,0.057373046875,1.011474609375,-0.017822265625,-1.7395018339157104,0.1831054538488388,0.4577636420726776,93.33334350585938,152190.0,1.0
15:38:20.062937,162047.296875,184482.453125,178908.375,191558.75,184341.015625,182920.6875,690864.5625,195536.5625,0.058837890625,1.0107421875,-0.019287109375,-1.6784666776657104,0.2746581733226776,0.4882812201976776,93.33334350585938,152191.0,1.0
15:38:20.063003,162120.875,184495.0625,178923.84375,191561.875,184353.0,182926.328125,690555.75,195537.8125,0.057861328125,1.013427734375,-0.017822265625,-1.6479490995407104,0.2441406100988388,0.2746581733226776,93.33334350585938,152192.0,1.0
15:38:20.070104,162219.671875,184506.421875,178929.125,191578.421875,184363.546875,182922.9375,691040.125,195534.234375,0.0546875,1.0107421875,-0.0146484375,-1.6479490995407104,0.2746581733226776,0.3356933295726776,93.33334350585938,152193.0,1.0
15:38:20.080884,162149.046875,184499.0,178910.4375,191533.71875,184350.484375,182920.875,691598.6875,195523.328125,0.053466796875,1.0107421875,-0.015869140625,-1.6174315214157104,0.3356933295726776,0.2136230319738388,93.33334350585938,152194.0,1.0
15:38:20.080939,162040.234375,184473.609375,178894.078125,191555.0,184329.5625,182913.1875,691006.0,195534.765625,0.054443359375,1.011474609375,-0.01708984375,-1.5869139432907104,0.3356933295726776,0.1831054538488388,93.33334350585938,152195.0,1.0
15:38:20.082959,162080.109375,184475.75,178900.78125,191548.734375,184332.25,182912.203125,690548.125,195531.453125,0.054931640625,1.011962890625,-0.018310546875,-1.7089842557907104,0.2746581733226776,0.2441406100988388,93.33334350585938,152196.0,1.0
15:38:20.083028,162191.78125,184485.859375,178905.25,191551.953125,184339.046875,182906.65625,690905.0,195508.296875,0.053955078125,1.01171875,-0.01513671875,-1.6174315214157104,0.3356933295726776,0.1831054538488388,93.33334350585938,152197.0,1.0
15:38:20.097394,162156.109375,184487.375,178896.75,191519.5,184334.578125,182908.09375,691572.5,195505.71875,0.054443359375,1.010498046875,-0.018798828125,-1.5869139432907104,0.2746581733226776,0.2746581733226776,93.33334350585938,152198.0,1.0
15:38:20.101004,162044.875,184467.890625,178885.671875,191544.890625,184319.5625,182905.9375,691155.875,195522.703125,0.05224609375,1.010498046875,-0.017578125,-1.4953612089157104,0.2136230319738388,0.2441406100988388,93.33334350585938,152199.0,1.0
15:38:20.101033,162046.84375,184463.953125,178883.171875,191520.390625,184314.640625,182903.265625,690567.75,195502.765625,0.054931640625,1.0107421875,-0.02001953125,-1.5258787870407104,0.3051757514476776,0.1831054538488388,93.33334350585938,152200.0,1.0
15:38:20.101042,162175.421875,184484.328125,178902.125,191552.140625,184335.296875,182905.234375,690805.8125,195508.84375,0.05517578125,1.0126953125,-0.0205078125,-1.5258787870407104,0.1220703050494194,0.2136230319738388,93.33334350585938,152201.0,1.0
15:38:20.103612,162174.4375,184492.921875,178904.4375,191533.09375,184344.140625,182909.78125,691506.5,195517.953125,0.054443359375,1.0107421875,-0.0166015625,-1.4953612089157104,0.2746581733226776,0.1831054538488388,93.33334350585938,152202.0,1.0
15:38:20.106156,162051.859375,184466.8125,178884.859375,191533.265625,184322.15625,182901.828125,691285.25,195513.84375,0.054931640625,1.009765625,-0.01708984375,-1.4648436307907104,0.2746581733226776,0.1525878757238388,93.33334350585938,152203.0,1.0
15:38:20.112415,162045.59375,184470.03125,178894.515625,191541.9375,184324.03125,182906.84375,690598.1875,195528.0625,0.055419921875,1.011962890625,-0.013427734375,-1.4038084745407104,0.2441406100988388,-0.0915527269244194,93.33334350585938,152204.0,1.0
15:38:20.119908,162170.046875,184486.921875,178910.25,191563.75,184337.609375,182905.140625,690703.625,195521.984375,0.05419921875,1.01318359375,-0.016845703125,-1.4648436307907104,0.2441406100988388,-0.03051757626235485,93.33334350585938,152205.0,1.0
15:38:20.124333,162191.953125,184492.109375,178906.328125,191536.84375,184341.8125,182901.65625,691390.375,195513.3125,0.0537109375,1.012939453125,-0.017822265625,-1.4648436307907104,0.1831054538488388,0.03051757626235485,93.33334350585938,152206.0,1.0
15:38:20.124366,162080.203125,184477.265625,178893.984375,191531.296875,184328.671875,182901.5625,691402.0,195513.84375,0.0537109375,1.01318359375,-0.016845703125,-1.4648436307907104,0.1220703050494194,0.03051757626235485,93.33334350585938,152207.0,1.0
15:38:20.133669,162045.59375,184477.09375,178900.78125,191547.578125,184326.703125,182908.625,690657.375,195530.03125,0.052001953125,1.012451171875,-0.01806640625,-1.4038084745407104,0.1831054538488388,0.0610351525247097,93.33334350585938,152208.0,1.0
15:38:20.138187,162164.953125,184500.421875,178923.9375,191571.984375,184346.203125,182917.03125,690619.75,195536.734375,0.050537109375,1.010986328125,-0.015869140625,-1.3732908964157104,0.0915527269244194,0.0,93.33334350585938,152209.0,1.0
15:38:20.138258,162222.171875,184513.390625,178928.765625,191564.203125,184358.1875,182918.640625,691263.3125,195532.625,0.05029296875,1.01025390625,-0.0166015625,-1.4038084745407104,0.1220703050494194,0.0610351525247097,93.33334350585938,152210.0,1.0
15:38:20.147430,162118.46875,184501.046875,178914.90625,191546.765625,184349.953125,182920.609375,691496.25,195537.546875,0.051513671875,1.01171875,-0.018310546875,-1.3732908964157104,0.0,0.03051757626235485,93.33334350585938,152211.0,1.0
15:38:20.150667,162048.640625,184488.53125,178909.71875,191555.171875,184342.359375,182923.109375,690759.25,195543.625,0.05126953125,1.01220703125,-0.01904296875,-1.3732908964157104,0.03051757626235485,-0.03051757626235485,93.33334350585938,152212.0,1.0
15:38:20.150746,162141.171875,184500.96875,178923.3125,191565.1875,184352.8125,182925.609375,690569.25,195542.375,0.05078125,1.011962890625,-0.015869140625,-1.4343260526657104,-0.0610351525247097,-0.1220703050494194,93.33334350585938,152213.0,1.0
15:38:20.152754,162225.578125,184515.0,178931.359375,191571.625,184366.046875,182927.765625,691138.5625,195541.65625,0.05029296875,1.01318359375,-0.0185546875,-1.4038084745407104,-0.1831054538488388,-0.1220703050494194,93.33334350585938,152214.0,1.0
15:38:20.164994,162139.828125,184505.078125,178918.21875,191543.109375,184356.125,182928.296875,691575.375,195534.5,0.052978515625,1.013671875,-0.014892578125,-1.4038084745407104,-0.2441406100988388,-0.0610351525247097,93.33334350585938,152215.0,1.0
15:38:20.168043,162040.671875,184481.109375,178902.296875,191547.390625,184334.671875,182919.625,690888.3125,195532.890625,0.052734375,1.012939453125,-0.016357421875,-1.3732908964157104,-0.2746581733226776,-0.1831054538488388,93.33334350585938,152216.0,1.0
15:38:20.168103,162105.234375,184486.921875,178909.8125,191544.890625,184335.375,182915.953125,690547.6875,195521.453125,0.0517578125,1.0107421875,-0.019287109375,-1.4038084745407104,-0.2746581733226776,-0.2136230319738388,93.33334350585938,152217.0,1.0
15:38:20.174253,162207.421875,184496.3125,178914.1875,191560.1875,184342.984375,182908.71875,691011.0,195515.71875,0.052001953125,1.011962890625,-0.015869140625,-1.4343260526657104,-0.3051757514476776,-0.2136230319738388,93.33334350585938,152218.0,1.0
15:38:20.174380,162148.5,184494.96875,178907.3125,191527.09375,184340.75,182912.203125,691587.25,195516.53125,0.052978515625,1.013427734375,-0.017333984375,-1.4953612089157104,-0.3967284858226776,-0.1220703050494194,93.33334350585938,152219.0,1.0
15:38:20.184175,162038.4375,184471.734375,178892.640625,191532.015625,184322.59375,182907.640625,691016.8125,195512.421875,0.051513671875,1.0126953125,-0.015869140625,-1.4038084745407104,-0.3051757514476776,-0.1220703050494194,93.33334350585938,152220.0,1.0
15:38:20.184247,162076.34375,184477.359375,178900.15625,191525.21875,184326.53125,182910.6875,690537.125,195509.46875,0.051025390625,1.01220703125,-0.01416015625,-1.3427733182907104,-0.2746581733226776,0.0610351525247097,93.33334350585938,152221.0,1.0
15:38:20.186274,162202.421875,184498.375,178915.171875,191558.84375,184343.421875,182913.90625,690879.6875,195512.78125,0.052001953125,1.011474609375,-0.017333984375,-1.3732908964157104,-0.3051757514476776,0.0915527269244194,93.33334350585938,152222.0,1.0
15:38:20.189835,162170.765625,184501.234375,178908.828125,191524.328125,184344.328125,182918.640625,691556.8125,195508.390625,0.051025390625,1.008544921875,-0.022216796875,-1.3122557401657104,-0.2746581733226776,0.1220703050494194,93.33334350585938,152223.0,1.0
15:38:20.204917,162054.359375,184479.328125,178896.84375,191536.40625,184330.46875,182916.671875,691174.4375,195516.265625,0.05078125,1.01025390625,-0.01953125,-1.3122557401657104,-0.3662109076976776,0.1525878757238388,93.33334350585938,152224.0,1.0
15:38:20.204994,162057.578125,184473.96875,178896.046875,191522.546875,184322.859375,182910.40625,690567.9375,195504.546875,0.052001953125,1.01025390625,-0.020263671875,-1.3122557401657104,-0.4272460639476776,0.03051757626235485,93.33334350585938,152225.0,1.0
15:38:20.205022,162183.28125,184485.5,178907.484375,191558.390625,184333.765625,182903.96875,690768.4375,195513.765625,0.048828125,1.010498046875,-0.016845703125,-1.2817381620407104,-0.3967284858226776,0.1220703050494194,93.33334350585938,152226.0,1.0
15:38:20.207997,162183.453125,184492.109375,178905.15625,191532.28125,184339.578125,182906.75,691476.9375,195514.734375,0.04931640625,1.01123046875,-0.018310546875,-1.2817381620407104,-0.4272460639476776,0.2746581733226776,93.33334350585938,152227.0,1.0
15:38:20.208061,162063.390625,184470.390625,178888.265625,191530.046875,184321.796875,182900.671875,691300.5,195516.4375,0.05224609375,1.01513671875,-0.017578125,-1.2512205839157104,-0.4577636420726776,0.1831054538488388,93.33334350585938,152228.0,1.0
15:38:20.209844,162036.65625,184459.296875,178884.6875,191521.46875,184311.875,182894.953125,690596.8125,195510.984375,0.05419921875,1.01416015625,-0.019287109375,-1.2817381620407104,-0.3967284858226776,0.1525878757238388,93.33334350585938,152229.0,1.0
15:38:20.236086,162156.453125,184472.890625,178898.71875,191547.3125,184325.71875,182891.734375,690665.5625,195516.625,0.052490234375,1.0126953125,-0.01953125,-1.2512205839157104,-0.3662109076976776,0.1525878757238388,93.33334350585938,152230.0,1.0
15:38:20.239874,162189.890625,184484.328125,178902.203125,191533.71875,184337.34375,182894.5,691355.875,195520.640625,0.052978515625,1.010986328125,-0.020263671875,-1.2512205839157104,-0.4577636420726776,0.2441406100988388,93.33334350585938,152231.0,1.0
15:38:20.239931,162076.265625,184466.8125,178886.03125,191519.59375,184322.59375,182893.875,691408.0,195515.8125,0.05419921875,1.013671875,-0.018798828125,-1.2817381620407104,-0.3356933295726776,0.2746581733226776,93.33334350585938,152232.0,1.0
15:38:20.241375,162030.03125,184458.9375,178887.1875,191530.765625,184318.578125,182895.921875,690667.5,195523.765625,0.0546875,1.01416015625,-0.01953125,-1.3427733182907104,-0.2441406100988388,0.3662109076976776,93.33334350585938,152233.0,1.0
15:38:20.243570,162136.96875,184472.625,178902.125,191544.890625,184332.34375,182897.453125,690590.625,195524.21875,0.055419921875,1.013671875,-0.019775390625,-1.3732908964157104,-0.2136230319738388,0.3356933295726776,93.33334350585938,152234.0,1.0
15:38:20.246100,162195.703125,184482.09375,178902.75,191531.484375,184339.578125,182897.0,691227.75,195513.84375,0.056884765625,1.01318359375,-0.01904296875,-1.4343260526657104,-0.0610351525247097,0.3662109076976776,93.33334350585938,152235.0,1.0
15:38:20.248573,162094.328125,184468.15625,178887.640625,191509.9375,184326.078125,182893.875,691499.875,195508.125,0.0556640625,1.012939453125,-0.020263671875,-1.4648436307907104,-0.0610351525247097,0.3967284858226776,93.33334350585938,152236.0,1.0
15:38:20.251244,162024.765625,184458.578125,178884.78125,191525.9375,184317.953125,182895.484375,690763.0,195518.046875,0.05419921875,1.010498046875,-0.01904296875,-1.5869139432907104,0.0,0.3967284858226776,93.33334350585938,152237.0,1.0
15:38:20.254078,162117.84375,184477.53125,178901.9375,191534.875,184330.375,182902.015625,690549.375,195513.3125,0.053955078125,1.012451171875,-0.019287109375,-1.5563963651657104,0.1525878757238388,0.3051757514476776,93.33334350585938,152238.0,1.0
15:38:20.254088,162205.90625,184492.65625,178909.359375,191543.1875,184343.515625,182902.90625,691099.9375,195510.265625,0.05419921875,1.01220703125,-0.02197265625,-1.5563963651657104,0.1525878757238388,0.3662109076976776,93.33334350585938,152239.0,1.0
15:38:20.256148,162124.0,184484.875,178899.4375,191512.265625,184338.953125,182906.125,691560.5,195512.59375,0.0517578125,1.011962890625,-0.02001953125,-1.6479490995407104,0.2136230319738388,0.3967284858226776,93.33334350585938,152240.0,1.0
15:38:20.289179,162027.453125,184462.515625,178888.0,191527.28125,184323.3125,182902.71875,690898.6875,195517.953125,0.052490234375,1.011474609375,-0.02001953125,-1.5869139432907104,0.1831054538488388,0.3662109076976776,93.33334350585938,152241.0,1.0
15:38:20.289231,162091.015625,184470.828125,178899.609375,191530.234375,184329.5625,182903.625,690535.75,195512.78125,0.05224609375,1.012939453125,-0.018798828125,-1.5258787870407104,0.1525878757238388,0.3967284858226776,93.33334350585938,152242.0,1.0
15:38:20.309948,162201.515625,184484.953125,178909.1875,191556.15625,184343.875,182902.359375,690979.1875,195519.296875,0.0537109375,1.011962890625,-0.01953125,-1.5563963651657104,0.2136230319738388,0.3662109076976776,93.33334350585938,152243.0,1.0
15:38:20.312403,162139.03125,184478.4375,178894.34375,191515.921875,184334.390625,182900.3125,691579.4375,195510.8125,0.052490234375,1.012451171875,-0.01953125,-1.6174315214157104,0.1831054538488388,0.3051757514476776,93.33334350585938,152244.0,1.0
15:38:20.314903,162026.1875,184454.5625,178875.296875,191521.5625,184310.265625,182894.40625,691047.125,195507.59375,0.054443359375,1.013671875,-0.020263671875,-1.6479490995407104,0.3662109076976776,0.2441406100988388,93.33334350585938,152245.0,1.0
15:38:20.317444,162061.6875,184461.71875,178884.328125,191520.21875,184312.3125,182898.25,690546.6875,195503.03125,0.052734375,1.013427734375,-0.02197265625,-1.5258787870407104,0.3356933295726776,0.2746581733226776,93.33334350585938,152246.0,1.0
15:38:20.319860,162190.53125,184482.640625,178903.8125,191557.5,184331.453125,182902.015625,690874.3125,195508.578125,0.054931640625,1.0146484375,-0.026611328125,-1.4953612089157104,0.3662109076976776,0.2746581733226776,93.33334350585938,152247.0,1.0
15:38:20.322412,162159.765625,184481.109375,178894.078125,191518.96875,184329.84375,182903.078125,691554.4375,195504.734375,0.05517578125,1.013916015625,-0.023193359375,-1.4343260526657104,0.3356933295726776,0.2136230319738388,93.33334350585938,152248.0,1.0
15:38:20.324892,162036.203125,184455.453125,178874.140625,191520.21875,184309.71875,182898.25,691195.4375,195504.1875,0.053955078125,1.012939453125,-0.0244140625,-1.4953612089157104,0.3662109076976776,0.1525878757238388,93.33334350585938,152249.0,1.0
15:38:20.327406,162038.796875,184455.09375,178877.265625,191514.578125,184307.484375,182897.53125,690571.3125,195505.71875,0.05126953125,1.01318359375,-0.022705078125,-1.4953612089157104,0.4272460639476776,0.0610351525247097,93.33334350585938,152250.0,1.0
15:38:20.333629,162161.015625,184468.859375,178888.796875,191541.859375,184317.953125,182892.625,690746.5625,195505.4375,0.051025390625,1.012451171875,-0.01904296875,-1.4953612089157104,0.3967284858226776,0.1220703050494194,93.33334350585938,152251.0,1.0
15:38:20.338550,162160.75,184470.65625,178880.21875,191509.84375,184317.59375,182891.1875,691459.75,195499.625,0.051513671875,1.012939453125,-0.018798828125,-1.4648436307907104,0.3051757514476776,-0.0915527269244194,93.33334350585938,152252.0,1.0
15:38:20.341093,162036.921875,184444.375,178859.390625,191505.375,184297.5625,182883.6875,691321.25,195501.59375,0.048828125,1.013427734375,-0.01806640625,-1.5869139432907104,0.2746581733226776,-0.1220703050494194,93.33334350585938,152253.0,1.0
15:38:20.343611,162002.5,184434.4375,178851.609375,191490.09375,184284.421875,182879.84375,690613.875,195489.53125,0.04931640625,1.01708984375,-0.0185546875,-1.4953612089157104,0.2441406100988388,-0.1220703050494194,93.33334350585938,152254.0,1.0
15:38:20.346042,162126.515625,184454.203125,178871.453125,191526.828125,184299.796875,182881.796875,690666.1875,195503.125,0.048828125,1.015380859375,-0.0166015625,-1.5869139432907104,0.2441406100988388,-0.2136230319738388,93.33334350585938,152255.0,1.0
15:38:20.349101,162163.609375,184463.140625,178871.359375,191505.828125,184305.515625,182881.984375,691350.75,195493.640625,0.048828125,1.012939453125,-0.016357421875,-1.7089842557907104,0.2441406100988388,-0.3051757514476776,93.33334350585938,152256.0,1.0
15:38:20.349133,162050.25,184443.75,178854.109375,191486.6875,184291.125,182878.5,691439.4375,195490.875,0.048583984375,1.013916015625,-0.016845703125,-1.8920897245407104,0.1525878757238388,-0.4577636420726776,93.33334350585938,152257.0,1.0
15:38:20.351642,161995.171875,184430.78125,178850.984375,191492.859375,184283.4375,182875.71875,690692.875,195494.0,0.0498046875,1.015380859375,-0.016357421875,-1.9226073026657104,0.0915527269244194,-0.3662109076976776,93.33334350585938,152258.0,1.0
15:38:20.351668,162109.796875,184453.046875,178874.9375,191521.015625,184304.453125,182882.96875,690599.3125,195501.6875,0.05029296875,1.015380859375,-0.01611328125,-1.9531248807907104,0.0915527269244194,-0.2746581733226776,93.33334350585938,152259.0,1.0
15:38:20.353568,162183.015625,184473.6875,178885.125,191521.203125,184322.0625,182890.46875,691226.6875,195503.03125,0.052001953125,1.013427734375,-0.014404296875,-2.044677495956421,0.1831054538488388,-0.2136230319738388,93.33334350585938,152260.0,1.0
15:38:20.356054,162088.25,184465.109375,178875.125,191496.875,184315.984375,182895.03125,691532.8125,195499.453125,0.0546875,1.0126953125,-0.017333984375,-2.105712652206421,0.0915527269244194,-0.2136230319738388,93.33334350585938,152261.0,1.0
15:38:20.358582,162013.59375,184455.09375,178873.953125,191512.171875,184311.234375,182900.671875,690807.1875,195507.328125,0.052978515625,1.014404296875,-0.017822265625,-1.9531248807907104,0.0,-0.1220703050494194,93.33334350585938,152262.0,1.0
15:38:20.361626,162101.75,184470.296875,178893.0,191525.765625,184326.4375,182905.671875,690572.0,195511.796875,0.052490234375,1.01318359375,-0.0166015625,-2.014159917831421,-0.03051757626235485,-0.1831054538488388,93.33334350585938,152263.0,1.0
15:38:20.361651,162198.125,184486.296875,178904.09375,191542.921875,184341.015625,182906.21875,691108.625,195512.6875,0.05224609375,1.01318359375,-0.015625,-1.9836424589157104,0.1220703050494194,-0.2136230319738388,93.33334350585938,152264.0,1.0
15:38:20.364075,162122.390625,184481.203125,178892.46875,191509.046875,184331.8125,182907.546875,691594.5,195508.296875,0.0517578125,1.013427734375,-0.01513671875,-2.105712652206421,0.1525878757238388,-0.1525878757238388,93.33334350585938,152265.0,1.0
15:38:20.364087,162027.71875,184462.34375,178881.828125,191522.625,184313.296875,182903.53125,690938.875,195508.75,0.049560546875,1.0126953125,-0.01611328125,-2.105712652206421,0.0610351525247097,-0.0610351525247097,93.33334350585938,152266.0,1.0
15:38:20.370436,162085.03125,184469.140625,178893.359375,191520.125,184318.65625,182903.4375,690549.5625,195505.53125,0.048828125,1.013427734375,-0.016357421875,-2.197265386581421,0.0,-0.1525878757238388,93.33334350585938,152267.0,1.0
15:38:20.370511,162198.65625,184483.796875,178907.484375,191551.78125,184336.28125,182903.796875,690965.875,195513.484375,0.047119140625,1.013427734375,-0.014892578125,-2.197265386581421,0.0,-0.0915527269244194,93.33334350585938,152268.0,1.0
15:38:20.372856,162141.4375,184480.21875,178895.6875,191508.59375,184333.140625,182905.578125,691586.625,195503.125,0.049072265625,1.01171875,-0.01416015625,-2.288818120956421,-0.0610351525247097,-0.1831054538488388,93.33334350585938,152269.0,1.0
15:38:20.384219,162035.40625,184465.203125,178886.828125,191524.6875,184321.078125,182907.546875,691078.9375,195514.65625,0.04833984375,1.01025390625,-0.013916015625,-2.258300542831421,-0.0610351525247097,-0.1525878757238388,93.33334350585938,152270.0,1.0
15:38:20.384297,162069.90625,184474.671875,178899.171875,191525.484375,184325.28125,182911.84375,690554.5625,195517.875,0.0458984375,1.010009765625,-0.01611328125,-2.258300542831421,0.0610351525247097,-0.0915527269244194,93.33334350585938,152271.0,1.0
15:38:20.386667,162198.84375,184494.078125,178919.546875,191561.4375,184346.5625,182913.625,690855.1875,195526.625,0.049072265625,1.00830078125,-0.013671875,-2.258300542831421,-0.03051757626235485,-0.0915527269244194,93.33334350585938,152272.0,1.0
15:38:20.386705,162168.625,184491.21875,178908.109375,191518.515625,184343.515625,182909.515625,691531.1875,195515.375,0.0478515625,1.009033203125,-0.014404296875,-2.197265386581421,-0.1220703050494194,-0.03051757626235485,93.33334350585938,152273.0,1.0
15:38:20.396081,162046.125,184465.921875,178889.15625,191519.6875,184322.953125,182902.90625,691210.625,195517.875,0.047607421875,1.0087890625,-0.01318359375,-2.105712652206421,-0.2136230319738388,-0.03051757626235485,93.33334350585938,152274.0,1.0
15:38:20.400385,162040.953125,184461.171875,178890.3125,191513.25,184316.34375,182899.59375,690574.875,195515.28125,0.049560546875,1.00830078125,-0.015869140625,-2.136230230331421,-0.2136230319738388,0.0610351525247097,93.33334350585938,152275.0,1.0
15:38:20.400419,162163.875,184474.046875,178901.84375,191543.8125,184326.890625,182894.234375,690734.125,195517.15625,0.048583984375,1.007080078125,-0.013671875,-2.136230230331421,-0.2746581733226776,0.1831054538488388,93.33334350585938,152276.0,1.0
15:38:20.411132,162163.515625,184473.515625,178889.25,191505.375,184322.5,182888.953125,691439.4375,195497.125,0.046630859375,1.007568359375,-0.011474609375,-2.014159917831421,-0.2746581733226776,0.0915527269244194,93.33334350585938,152277.0,1.0
15:38:20.416047,162042.46875,184448.296875,178867.078125,191498.3125,184300.6875,182882.34375,691339.3125,195494.53125,0.048583984375,1.0068359375,-0.0107421875,-1.8920897245407104,-0.2746581733226776,0.03051757626235485,93.33334350585938,152278.0,1.0
15:38:20.416112,162013.59375,184443.46875,178870.203125,191499.296875,184298.453125,182885.015625,690623.625,195496.5,0.048828125,1.009033203125,-0.0126953125,-1.8005369901657104,-0.3356933295726776,0.0,93.33334350585938,152279.0,1.0
15:38:20.416139,162140.453125,184467.890625,178897.296875,191537.375,184321.796875,182892.984375,690660.0,195512.234375,0.04931640625,1.009033203125,-0.011962890625,-1.6784666776657104,-0.2746581733226776,0.1220703050494194,93.33334350585938,152280.0,1.0
15:38:20.418623,162185.96875,184485.5,178900.421875,191517.625,184331.53125,182898.34375,691342.0625,195504.375,0.048828125,1.011474609375,-0.013671875,-1.7089842557907104,-0.3662109076976776,0.2136230319738388,93.33334350585938,152281.0,1.0
15:38:20.422336,162078.671875,184473.15625,178886.46875,191498.671875,184321.96875,182900.84375,691471.25,195500.703125,0.0478515625,1.011474609375,-0.0146484375,-1.6479490995407104,-0.2136230319738388,0.1525878757238388,93.33334350585938,152282.0,1.0
