Timestamp,Fz,FC3,FCz,FC4,Cz,C3,C4
12:08:25.118102,202118.96875,196482.125,220674.046875,209169.15625,221482.640625,179118.125,-705755.3125,180433.75,0.020751953125,0.971923828125,-0.23876953125,-0.6408690810203552,0.6103515028953552,1.0375975370407104,86.66667175292969,159457.0,1.0
12:08:25.127820,202116.46875,196478.734375,220675.65625,209168.4375,221490.859375,179117.765625,-705754.5625,180434.5625,0.02001953125,0.972900390625,-0.239013671875,-0.4272460639476776,0.7324218153953552,0.8850097060203552,86.66667175292969,159458.0,1.0
12:08:25.132521,202099.921875,196460.3125,220662.328125,209168.171875,221456.09375,179092.734375,-705764.75,180431.421875,0.020263671875,0.97216796875,-0.238525390625,-0.2746581733226776,0.9155272841453552,0.7629393935203552,86.66667175292969,159459.0,1.0
12:08:25.132596,202101.796875,196466.921875,220660.09375,209170.046875,221445.71875,179096.84375,-705769.6875,180430.265625,0.017333984375,0.974853515625,-0.23876953125,-0.1220703050494194,1.0375975370407104,0.6103515028953552,86.66667175292969,159460.0,1.0
12:08:25.138781,202121.296875,196482.921875,220671.90625,209176.03125,221476.109375,179115.53125,-705763.4375,180438.75,0.01171875,0.97900390625,-0.235595703125,-0.1525878757238388,1.0986326932907104,0.4882812201976776,86.66667175292969,159461.0,1.0
12:08:25.138882,202125.40625,196484.984375,220679.046875,209177.296875,221493.453125,179117.859375,-705757.0625,180440.359375,0.010009765625,0.981689453125,-0.237060546875,-0.1220703050494194,1.0986326932907104,0.1220703050494194,86.66667175292969,159462.0,1.0
12:08:25.144915,202114.59375,196472.5625,220672.875,209179.796875,221467.265625,179101.765625,-705760.9375,180438.578125,0.0087890625,0.986328125,-0.234375,-0.2136230319738388,0.9765624403953552,-0.0610351525247097,86.66667175292969,159463.0,1.0
12:08:25.144970,202111.546875,196474.25,220667.96875,209181.84375,221448.3125,179101.140625,-705768.0,180435.265625,0.008544921875,0.987060546875,-0.235107421875,-0.2746581733226776,0.9460448622703552,-0.2136230319738388,86.66667175292969,159464.0,1.0
12:08:25.150700,202124.234375,196484.453125,220673.515625,209180.234375,221469.859375,179114.8125,-705769.875,180436.515625,0.009765625,0.989013671875,-0.234619140625,-0.2746581733226776,0.8850097060203552,-0.3662109076976776,86.66667175292969,159465.0,1.0
12:08:25.153488,202130.953125,196488.734375,220682.0,209178.625,221493.28125,179123.84375,-705761.375,180438.75,0.009033203125,0.98974609375,-0.233642578125,-0.3967284858226776,0.7324218153953552,-0.3967284858226776,86.66667175292969,159466.0,1.0
12:08:25.168606,202118.4375,196475.15625,220675.65625,209179.34375,221472.359375,179108.734375,-705764.125,180437.421875,0.01220703125,0.991455078125,-0.23486328125,-0.4882812201976776,0.6713866591453552,-0.5798339247703552,86.66667175292969,159467.0,1.0
12:08:25.168644,202112.4375,196471.484375,220669.65625,209182.828125,221449.296875,179101.765625,-705768.0625,180438.484375,0.012939453125,0.9931640625,-0.234130859375,-0.6408690810203552,0.6103515028953552,-0.5187987685203552,86.66667175292969,159468.0,1.0
12:08:25.171158,202128.53125,196487.40625,220677.359375,209187.75,221468.96875,179116.25,-705765.0625,180443.046875,0.013671875,0.993896484375,-0.235107421875,-0.7934569716453552,0.5187987685203552,-0.4272460639476776,86.66667175292969,159469.0,1.0
12:08:25.171176,202137.921875,196492.40625,220685.578125,209185.78125,221493.546875,179124.296875,-705757.875,180443.40625,0.015869140625,0.99365234375,-0.23828125,-0.9765624403953552,0.5493163466453552,-0.2746581733226776,86.66667175292969,159470.0,1.0
12:08:25.173007,202126.484375,196479.53125,220680.390625,209184.625,221479.328125,179111.953125,-705755.125,180440.8125,0.015869140625,0.99267578125,-0.23828125,-0.9765624403953552,0.4577636420726776,-0.2441406100988388,86.66667175292969,159471.0,1.0
12:08:25.190094,202114.859375,196471.75,220669.578125,209183.734375,221448.671875,179100.421875,-705758.5,180436.25,0.01318359375,0.99169921875,-0.23876953125,-1.2207030057907104,0.4577636420726776,-0.2136230319738388,86.66667175292969,159472.0,1.0
12:08:25.190115,202124.328125,196483.46875,220674.40625,209184.171875,221460.640625,179113.828125,-705756.875,180434.5625,0.012451171875,0.992431640625,-0.2333984375,-1.3427733182907104,0.4882812201976776,-0.03051757626235485,86.66667175292969,159473.0,1.0
12:08:25.193234,202143.015625,196499.921875,220690.40625,209189.546875,221497.390625,179136.453125,-705758.5,180443.578125,0.011474609375,0.991943359375,-0.234619140625,-1.4648436307907104,0.5187987685203552,0.03051757626235485,86.66667175292969,159474.0,1.0
12:08:25.193336,202133.625,196488.46875,220687.1875,209184.0,221490.234375,179123.84375,-705755.1875,180439.296875,0.010986328125,0.991455078125,-0.236083984375,-1.6479490995407104,0.4577636420726776,0.1831054538488388,86.66667175292969,159475.0,1.0
12:08:25.198624,202114.765625,196470.40625,220670.734375,209177.296875,221453.671875,179102.5625,-705762.25,180431.609375,0.0078125,0.992919921875,-0.237060546875,-1.7395018339157104,0.5798339247703552,0.1525878757238388,86.66667175292969,159476.0,1.0
12:08:25.198642,202119.953125,196479.984375,220670.828125,209177.828125,221458.859375,179111.515625,-705771.1875,180432.5,0.007568359375,0.991943359375,-0.238525390625,-1.9531248807907104,0.6408690810203552,0.1831054538488388,86.66667175292969,159477.0,1.0
12:08:25.204891,202135.859375,196493.5625,220681.828125,209181.40625,221488.90625,179128.046875,-705765.375,180441.078125,0.00634765625,0.99169921875,-0.23486328125,-2.044677495956421,0.5493163466453552,0.3967284858226776,86.66667175292969,159478.0,1.0
12:08:25.204913,202131.3125,196490.265625,220683.171875,209179.34375,221489.53125,179125.375,-705760.5,180440.8125,0.005126953125,0.991943359375,-0.2353515625,-2.136230230331421,0.4577636420726776,0.4577636420726776,86.66667175292969,159479.0,1.0
12:08:25.214485,202116.375,196473.90625,220673.0625,209179.171875,221458.59375,179105.875,-705768.6875,180438.9375,0.003662109375,0.989501953125,-0.2314453125,-2.227782964706421,0.3356933295726776,0.5798339247703552,86.66667175292969,159480.0,1.0
12:08:25.218631,202117.71875,196478.015625,220671.0,209180.59375,221455.8125,179111.6875,-705768.375,180440.640625,0.00390625,0.989501953125,-0.231689453125,-2.288818120956421,0.1525878757238388,0.6408690810203552,86.66667175292969,159481.0,1.0
12:08:25.218655,202134.34375,196492.765625,220681.828125,209182.46875,221487.203125,179131.1875,-705766.3125,180445.828125,0.0048828125,0.989501953125,-0.228271484375,-2.380370855331421,0.0,0.6713866591453552,86.66667175292969,159482.0,1.0
12:08:25.226268,202134.96875,196494.109375,220687.28125,209182.296875,221497.9375,179133.6875,-705768.8125,180447.703125,0.006103515625,0.99072265625,-0.231201171875,-2.563476324081421,-0.1220703050494194,0.7629393935203552,86.66667175292969,159483.0,1.0
12:08:25.226286,202120.484375,196477.125,220677.0,209183.546875,221468.15625,179114.46875,-705768.8125,180445.640625,0.007080078125,0.989501953125,-0.23388671875,-2.655029058456421,-0.1831054538488388,0.9765624403953552,86.66667175292969,159484.0,1.0
12:08:25.228106,202116.46875,196477.75,220671.90625,209182.390625,221454.84375,179113.75,-705770.9375,180440.359375,0.00732421875,0.9873046875,-0.230712890625,-2.685546636581421,-0.1831054538488388,1.0070799589157104,86.66667175292969,159485.0,1.0
12:08:25.243118,202133.1875,196489.8125,220681.5625,209185.15625,221482.46875,179129.21875,-705766.0,180444.296875,0.0078125,0.9873046875,-0.232177734375,-2.655029058456421,-0.3662109076976776,1.0375975370407104,86.66667175292969,159486.0,1.0
12:08:25.246730,202134.4375,196490.078125,220685.671875,209182.5625,221496.59375,179131.53125,-705755.1875,180445.015625,0.008056640625,0.98828125,-0.2333984375,-2.655029058456421,-0.4272460639476776,1.0681151151657104,86.66667175292969,159487.0,1.0
12:08:25.246755,202120.484375,196476.21875,220678.515625,209183.109375,221471.46875,179116.609375,-705757.5,180444.84375,0.01025390625,0.986328125,-0.231201171875,-2.716064214706421,-0.4272460639476776,1.1291502714157104,86.66667175292969,159488.0,1.0
12:08:25.246759,202114.671875,196475.234375,220671.546875,209182.46875,221452.875,179114.8125,-705762.0625,180441.265625,0.010009765625,0.985107421875,-0.234130859375,-2.685546636581421,-0.5187987685203552,1.1291502714157104,86.66667175292969,159489.0,1.0
12:08:25.249268,202131.390625,196490.265625,220681.375,209188.28125,221478.796875,179131.71875,-705754.5625,180447.515625,0.012939453125,0.98388671875,-0.227783203125,-2.716064214706421,-0.5798339247703552,1.0986326932907104,86.66667175292969,159490.0,1.0
12:08:25.251748,202139.890625,196494.828125,220688.703125,209190.703125,221499.265625,179133.234375,-705762.375,180452.171875,0.011962890625,0.98681640625,-0.233642578125,-2.746581792831421,-0.4882812201976776,1.2207030057907104,86.66667175292969,159491.0,1.0
12:08:25.256960,202122.625,196473.453125,220677.265625,209185.78125,221472.625,179111.421875,-705770.5625,180444.5625,0.013427734375,0.98388671875,-0.235107421875,-2.655029058456421,-0.6103515028953552,1.3122557401657104,86.66667175292969,159492.0,1.0
12:08:25.267346,202113.78125,196471.03125,220668.6875,209181.765625,221448.046875,179105.96875,-705773.25,180438.21875,0.015380859375,0.98583984375,-0.232177734375,-2.746581792831421,-0.5493163466453552,1.2817381620407104,86.66667175292969,159493.0,1.0
12:08:25.267369,202124.234375,196479.078125,220672.609375,209181.84375,221465.75,179116.25,-705766.3125,180439.65625,0.015869140625,0.985595703125,-0.23291015625,-2.655029058456421,-0.5798339247703552,1.3427733182907104,86.66667175292969,159494.0,1.0
12:08:25.270899,202135.0625,196486.140625,220683.875,209183.28125,221492.921875,179125.8125,-705766.3125,180443.9375,0.016357421875,0.98779296875,-0.236328125,-2.685546636581421,-0.4577636420726776,1.3122557401657104,86.66667175292969,159495.0,1.0
12:08:25.275527,202123.96875,196474.890625,220679.59375,209180.859375,221478.796875,179113.03125,-705766.125,180440.09375,0.01806640625,0.985595703125,-0.235107421875,-2.624511480331421,-0.3051757514476776,1.3427733182907104,86.66667175292969,159496.0,1.0
12:08:25.331248,202115.125,196469.96875,220671.8125,209182.46875,221451.625,179104.8125,-705764.5625,180437.859375,0.0185546875,0.98583984375,-0.234375,-2.593993902206421,-0.2136230319738388,1.3427733182907104,86.66667175292969,159497.0,1.0
12:08:25.331261,202128.53125,196483.375,220678.96875,209187.65625,221466.09375,179117.046875,-705759.125,180441.0,0.0205078125,0.987548828125,-0.235107421875,-2.593993902206421,-0.1831054538488388,1.4343260526657104,86.66667175292969,159498.0,1.0
12:08:25.356407,202137.65625,196487.125,220685.3125,209182.5625,221490.859375,179124.03125,-705746.0,180441.0,0.020263671875,0.986572265625,-0.239013671875,-2.563476324081421,-0.0610351525247097,1.4038084745407104,86.66667175292969,159499.0,1.0
12:08:25.356444,202128.890625,196479.53125,220682.265625,209180.859375,221485.765625,179116.25,-705742.75,180439.296875,0.021728515625,0.99169921875,-0.235595703125,-2.532958745956421,0.0610351525247097,1.4343260526657104,86.66667175292969,159500.0,1.0
12:08:25.374267,202115.5625,196466.84375,220671.625,209179.53125,221455.015625,179100.515625,-705745.5625,180435.984375,0.020263671875,0.990478515625,-0.23486328125,-2.593993902206421,0.1220703050494194,1.4648436307907104,86.66667175292969,159501.0,1.0
12:08:25.401883,202121.734375,196479.0,220674.671875,209179.609375,221459.65625,179113.828125,-705745.5625,180435.1875,0.01953125,0.992919921875,-0.23486328125,-2.532958745956421,0.3051757514476776,1.4343260526657104,86.66667175292969,159502.0,1.0
12:08:25.404349,202137.390625,196490.625,220685.046875,209180.59375,221491.140625,179125.453125,-705743.3125,180441.796875,0.01904296875,0.991455078125,-0.238037109375,-2.685546636581421,0.3967284858226776,1.3732908964157104,86.66667175292969,159503.0,1.0
12:08:25.406870,202128.4375,196482.03125,220681.828125,209175.59375,221488.984375,179116.78125,-705742.125,180436.078125,0.021240234375,0.992431640625,-0.2373046875,-2.746581792831421,0.4272460639476776,1.2817381620407104,86.66667175292969,159504.0,1.0
12:08:25.410569,202111.546875,196468.0,220669.578125,209173.796875,221455.8125,179102.484375,-705737.9375,180429.453125,0.021484375,0.995361328125,-0.236083984375,-2.746581792831421,0.4577636420726776,1.2207030057907104,86.66667175292969,159505.0,1.0
12:08:25.411750,202116.734375,196477.125,220672.171875,209178.0,221456.0,179109.8125,-705737.25,180433.03125,0.020751953125,0.995361328125,-0.23583984375,-2.838134527206421,0.5798339247703552,1.1901854276657104,86.66667175292969,159506.0,1.0
12:08:25.414441,202135.6875,196491.78125,220685.3125,209185.421875,221488.1875,179126.703125,-705743.3125,180441.890625,0.02099609375,0.995361328125,-0.2373046875,-2.899169683456421,0.7934569716453552,1.2207030057907104,86.66667175292969,159507.0,1.0
12:08:25.416860,202132.921875,196485.96875,220687.09375,209184.0,221496.5,179124.109375,-705740.0,180441.53125,0.02197265625,0.994873046875,-0.236083984375,-2.929687261581421,0.8544921278953552,1.1291502714157104,86.66667175292969,159508.0,1.0
12:08:25.419418,202119.0625,196472.828125,220678.515625,209184.4375,221466.90625,179108.46875,-705744.5625,180440.359375,0.02294921875,0.993896484375,-0.23388671875,-3.051757574081421,1.0681151151657104,1.2512205839157104,86.66667175292969,159509.0,1.0
12:08:25.421879,202122.09375,196479.703125,220679.765625,209189.265625,221459.21875,179114.46875,-705744.8125,180442.421875,0.022705078125,0.992431640625,-0.23193359375,-3.173827886581421,1.0681151151657104,1.2207030057907104,86.66667175292969,159510.0,1.0
12:08:25.424356,202138.015625,196490.53125,220688.4375,209192.125,221486.75,179126.796875,-705746.375,180448.765625,0.02099609375,0.98974609375,-0.23291015625,-3.356933355331421,1.2817381620407104,1.0986326932907104,86.66667175292969,159511.0,1.0
12:08:25.426885,202138.546875,196491.875,220692.546875,209190.4375,221502.765625,179130.28125,-705749.375,180449.9375,0.02001953125,0.9873046875,-0.232421875,-3.448486089706421,1.2512205839157104,1.1291502714157104,86.66667175292969,159512.0,1.0
12:08:25.429713,202124.515625,196475.0625,220682.984375,209188.5625,221475.671875,179111.0625,-705750.75,180446.0,0.01806640625,0.987060546875,-0.23388671875,-3.479003667831421,1.3427733182907104,1.0986326932907104,86.66667175292969,159513.0,1.0
12:08:25.432575,202120.125,196475.515625,220676.734375,209187.484375,221456.453125,179108.5625,-705748.5,180442.0625,0.01953125,0.98779296875,-0.234130859375,-3.417968511581421,1.3427733182907104,1.1291502714157104,86.66667175292969,159514.0,1.0
12:08:25.432593,202138.015625,196491.25,220686.921875,209194.546875,221482.90625,179126.265625,-705751.375,180450.828125,0.021240234375,0.988037109375,-0.236328125,-3.387450933456421,1.4648436307907104,1.1596678495407104,86.66667175292969,159515.0,1.0
12:08:25.434969,202142.125,196493.84375,220692.46875,209189.1875,221500.96875,179129.84375,-705754.3125,180447.15625,0.019287109375,0.9873046875,-0.233642578125,-3.387450933456421,1.4343260526657104,1.1596678495407104,86.66667175292969,159516.0,1.0
12:08:25.434990,202125.9375,196479.265625,220683.4375,209186.046875,221476.5625,179111.953125,-705754.6875,180440.90625,0.01806640625,0.985595703125,-0.233154296875,-3.356933355331421,1.4953612089157104,1.1291502714157104,86.66667175292969,159517.0,1.0
12:08:25.437490,202114.5,196471.9375,220671.546875,209183.375,221447.59375,179103.28125,-705751.8125,180434.828125,0.015380859375,0.984619140625,-0.231201171875,-3.387450933456421,1.5869139432907104,1.0375975370407104,86.66667175292969,159518.0,1.0
12:08:25.437511,202128.890625,196484.625,220676.8125,209186.5,221465.03125,179115.09375,-705757.25,180437.234375,0.0146484375,0.9833984375,-0.22998046875,-3.448486089706421,1.5258787870407104,1.0375975370407104,86.66667175292969,159519.0,1.0
12:08:25.439962,202133.984375,196488.65625,220681.46875,209180.6875,221488.1875,179124.296875,-705753.75,180435.71875,0.01416015625,0.983154296875,-0.232177734375,-3.448486089706421,1.5258787870407104,1.0681151151657104,86.66667175292969,159520.0,1.0
12:08:25.439984,202117.796875,196470.59375,220672.25,209175.953125,221470.578125,179106.328125,-705751.875,180429.8125,0.0126953125,0.984375,-0.232666015625,-3.387450933456421,1.5563963651657104,1.1291502714157104,86.66667175292969,159521.0,1.0
12:08:25.441856,202103.40625,196460.484375,220659.5625,209171.125,221437.765625,179091.84375,-705745.0,180423.46875,0.012939453125,0.98486328125,-0.229248046875,-3.326415777206421,1.4953612089157104,1.0986326932907104,86.66667175292969,159522.0,1.0
12:08:25.444309,202109.3125,196467.640625,220658.046875,209167.71875,221445.53125,179101.9375,-705747.125,180420.15625,0.012451171875,0.984130859375,-0.23193359375,-3.265380620956421,1.3732908964157104,1.0375975370407104,86.66667175292969,159523.0,1.0
12:08:25.446899,202120.21875,196476.40625,220664.296875,209166.109375,221473.515625,179113.203125,-705747.125,180423.640625,0.01171875,0.98046875,-0.23193359375,-3.173827886581421,1.2817381620407104,1.1596678495407104,86.66667175292969,159524.0,1.0
12:08:25.449417,202110.921875,196468.71875,220661.890625,209163.25,221466.28125,179105.4375,-705754.875,180419.890625,0.0126953125,0.979736328125,-0.22900390625,-3.112792730331421,1.3122557401657104,1.1291502714157104,86.66667175292969,159525.0,1.0
12:08:25.452083,202094.015625,196449.140625,220647.21875,209161.828125,221430.421875,179083.171875,-705759.9375,180416.578125,0.009765625,0.977294921875,-0.2314453125,-2.960204839706421,1.1901854276657104,1.0681151151657104,86.66667175292969,159526.0,1.0
12:08:25.456801,202098.21875,196459.859375,220646.859375,209160.578125,221433.015625,179093.265625,-705755.8125,180415.78125,0.010498046875,0.978271484375,-0.230224609375,-2.868652105331421,1.1596678495407104,1.0681151151657104,86.66667175292969,159527.0,1.0
12:08:25.459450,202114.859375,196472.734375,220659.203125,209162.453125,221464.484375,179108.921875,-705754.875,180422.484375,0.00830078125,0.97802734375,-0.228271484375,-2.777099370956421,0.9460448622703552,1.0070799589157104,86.66667175292969,159528.0,1.0
12:08:25.461797,202110.203125,196466.75,220660.71875,209161.46875,221467.171875,179104.0,-705757.0,180423.203125,0.0087890625,0.978271484375,-0.23046875,-2.746581792831421,0.7629393935203552,1.0070799589157104,86.66667175292969,159529.0,1.0
12:08:25.464965,202096.34375,196454.859375,220650.984375,209163.078125,221436.421875,179090.140625,-705756.8125,180422.03125,0.009765625,0.979736328125,-0.23095703125,-2.746581792831421,0.8239745497703552,1.0070799589157104,86.66667175292969,159530.0,1.0
12:08:25.465015,202099.125,196460.75,220648.75,209163.078125,221430.078125,179093.0,-705762.8125,180419.359375,0.010986328125,0.97900390625,-0.229248046875,-2.655029058456421,0.7934569716453552,1.0070799589157104,86.66667175292969,159531.0,1.0
12:08:25.467969,202114.859375,196473.90625,220657.859375,209163.25,221458.140625,179108.375,-705767.5625,180423.203125,0.0107421875,0.980712890625,-0.2275390625,-2.502441167831421,0.6103515028953552,1.0986326932907104,86.66667175292969,159532.0,1.0
12:08:25.468010,202113.25,196471.3125,220661.171875,209162.890625,221467.890625,179107.671875,-705769.4375,180424.09375,0.010986328125,0.982177734375,-0.226806640625,-2.471923589706421,0.5493163466453552,1.0681151151657104,86.66667175292969,159533.0,1.0
12:08:25.468027,202093.75,196453.15625,220647.3125,209157.703125,221434.625,179087.546875,-705773.875,180418.1875,0.01123046875,0.981201171875,-0.226806640625,-2.441406011581421,0.4577636420726776,1.0375975370407104,86.66667175292969,159534.0,1.0
12:08:25.471986,202088.921875,196452.703125,220639.09375,209154.765625,221420.5,179088.0,-705774.3125,180411.9375,0.011474609375,0.9833984375,-0.232666015625,-2.380370855331421,0.4272460639476776,1.2207030057907104,86.66667175292969,159535.0,1.0
12:08:25.472020,202105.46875,196466.75,220649.375,209159.140625,221449.109375,179107.3125,-705767.5625,180417.75,0.011474609375,0.983642578125,-0.233154296875,-2.380370855331421,0.3356933295726776,1.3427733182907104,86.66667175292969,159536.0,1.0
12:08:25.472032,202109.9375,196468.890625,220656.4375,209159.40625,221466.1875,179108.65625,-705764.875,180420.421875,0.012451171875,0.982177734375,-0.234130859375,-2.319335699081421,0.3662109076976776,1.2817381620407104,86.66667175292969,159537.0,1.0
12:08:25.476301,202095.0,196452.890625,220648.65625,209160.296875,221439.90625,179091.21875,-705764.3125,180419.796875,0.01416015625,0.98095703125,-0.2314453125,-2.227782964706421,0.3051757514476776,1.2512205839157104,86.66667175292969,159538.0,1.0
12:08:25.476315,202092.234375,196454.9375,220645.796875,209165.21875,221424.53125,179091.390625,-705762.5625,180423.015625,0.012451171875,0.983154296875,-0.23193359375,-2.197265386581421,0.2746581733226776,1.2817381620407104,86.66667175292969,159539.0,1.0
12:08:25.476319,202108.59375,196469.25,220654.375,209167.453125,221447.421875,179106.6875,-705767.25,180424.90625,0.012451171875,0.98486328125,-0.2333984375,-2.227782964706421,0.2746581733226776,1.3427733182907104,86.66667175292969,159540.0,1.0
12:08:25.476322,202117.09375,196473.984375,220661.625,209167.015625,221468.96875,179113.5625,-705776.125,180425.875,0.01318359375,0.98291015625,-0.232177734375,-2.227782964706421,0.2746581733226776,1.4038084745407104,86.66667175292969,159541.0,1.0
12:08:25.478611,202105.90625,196466.5625,220656.515625,209167.453125,221452.59375,179103.546875,-705769.0,180426.0625,0.01318359375,0.98583984375,-0.232421875,-2.197265386581421,0.1831054538488388,1.4648436307907104,86.66667175292969,159542.0,1.0
12:08:25.478621,202097.78125,196458.34375,220647.484375,209166.46875,221427.03125,179093.453125,-705764.6875,180422.125,0.01416015625,0.98583984375,-0.233642578125,-2.227782964706421,0.1220703050494194,1.3427733182907104,86.66667175292969,159543.0,1.0
12:08:25.480678,202113.328125,196471.9375,220655.8125,209171.921875,221445.453125,179109.09375,-705769.6875,180425.796875,0.013671875,0.985107421875,-0.231201171875,-2.166747808456421,-0.03051757626235485,1.3732908964157104,86.66667175292969,159544.0,1.0
12:08:25.483724,202123.96875,196476.9375,220666.171875,209174.25,221473.609375,179114.90625,-705772.75,180431.421875,0.01318359375,0.986328125,-0.2333984375,-2.258300542831421,-0.1220703050494194,1.3122557401657104,86.66667175292969,159545.0,1.0
12:08:25.483755,202111.90625,196465.9375,220662.515625,209173.984375,221460.5625,179103.015625,-705761.3125,180429.734375,0.013427734375,0.9853515625,-0.230224609375,-2.197265386581421,-0.03051757626235485,1.2817381620407104,86.66667175292969,159546.0,1.0
12:08:25.485515,202101.265625,196457.984375,220653.484375,209173.796875,221430.609375,179090.046875,-705755.5625,180426.421875,0.013916015625,0.98486328125,-0.23193359375,-2.319335699081421,-0.03051757626235485,1.2817381620407104,86.66667175292969,159547.0,1.0
12:08:25.488103,202112.4375,196472.640625,220658.125,209175.0625,221443.125,179104.453125,-705756.75,180426.515625,0.015380859375,0.982666015625,-0.23486328125,-2.136230230331421,0.03051757626235485,1.1901854276657104,86.66667175292969,159548.0,1.0
12:08:25.490499,202127.109375,196482.75,220671.71875,209177.296875,221477.453125,179118.75,-705760.3125,180433.484375,0.015625,0.983642578125,-0.235107421875,-2.166747808456421,0.03051757626235485,1.1901854276657104,86.66667175292969,159549.0,1.0
12:08:25.493691,202112.171875,196468.796875,220666.359375,209171.921875,221469.859375,179106.59375,-705764.5,180429.453125,0.015625,0.983642578125,-0.23388671875,-2.075195074081421,0.0610351525247097,1.0681151151657104,86.66667175292969,159550.0,1.0
12:08:25.493703,202097.515625,196456.28125,220652.234375,209170.40625,221433.015625,179088.53125,-705765.0625,180424.90625,0.016845703125,0.982421875,-0.234130859375,-2.105712652206421,-0.03051757626235485,0.9460448622703552,86.66667175292969,159551.0,1.0
12:08:25.500614,202106.09375,196465.40625,220652.765625,209172.640625,221434.359375,179095.0625,-705772.4375,180425.34375,0.015380859375,0.982421875,-0.235595703125,-2.105712652206421,-0.03051757626235485,1.0070799589157104,86.66667175292969,159552.0,1.0
12:08:25.507393,202120.671875,196478.375,220665.46875,209171.921875,221467.703125,179110.796875,-705773.0625,180428.75,0.016357421875,0.982666015625,-0.23583984375,-2.166747808456421,0.0610351525247097,0.9765624403953552,86.66667175292969,159553.0,1.0
12:08:25.507409,202117.453125,196475.6875,220669.390625,209172.640625,221474.234375,179111.59375,-705772.4375,180429.453125,0.016357421875,0.982666015625,-0.234619140625,-2.105712652206421,0.0915527269244194,0.9765624403953552,86.66667175292969,159554.0,1.0
12:08:25.514873,202101.71875,196459.234375,220656.078125,209169.953125,221439.640625,179093.71875,-705777.625,180424.09375,0.0166015625,0.984375,-0.236083984375,-2.166747808456421,0.1220703050494194,0.8544921278953552,86.66667175292969,159555.0,1.0
12:08:25.514887,202100.546875,196461.109375,220652.5,209168.4375,221432.3125,179096.578125,-705774.8125,180419.984375,0.014404296875,0.9833984375,-0.237548828125,-2.166747808456421,0.0610351525247097,0.8544921278953552,86.66667175292969,159556.0,1.0
12:08:25.521200,202119.5,196476.40625,220663.9375,209172.640625,221462.703125,179114.90625,-705770.25,180426.78125,0.01513671875,0.98486328125,-0.237060546875,-2.227782964706421,0.0915527269244194,0.7934569716453552,86.66667175292969,159557.0,1.0
12:08:25.521219,202115.5625,196470.328125,220662.953125,209169.0625,221469.671875,179110.34375,-705765.375,180424.984375,0.01416015625,0.984619140625,-0.236083984375,-2.258300542831421,0.0610351525247097,0.7019042372703552,86.66667175292969,159558.0,1.0
12:08:25.531830,202098.765625,196450.5625,220650.796875,209169.15625,221438.828125,179088.796875,-705769.0,180422.75,0.014892578125,0.98583984375,-0.234375,-2.258300542831421,0.0915527269244194,0.7324218153953552,86.66667175292969,159559.0,1.0
12:08:25.534860,202098.046875,196455.578125,220647.9375,209171.84375,221428.015625,179092.5625,-705769.25,180422.03125,0.014892578125,0.986572265625,-0.23486328125,-2.410888433456421,0.03051757626235485,0.6408690810203552,86.66667175292969,159560.0,1.0
12:08:25.534868,202115.65625,196470.140625,220658.125,209174.609375,221455.015625,179109.8125,-705766.3125,180427.140625,0.013916015625,0.985595703125,-0.234619140625,-2.441406011581421,-0.03051757626235485,0.5798339247703552,86.66667175292969,159561.0,1.0
12:08:25.536769,202117.265625,196472.203125,220662.875,209169.6875,221470.65625,179113.203125,-705766.125,180427.40625,0.011474609375,0.986083984375,-0.236083984375,-2.563476324081421,0.0610351525247097,0.5187987685203552,86.66667175292969,159562.0,1.0
12:08:25.546764,202102.15625,196455.84375,220653.578125,209168.34375,221443.03125,179094.34375,-705763.25,180426.78125,0.01318359375,0.9892578125,-0.237548828125,-2.685546636581421,0.0610351525247097,0.5493163466453552,86.66667175292969,159563.0,1.0
12:08:25.549835,202092.140625,196447.96875,220643.109375,209163.515625,221420.234375,179085.84375,-705757.375,180419.796875,0.013427734375,0.989501953125,-0.236083984375,-2.807616949081421,0.0915527269244194,0.5187987685203552,86.66667175292969,159564.0,1.0
12:08:25.549847,202106.984375,196462.09375,220650.4375,209166.828125,221443.03125,179102.390625,-705765.0625,180423.375,0.011474609375,0.990966796875,-0.2373046875,-2.960204839706421,0.0,0.5798339247703552,86.66667175292969,159565.0,1.0
12:08:25.558005,202115.484375,196469.15625,220658.75,209167.71875,221468.0625,179113.390625,-705770.75,180427.765625,0.012451171875,0.990966796875,-0.236083984375,-3.051757574081421,0.1220703050494194,0.6103515028953552,86.66667175292969,159566.0,1.0
12:08:25.564894,202101.359375,196453.875,220652.3125,209166.65625,221447.328125,179093.453125,-705768.5,180425.875,0.01123046875,0.99072265625,-0.2392578125,-3.265380620956421,0.1525878757238388,0.5798339247703552,86.66667175292969,159567.0,1.0
12:08:25.564910,202093.84375,196450.203125,220644.8125,209167.546875,221422.921875,179086.296875,-705764.4375,180424.984375,0.011962890625,0.991455078125,-0.236083984375,-3.356933355331421,-0.0610351525247097,0.7324218153953552,86.66667175292969,159568.0,1.0
12:08:25.566738,202109.40625,196466.390625,220653.921875,209173.625,221442.59375,179103.546875,-705766.4375,180428.65625,0.011962890625,0.992919921875,-0.237060546875,-3.540038824081421,-0.0610351525247097,0.7629393935203552,86.66667175292969,159569.0,1.0
12:08:25.569252,202122.8125,196476.140625,220666.53125,209176.125,221472.8125,179115.171875,-705767.875,180433.921875,0.01416015625,0.992919921875,-0.234130859375,-3.753661870956421,-0.03051757626235485,0.7934569716453552,86.66667175292969,159570.0,1.0
12:08:25.578598,202115.5625,196470.328125,220667.421875,209177.828125,221464.9375,179109.359375,-705768.625,180436.25,0.0126953125,0.99365234375,-0.2353515625,-3.997802495956421,0.03051757626235485,0.9155272841453552,86.66667175292969,159571.0,1.0
12:08:25.578612,202106.984375,196462.8125,220659.46875,209178.71875,221437.671875,179094.609375,-705765.5,180433.84375,0.011474609375,0.991943359375,-0.235107421875,-4.089354991912842,0.1525878757238388,1.0375975370407104,86.66667175292969,159572.0,1.0
12:08:25.580601,202122.09375,196481.140625,220668.140625,209183.109375,221453.765625,179111.0625,-705767.0,180436.796875,0.0107421875,0.991455078125,-0.23779296875,-4.333495616912842,0.1525878757238388,1.1596678495407104,86.66667175292969,159573.0,1.0
12:08:25.588058,202138.8125,196494.828125,220681.734375,209185.34375,221488.0,179128.765625,-705761.8125,180442.78125,0.010986328125,0.9921875,-0.236083984375,-4.333495616912842,0.1525878757238388,1.3427733182907104,86.66667175292969,159574.0,1.0
12:08:25.594818,202130.953125,196482.484375,220681.375,209184.890625,221485.140625,179119.640625,-705755.375,180443.5,0.010009765625,0.99169921875,-0.23681640625,-4.547118663787842,0.2441406100988388,1.3122557401657104,86.66667175292969,159575.0,1.0
12:08:25.594826,202115.125,196469.703125,220668.234375,209184.078125,221449.375,179103.546875,-705747.4375,180441.53125,0.01171875,0.990966796875,-0.23193359375,-4.699706554412842,0.1831054538488388,1.3732908964157104,86.66667175292969,159576.0,1.0
12:08:25.601183,202104.125,196465.234375,220652.140625,209164.953125,221434.625,179099.265625,-705754.6875,180420.78125,0.01171875,0.990234375,-0.227783203125,-4.730224132537842,0.2746581733226776,1.4648436307907104,86.66667175292969,159577.0,1.0
12:08:25.601195,202105.640625,196459.5,220647.84375,209154.3125,221450.453125,179098.90625,-705763.8125,180413.28125,0.01416015625,0.988525390625,-0.2294921875,-4.913329601287842,0.3051757514476776,1.4648436307907104,86.66667175292969,159578.0,1.0
12:08:25.606812,202096.53125,196449.84375,220644.8125,209150.203125,221448.75,179089.6875,-705764.3125,180408.09375,0.01220703125,0.98779296875,-0.229736328125,-4.974364757537842,0.3356933295726776,1.5869139432907104,86.66667175292969,159579.0,1.0
12:08:25.611137,202077.921875,196431.4375,220628.984375,209145.640625,221409.5,179065.203125,-705775.6875,180400.3125,0.011962890625,0.987548828125,-0.228515625,-4.882812023162842,0.2746581733226776,1.7700194120407104,86.66667175292969,159580.0,1.0
12:08:25.611147,202079.265625,196435.28125,220626.03125,209143.9375,221401.640625,179067.25,-705779.875,180396.921875,0.015380859375,0.987548828125,-0.227294921875,-5.065917491912842,0.3967284858226776,1.8310545682907104,86.66667175292969,159581.0,1.0
12:08:25.620545,202100.109375,196449.765625,220640.34375,209148.234375,221434.984375,179086.296875,-705770.3125,180404.609375,0.0146484375,0.98681640625,-0.231201171875,-4.943847179412842,0.3356933295726776,1.9531248807907104,86.66667175292969,159582.0,1.0
12:08:25.623729,202105.640625,196453.96875,220649.8125,209152.53125,221451.171875,179091.296875,-705760.8125,180410.234375,0.015869140625,0.98486328125,-0.230224609375,-4.943847179412842,0.4577636420726776,1.9836424589157104,86.66667175292969,159583.0,1.0
12:08:25.623746,202097.6875,196445.5625,220645.96875,209158.96875,221427.03125,179076.734375,-705763.625,180415.0625,0.01513671875,0.98388671875,-0.2314453125,-4.943847179412842,0.4577636420726776,2.044677495956421,86.66667175292969,159584.0,1.0
12:08:25.630543,202102.15625,196454.59375,220648.03125,209164.234375,221421.21875,179085.5,-705768.375,180417.75,0.015380859375,0.983154296875,-0.229248046875,-4.913329601287842,0.5493163466453552,2.014159917831421,86.66667175292969,159585.0,1.0
12:08:25.641340,202119.0625,196469.421875,220656.96875,209168.625,221449.03125,179104.0,-705766.125,180422.84375,0.015625,0.982421875,-0.22998046875,-4.852294445037842,0.4882812201976776,2.075195074081421,86.66667175292969,159586.0,1.0
12:08:25.641414,202121.65625,196467.46875,220659.375,209169.953125,221463.59375,179105.078125,-705766.125,180426.59375,0.015625,0.981689453125,-0.227783203125,-4.821776866912842,0.4577636420726776,2.227782964706421,86.66667175292969,159587.0,1.0
12:08:25.644251,202103.40625,196448.78125,220647.140625,209165.671875,221433.921875,179082.90625,-705762.25,180419.984375,0.01708984375,0.98046875,-0.2275390625,-4.669188976287842,0.5798339247703552,2.288818120956421,86.66667175292969,159588.0,1.0
12:08:25.644327,202094.734375,196446.265625,220638.90625,209162.71875,221412.71875,179080.046875,-705756.125,180415.6875,0.01708984375,0.9794921875,-0.228515625,-4.608153820037842,0.6408690810203552,2.227782964706421,86.66667175292969,159589.0,1.0
12:08:25.653165,202110.921875,196461.828125,220647.84375,209166.203125,221437.140625,179096.765625,-705750.1875,180421.59375,0.01904296875,0.979248046875,-0.228515625,-4.486083507537842,0.7019042372703552,2.166747808456421,86.66667175292969,159590.0,1.0
12:08:25.679053,202116.375,196466.03125,220654.734375,209163.796875,221460.203125,179105.078125,-705750.4375,180423.5625,0.018798828125,0.9775390625,-0.225341796875,-4.394530773162842,0.7019042372703552,2.136230230331421,86.66667175292969,159591.0,1.0
12:08:25.679158,202102.15625,196452.53125,220649.375,209161.28125,221441.25,179091.03125,-705759.375,180421.6875,0.017822265625,0.977294921875,-0.231201171875,-4.150390148162842,0.7324218153953552,2.136230230331421,86.66667175292969,159592.0,1.0
12:08:25.704707,202095.359375,196452.4375,220644.625,209162.625,221419.609375,179088.078125,-705760.375,180420.78125,0.01708984375,0.978271484375,-0.22900390625,-4.089354991912842,0.7324218153953552,2.075195074081421,86.66667175292969,159593.0,1.0
12:08:25.707823,202105.28125,196456.734375,220650.703125,209164.59375,221438.390625,179096.40625,-705753.5625,180423.015625,0.0185546875,0.976318359375,-0.223876953125,-3.875732183456421,0.7934569716453552,1.9836424589157104,86.66667175292969,159594.0,1.0
12:08:25.709447,202116.1875,196463.34375,220660.71875,209164.328125,221467.703125,179106.859375,-705751.4375,180426.328125,0.019287109375,0.975341796875,-0.22509765625,-3.723144292831421,0.7324218153953552,1.8920897245407104,86.66667175292969,159595.0,1.0
12:08:25.711950,202106.1875,196459.0625,220654.109375,209160.390625,221452.0625,179098.90625,-705753.5625,180420.15625,0.020263671875,0.975341796875,-0.224365234375,-3.509521245956421,0.7934569716453552,1.8310545682907104,86.66667175292969,159596.0,1.0
12:08:25.714368,202097.6875,196452.359375,220644.0,209159.59375,221421.21875,179089.15625,-705752.0625,180416.5,0.021728515625,0.97314453125,-0.2265625,-3.295898199081421,0.7934569716453552,1.7089842557907104,86.66667175292969,159597.0,1.0
12:08:25.716868,202104.9375,196460.9375,220648.46875,209160.390625,221433.828125,179099.0,-705749.6875,180418.46875,0.02294921875,0.973388671875,-0.226318359375,-3.051757574081421,0.9155272841453552,1.8005369901657104,86.66667175292969,159598.0,1.0
12:08:25.719453,202119.0625,196471.9375,220658.9375,209165.046875,221464.046875,179112.9375,-705751.1875,180425.703125,0.023193359375,0.974853515625,-0.23095703125,-2.716064214706421,0.9765624403953552,1.7089842557907104,86.66667175292969,159599.0,1.0
12:08:25.722044,202109.21875,196459.6875,220654.109375,209161.28125,221456.171875,179099.4375,-705753.25,180422.484375,0.0244140625,0.9755859375,-0.229736328125,-2.471923589706421,1.0681151151657104,1.7089842557907104,86.66667175292969,159600.0,1.0
12:08:25.724533,202091.609375,196444.125,220641.765625,209159.671875,221422.46875,179081.734375,-705755.5,180419.890625,0.02685546875,0.974365234375,-0.227294921875,-2.349853277206421,1.1596678495407104,1.6174315214157104,86.66667175292969,159601.0,1.0
12:08:25.726818,202096.078125,196452.078125,220640.703125,209155.921875,221423.453125,179090.234375,-705748.4375,180414.703125,0.026611328125,0.972412109375,-0.229248046875,-2.075195074081421,1.3122557401657104,1.6174315214157104,86.66667175292969,159602.0,1.0
12:08:25.729417,202112.078125,196462.28125,220651.0625,209159.5,221455.28125,179103.546875,-705746.5,180421.859375,0.025634765625,0.9716796875,-0.226318359375,-1.8615721464157104,1.3732908964157104,1.5869139432907104,86.66667175292969,159603.0,1.0
12:08:25.732046,202107.171875,196457.453125,220651.875,209159.140625,221458.328125,179099.703125,-705739.75,180422.578125,0.02587890625,0.971435546875,-0.228271484375,-1.5563963651657104,1.4953612089157104,1.4038084745407104,86.66667175292969,159604.0,1.0
12:08:25.734737,202091.875,196444.484375,220641.40625,209158.875,221425.59375,179082.546875,-705752.6875,180419.09375,0.023681640625,0.97021484375,-0.228271484375,-1.3122557401657104,1.5869139432907104,1.4038084745407104,86.66667175292969,159605.0,1.0
12:08:25.736922,202092.859375,196448.515625,220639.359375,209160.03125,221420.328125,179086.484375,-705760.5,180417.296875,0.021240234375,0.97314453125,-0.228515625,-1.0986326932907104,1.5563963651657104,1.2817381620407104,86.66667175292969,159606.0,1.0
12:08:25.739288,202110.109375,196462.28125,220650.984375,209162.71875,221452.6875,179103.28125,-705756.5625,180423.375,0.018798828125,0.97412109375,-0.228515625,-0.8850097060203552,1.5563963651657104,1.1596678495407104,86.66667175292969,159607.0,1.0
12:08:25.743218,202109.765625,196462.015625,220655.265625,209159.953125,221464.046875,179104.625,-705757.8125,180423.640625,0.01611328125,0.978515625,-0.22607421875,-0.7629393935203552,1.6479490995407104,0.9155272841453552,86.66667175292969,159608.0,1.0
12:08:25.743281,202092.328125,196447.078125,220643.015625,209156.375,221430.703125,179086.296875,-705758.9375,180418.90625,0.017822265625,0.980224609375,-0.225830078125,-0.7019042372703552,1.6174315214157104,0.7019042372703552,86.66667175292969,159609.0,1.0
12:08:25.743306,202090.984375,196450.390625,220640.15625,209157.890625,221419.15625,179089.25,-705756.875,180418.375,0.016845703125,0.982666015625,-0.223388671875,-0.7324218153953552,1.5258787870407104,0.5187987685203552,86.66667175292969,159610.0,1.0
12:08:25.746193,202107.515625,196461.03125,220650.078125,209161.90625,221447.59375,179104.71875,-705751.375,180424.90625,0.01611328125,0.98583984375,-0.224853515625,-0.7934569716453552,1.5258787870407104,0.4272460639476776,86.66667175292969,159611.0,1.0
12:08:25.746250,202109.484375,196465.3125,220655.265625,209157.703125,221465.03125,179110.96875,-705750.4375,180424.1875,0.01611328125,0.98681640625,-0.22509765625,-0.6103515028953552,1.5258787870407104,0.1525878757238388,86.66667175292969,159612.0,1.0
12:08:25.748074,202094.203125,196450.65625,220646.421875,209154.9375,221439.1875,179095.421875,-705752.875,180418.46875,0.015869140625,0.987060546875,-0.225830078125,-0.6103515028953552,1.3732908964157104,0.2136230319738388,86.66667175292969,159613.0,1.0
12:08:25.751246,202090.890625,196449.3125,220641.765625,209158.34375,221421.390625,179091.03125,-705759.875,180419.359375,0.018310546875,0.990478515625,-0.224853515625,-0.7019042372703552,1.3122557401657104,0.2136230319738388,86.66667175292969,159614.0,1.0
12:08:25.751328,202111.015625,196465.859375,220652.3125,209165.9375,221446.34375,179107.484375,-705760.3125,180427.484375,0.019775390625,0.991943359375,-0.22509765625,-0.8239745497703552,1.3732908964157104,0.1831054538488388,86.66667175292969,159615.0,1.0
12:08:25.753098,202119.40625,196471.671875,220660.8125,209166.921875,221469.953125,179117.046875,-705753.4375,180430.796875,0.02001953125,0.992431640625,-0.2236328125,-0.9155272841453552,1.3122557401657104,0.1525878757238388,86.66667175292969,159616.0,1.0
12:08:25.755870,202106.1875,196457.984375,220652.859375,209163.96875,221449.5625,179100.875,-705745.4375,180426.6875,0.021484375,0.991455078125,-0.223876953125,-0.9460448622703552,1.1596678495407104,0.2746581733226776,86.66667175292969,159617.0,1.0
12:08:25.765610,202097.59375,196452.078125,220644.09375,209164.140625,221423.90625,179091.9375,-705750.8125,180424.8125,0.02001953125,0.990478515625,-0.223876953125,-1.0681151151657104,1.1901854276657104,0.3051757514476776,86.66667175292969,159618.0,1.0
12:08:25.771127,202110.203125,196466.390625,220650.078125,209166.5625,221441.515625,179108.03125,-705750.3125,180428.75,0.021484375,0.991943359375,-0.222412109375,-1.2207030057907104,1.2207030057907104,0.3051757514476776,86.66667175292969,159619.0,1.0
12:08:25.771159,202119.5,196472.375,220658.671875,209166.5625,221469.046875,179119.28125,-705744.0,180434.203125,0.02001953125,0.9912109375,-0.2236328125,-1.3122557401657104,1.2512205839157104,0.4577636420726776,86.66667175292969,159620.0,1.0
12:08:25.773106,202105.90625,196456.546875,220652.9375,209162.625,221455.109375,179102.75,-705744.375,180430.078125,0.018798828125,0.991455078125,-0.225830078125,-1.3732908964157104,1.2512205839157104,0.5187987685203552,86.66667175292969,159621.0,1.0
12:08:25.788146,202095.1875,196448.234375,220643.734375,209162.71875,221425.25,179091.84375,-705750.9375,180427.578125,0.017822265625,0.991455078125,-0.224853515625,-1.5563963651657104,1.1291502714157104,0.5493163466453552,86.66667175292969,159622.0,1.0
12:08:25.791811,202107.078125,196462.8125,220650.078125,209165.84375,221439.453125,179109.359375,-705750.9375,180431.0625,0.015380859375,0.990478515625,-0.22314453125,-1.5258787870407104,1.0986326932907104,0.7019042372703552,86.66667175292969,159623.0,1.0
12:08:25.791835,202121.46875,196472.015625,220660.453125,209168.890625,221469.234375,179120.8125,-705751.8125,180437.0625,0.014404296875,0.991455078125,-0.22265625,-1.7395018339157104,1.0070799589157104,0.5798339247703552,86.66667175292969,159624.0,1.0
12:08:25.791842,202112.53125,196462.1875,220657.234375,209169.421875,221462.609375,179109.28125,-705754.6875,180436.25,0.01318359375,0.991943359375,-0.22119140625,-1.8005369901657104,0.9155272841453552,0.5798339247703552,86.66667175292969,159625.0,1.0
12:08:25.794449,202096.25,196450.65625,220643.828125,209164.328125,221426.859375,179095.0625,-705752.8125,180428.5625,0.013916015625,0.9921875,-0.220703125,-1.8310545682907104,0.7324218153953552,0.6103515028953552,86.66667175292969,159626.0,1.0
12:08:25.796885,202102.421875,196461.921875,220645.53125,209164.328125,221428.734375,179103.46875,-705753.25,180425.796875,0.014892578125,0.990966796875,-0.220703125,-1.9226073026657104,0.5493163466453552,0.7019042372703552,86.66667175292969,159627.0,1.0
12:08:25.800514,202120.84375,196471.9375,220658.40625,209171.125,221460.296875,179115.4375,-705753.5,180435.984375,0.014404296875,0.991455078125,-0.220947265625,-2.014159917831421,0.4272460639476776,0.7629393935203552,86.66667175292969,159628.0,1.0
12:08:25.816186,202117.171875,196465.671875,220659.921875,209172.375,221463.234375,179110.171875,-705753.9375,180437.328125,0.014892578125,0.990966796875,-0.218505859375,-2.105712652206421,0.3967284858226776,0.8239745497703552,86.66667175292969,159629.0,1.0
12:08:25.816206,202105.828125,196453.96875,220651.6875,209174.15625,221433.28125,179094.171875,-705754.5625,180436.515625,0.012451171875,0.989013671875,-0.220458984375,-2.136230230331421,0.2746581733226776,0.8544921278953552,86.66667175292969,159630.0,1.0
12:08:25.819326,202105.828125,196456.28125,220647.84375,209170.859375,221426.3125,179093.1875,-705760.3125,180431.25,0.01416015625,0.98828125,-0.219482421875,-2.197265386581421,0.1525878757238388,0.8239745497703552,86.66667175292969,159631.0,1.0
12:08:25.819340,202122.359375,196469.703125,220659.203125,209175.0625,221456.890625,179108.203125,-705755.75,180437.421875,0.014892578125,0.987548828125,-0.220458984375,-2.197265386581421,0.03051757626235485,0.8239745497703552,86.66667175292969,159632.0,1.0
12:08:25.825525,202122.625,196469.96875,220665.90625,209177.015625,221469.234375,179110.796875,-705748.0625,180441.0,0.0146484375,0.987060546875,-0.218017578125,-2.258300542831421,-0.1220703050494194,0.8850097060203552,86.66667175292969,159633.0,1.0
12:08:25.832352,202107.96875,196455.84375,220655.984375,209174.078125,221437.765625,179094.34375,-705749.8125,180435.8125,0.0146484375,0.986083984375,-0.218017578125,-2.288818120956421,-0.2441406100988388,0.9155272841453552,86.66667175292969,159634.0,1.0
12:08:25.832365,202109.21875,196459.421875,220653.125,209177.46875,221427.125,179097.03125,-705763.0,180434.5625,0.015625,0.9873046875,-0.220947265625,-2.319335699081421,-0.3662109076976776,0.9155272841453552,86.66667175292969,159635.0,1.0
12:08:25.834904,202124.78125,196472.5625,220662.515625,209179.53125,221454.296875,179113.65625,-705759.125,180439.65625,0.016357421875,0.987060546875,-0.221435546875,-2.288818120956421,-0.4272460639476776,0.9460448622703552,86.66667175292969,159636.0,1.0
12:08:25.834916,202130.046875,196477.828125,220672.34375,209179.890625,221475.046875,179122.78125,-705750.1875,180443.859375,0.018798828125,0.985595703125,-0.219970703125,-2.258300542831421,-0.5493163466453552,0.8850097060203552,86.66667175292969,159637.0,1.0
12:08:25.846784,202118.25,196466.75,220667.15625,209181.9375,221454.03125,179109.984375,-705748.25,180443.234375,0.020751953125,0.98779296875,-0.21923828125,-2.227782964706421,-0.4882812201976776,0.9155272841453552,86.66667175292969,159638.0,1.0
12:08:25.854248,202112.34375,196465.3125,220660.8125,209178.28125,221434.984375,179105.96875,-705748.5625,180436.96875,0.022216796875,0.98583984375,-0.214111328125,-2.227782964706421,-0.4882812201976776,1.0070799589157104,86.66667175292969,159639.0,1.0
12:08:25.854264,202126.296875,196477.03125,220669.484375,209181.578125,221460.109375,179119.46875,-705746.6875,180442.609375,0.02392578125,0.984375,-0.217041015625,-2.166747808456421,-0.3967284858226776,1.0375975370407104,86.66667175292969,159640.0,1.0
12:08:25.854266,202135.234375,196482.390625,220677.703125,209183.453125,221483.71875,179129.296875,-705739.125,180446.890625,0.023681640625,0.983642578125,-0.218017578125,-2.227782964706421,-0.4577636420726776,1.0070799589157104,86.66667175292969,159641.0,1.0
12:08:25.857435,202120.390625,196467.46875,220669.21875,209179.703125,221462.34375,179113.296875,-705738.1875,180441.625,0.023193359375,0.98486328125,-0.216552734375,-2.227782964706421,-0.4577636420726776,1.0375975370407104,86.66667175292969,159642.0,1.0
12:08:25.857448,202107.875,196460.3125,220658.484375,209176.484375,221434.546875,179105.15625,-705748.75,180437.0625,0.02490234375,0.98388671875,-0.218017578125,-2.166747808456421,-0.3967284858226776,0.9460448622703552,86.66667175292969,159643.0,1.0
12:08:25.866965,202120.484375,196472.640625,220663.046875,209177.203125,221451.53125,179120.890625,-705752.4375,180438.40625,0.025634765625,0.981689453125,-0.2216796875,-2.044677495956421,-0.3356933295726776,1.0681151151657104,86.66667175292969,159644.0,1.0
12:08:25.873675,202126.65625,196471.484375,220666.71875,209174.609375,221475.40625,179120.09375,-705749.5625,180440.546875,0.0244140625,0.982177734375,-0.21923828125,-2.014159917831421,-0.3662109076976776,1.0375975370407104,86.66667175292969,159645.0,1.0
12:08:25.873693,202116.46875,196464.875,220664.296875,209173.453125,221465.390625,179112.046875,-705749.3125,180437.859375,0.022705078125,0.982666015625,-0.2197265625,-1.8310545682907104,-0.3662109076976776,1.0681151151657104,86.66667175292969,159646.0,1.0
12:08:25.888362,202108.15625,196461.65625,220658.75,209175.140625,221438.828125,179104.8125,-705750.0,180437.328125,0.024658203125,0.983642578125,-0.219970703125,-1.7700194120407104,-0.3051757514476776,0.9460448622703552,86.66667175292969,159647.0,1.0
12:08:25.888440,202116.640625,196468.53125,220662.78125,209177.296875,221448.40625,179113.75,-705746.8125,180438.40625,0.024658203125,0.984375,-0.22021484375,-1.6479490995407104,-0.2441406100988388,1.0375975370407104,86.66667175292969,159648.0,1.0
12:08:25.892452,202133.71875,196482.921875,220676.90625,209182.75,221482.546875,179130.828125,-705744.9375,180448.234375,0.02392578125,0.983154296875,-0.216552734375,-1.6174315214157104,-0.0915527269244194,0.8850097060203552,86.66667175292969,159649.0,1.0
12:08:25.892492,202122.71875,196472.375,220672.796875,209178.8125,221475.84375,179119.828125,-705751.1875,180444.03125,0.023681640625,0.981201171875,-0.220458984375,-1.4343260526657104,0.0,0.9155272841453552,86.66667175292969,159650.0,1.0
12:08:25.901133,202108.328125,196459.421875,220659.03125,209174.609375,221440.53125,179104.453125,-705757.625,180437.0625,0.0224609375,0.980224609375,-0.2197265625,-1.3122557401657104,-0.1220703050494194,0.8544921278953552,86.66667175292969,159651.0,1.0
12:08:25.901145,202114.234375,196468.453125,220658.484375,209175.59375,221442.59375,179113.203125,-705759.6875,180437.59375,0.022705078125,0.981201171875,-0.2216796875,-1.2207030057907104,-0.0915527269244194,0.8239745497703552,86.66667175292969,159652.0,1.0
12:08:25.903600,202129.34375,196474.53125,220668.140625,209179.609375,221472.09375,179120.265625,-705765.5625,180445.375,0.021484375,0.982421875,-0.2216796875,-1.1291502714157104,-0.1831054538488388,0.7324218153953552,86.66667175292969,159653.0,1.0
12:08:25.903614,202126.296875,196470.765625,220671.90625,209181.9375,221478.34375,179117.328125,-705766.5625,180448.6875,0.02392578125,0.9833984375,-0.220947265625,-1.0375975370407104,-0.0915527269244194,0.7324218153953552,86.66667175292969,159654.0,1.0
12:08:25.905519,202111.90625,196455.03125,220662.0625,209183.453125,221446.078125,179098.90625,-705769.75,180447.515625,0.022705078125,0.984130859375,-0.220458984375,-0.8544921278953552,-0.03051757626235485,0.6713866591453552,86.66667175292969,159655.0,1.0
12:08:25.921193,202111.015625,196456.015625,220657.6875,209182.203125,221439.015625,179100.6875,-705771.3125,180443.5,0.025146484375,0.986328125,-0.21923828125,-0.7324218153953552,0.1525878757238388,0.5187987685203552,86.66667175292969,159656.0,1.0
12:08:25.921246,202126.921875,196469.703125,220668.59375,209185.875,221470.125,179119.109375,-705768.25,180449.21875,0.02587890625,0.98388671875,-0.2177734375,-0.6713866591453552,0.0915527269244194,0.4577636420726776,86.66667175292969,159657.0,1.0
12:08:25.927822,202126.296875,196470.40625,220673.59375,209185.0625,221481.125,179119.28125,-705760.5,180451.09375,0.026611328125,0.9833984375,-0.222412109375,-0.5798339247703552,0.1831054538488388,0.3967284858226776,86.66667175292969,159658.0,1.0
12:08:25.927894,202108.953125,196451.640625,220661.703125,209183.109375,221449.375,179096.3125,-705763.9375,180446.0,0.0244140625,0.981689453125,-0.22216796875,-0.5187987685203552,0.1831054538488388,0.4272460639476776,86.66667175292969,159659.0,1.0
12:08:25.934011,202106.1875,196450.203125,220655.984375,209181.84375,221434.09375,179092.28125,-705770.5625,180442.953125,0.025146484375,0.9814453125,-0.222412109375,-0.2441406100988388,0.2136230319738388,0.3356933295726776,86.66667175292969,159660.0,1.0
12:08:25.934090,202120.84375,196461.921875,220663.40625,209180.859375,221457.703125,179104.359375,-705771.5,180444.390625,0.02490234375,0.981689453125,-0.222900390625,-0.1831054538488388,0.3051757514476776,0.3356933295726776,86.66667175292969,159661.0,1.0
12:08:25.943807,202124.59375,196466.03125,220669.3125,209178.453125,221476.46875,179110.890625,-705771.75,180445.90625,0.024658203125,0.9814453125,-0.220947265625,-0.0915527269244194,0.3051757514476776,0.3662109076976776,86.66667175292969,159662.0,1.0
12:08:25.944117,202109.046875,196451.09375,220660.09375,209176.484375,221450.640625,179094.703125,-705772.5625,180442.609375,0.024169921875,0.984375,-0.221923828125,-0.0610351525247097,0.4272460639476776,0.1831054538488388,86.66667175292969,159663.0,1.0
12:08:25.946300,202100.453125,196447.796875,220649.90625,209172.734375,221426.9375,179089.15625,-705765.0625,180435.265625,0.02490234375,0.983642578125,-0.2236328125,0.1831054538488388,0.5187987685203552,0.2136230319738388,86.66667175292969,159664.0,1.0
12:08:25.946384,202111.09375,196457.8125,220652.59375,209170.140625,221445.359375,179102.390625,-705758.875,180434.28125,0.022216796875,0.98388671875,-0.224609375,0.1831054538488388,0.5493163466453552,0.1525878757238388,86.66667175292969,159665.0,1.0
12:08:25.955548,202117.359375,196463.34375,220658.484375,209170.40625,221466.640625,179112.671875,-705757.4375,180436.078125,0.0224609375,0.98193359375,-0.223388671875,0.3356933295726776,0.5187987685203552,0.0915527269244194,86.66667175292969,159666.0,1.0
12:08:25.974390,202104.578125,196448.234375,220651.328125,209169.875,221447.5,179095.859375,-705766.125,180434.203125,0.0224609375,0.981689453125,-0.2197265625,0.4577636420726776,0.5493163466453552,-0.0610351525247097,86.66667175292969,159667.0,1.0
12:08:25.974441,202093.9375,196441.359375,220640.875,209164.859375,221419.875,179084.515625,-705777.3125,180426.953125,0.019287109375,0.9833984375,-0.2197265625,0.6713866591453552,0.6103515028953552,-0.03051757626235485,86.66667175292969,159668.0,1.0
12:08:25.974458,202104.9375,196452.359375,220644.265625,209165.9375,221434.265625,179098.546875,-705783.875,180425.796875,0.02099609375,0.983154296875,-0.22216796875,0.8544921278953552,0.6713866591453552,-0.03051757626235485,86.66667175292969,159669.0,1.0
12:08:25.981276,202119.140625,196463.890625,220656.078125,209168.078125,221463.234375,179112.9375,-705780.625,180431.96875,0.01953125,0.982421875,-0.224609375,1.0070799589157104,0.5493163466453552,-0.1525878757238388,86.66667175292969,159670.0,1.0
12:08:25.981367,202106.546875,196452.984375,220650.4375,209164.859375,221449.296875,179100.609375,-705776.6875,180428.203125,0.02001953125,0.98046875,-0.2236328125,1.0681151151657104,0.4272460639476776,-0.2136230319738388,86.66667175292969,159671.0,1.0
12:08:25.981390,202091.96875,196439.484375,220637.65625,209161.109375,221415.9375,179083.34375,-705779.6875,180422.9375,0.017822265625,0.978515625,-0.227294921875,1.2512205839157104,0.3662109076976776,-0.3356933295726776,86.66667175292969,159672.0,1.0
12:08:25.983413,202102.421875,196452.703125,220643.203125,209162.625,221428.109375,179097.109375,-705780.4375,180421.765625,0.016357421875,0.9794921875,-0.224853515625,1.3732908964157104,0.3051757514476776,-0.3051757514476776,86.66667175292969,159673.0,1.0
12:08:25.985654,202116.828125,196463.625,220654.28125,209167.015625,221460.296875,179111.515625,-705770.75,180429.453125,0.015625,0.97802734375,-0.223876953125,1.5258787870407104,0.1831054538488388,-0.3051757514476776,86.66667175292969,159674.0,1.0
12:08:25.989424,202104.296875,196453.328125,220650.703125,209164.328125,221455.546875,179104.359375,-705771.5625,180426.6875,0.015625,0.980224609375,-0.22607421875,1.6784666776657104,0.1220703050494194,-0.3356933295726776,86.66667175292969,159675.0,1.0
12:08:26.000020,202087.859375,196442.25,220638.015625,209160.921875,221421.390625,179091.75,-705771.375,180420.515625,0.017333984375,0.9833984375,-0.2236328125,1.8005369901657104,0.1220703050494194,-0.3356933295726776,86.66667175292969,159676.0,1.0
12:08:26.000057,202091.78125,196445.375,220637.03125,209162.625,221420.6875,179093.0,-705762.4375,180419.265625,0.016845703125,0.98291015625,-0.225341796875,1.7700194120407104,0.1220703050494194,-0.2746581733226776,86.66667175292969,159677.0,1.0
12:08:26.002327,202110.203125,196457.09375,220650.703125,209167.71875,221453.40625,179108.828125,-705756.5625,180427.671875,0.016845703125,0.985107421875,-0.226318359375,1.8920897245407104,0.0915527269244194,-0.2746581733226776,86.66667175292969,159678.0,1.0
12:08:26.002338,202106.546875,196453.609375,220653.21875,209167.015625,221458.328125,179105.875,-705761.8125,180427.40625,0.01806640625,0.985107421875,-0.2275390625,1.9531248807907104,0.0915527269244194,-0.3051757514476776,86.66667175292969,159679.0,1.0
12:08:26.009368,202091.609375,196439.75,220643.109375,209165.671875,221425.875,179088.71875,-705764.5625,180424.71875,0.017822265625,0.9853515625,-0.227294921875,1.9836424589157104,-0.03051757626235485,-0.4577636420726776,86.66667175292969,159680.0,1.0
12:08:26.041723,202088.296875,196442.703125,220636.140625,209159.953125,221415.3125,179092.734375,-705768.5,180417.75,0.017333984375,0.98681640625,-0.225830078125,2.014159917831421,-0.0610351525247097,-0.3051757514476776,86.66667175292969,159681.0,1.0
12:08:26.041755,202103.5,196454.671875,220645.703125,209162.984375,221445.8125,179106.234375,-705777.3125,180425.171875,0.0185546875,0.987548828125,-0.22607421875,1.9836424589157104,-0.0610351525247097,-0.2136230319738388,86.66667175292969,159682.0,1.0
12:08:26.094438,202102.78125,196452.890625,220649.8125,209162.1875,221458.0625,179104.984375,-705774.25,180425.796875,0.018310546875,0.988037109375,-0.22802734375,1.9836424589157104,-0.0915527269244194,-0.3356933295726776,86.66667175292969,159683.0,1.0
12:08:26.099368,202090.984375,196440.8125,220643.28125,209163.34375,221430.78125,179089.421875,-705772.1875,180423.109375,0.017822265625,0.98681640625,-0.2275390625,1.9836424589157104,-0.1525878757238388,-0.2136230319738388,86.66667175292969,159684.0,1.0
12:08:26.101847,202089.375,196442.96875,220640.15625,209164.59375,221418.71875,179088.265625,-705773.4375,180422.75,0.019287109375,0.988525390625,-0.2255859375,1.9836424589157104,-0.1525878757238388,-0.2441406100988388,86.66667175292969,159685.0,1.0
12:08:26.106851,202102.34375,196453.15625,220647.3125,209164.140625,221443.921875,179101.859375,-705760.125,180424.453125,0.018310546875,0.98828125,-0.225830078125,1.9836424589157104,-0.1525878757238388,-0.1831054538488388,86.66667175292969,159686.0,1.0
12:08:26.109270,202105.015625,196456.28125,220649.640625,209159.5,221458.328125,179105.4375,-705757.5,180422.65625,0.017578125,0.98779296875,-0.229248046875,1.9836424589157104,-0.2136230319738388,-0.2136230319738388,86.66667175292969,159687.0,1.0
12:08:26.111818,202093.578125,196445.828125,220641.328125,209158.6875,221431.859375,179090.765625,-705770.375,180419.171875,0.016845703125,0.986083984375,-0.22705078125,1.9531248807907104,-0.3356933295726776,-0.3051757514476776,86.66667175292969,159688.0,1.0
12:08:26.114312,202092.328125,196448.0625,220638.734375,209162.09375,221414.78125,179090.140625,-705776.5625,180420.34375,0.01806640625,0.9853515625,-0.23046875,1.9531248807907104,-0.1831054538488388,-0.2136230319738388,86.66667175292969,159689.0,1.0
12:08:26.116975,202108.59375,196461.375,220646.6875,209165.3125,221436.78125,179107.125,-705777.9375,180424.265625,0.016845703125,0.985595703125,-0.23193359375,1.8005369901657104,-0.3356933295726776,-0.0915527269244194,86.66667175292969,159690.0,1.0
12:08:26.119471,202117.265625,196469.078125,220655.09375,209165.484375,221461.625,179116.875,-705771.3125,180428.46875,0.017822265625,0.9853515625,-0.2314453125,1.8310545682907104,-0.3051757514476776,-0.03051757626235485,86.66667175292969,159691.0,1.0
12:08:26.121763,202102.78125,196450.46875,220647.40625,209162.890625,221441.15625,179094.171875,-705774.1875,180424.546875,0.016357421875,0.984375,-0.229736328125,1.8005369901657104,-0.3356933295726776,0.0,86.66667175292969,159692.0,1.0
12:08:26.124260,202092.234375,196444.484375,220637.65625,209160.578125,221413.703125,179086.5625,-705776.5625,180419.171875,0.01513671875,0.984375,-0.22998046875,1.7700194120407104,-0.3967284858226776,0.03051757626235485,86.66667175292969,159693.0,1.0
12:08:26.126770,202100.28125,196453.15625,220640.34375,209157.265625,221428.109375,179098.8125,-705771.9375,180419.0,0.014404296875,0.986328125,-0.23193359375,1.7700194120407104,-0.4577636420726776,0.03051757626235485,86.66667175292969,159694.0,1.0
12:08:26.129262,202113.515625,196462.8125,220652.671875,209161.203125,221458.5,179110.34375,-705770.875,180428.125,0.015625,0.9853515625,-0.23193359375,1.7395018339157104,-0.4272460639476776,0.03051757626235485,86.66667175292969,159695.0,1.0
12:08:26.136410,202103.140625,196453.421875,220649.1875,209157.625,221447.421875,179100.6875,-705774.6875,180421.859375,0.016845703125,0.986328125,-0.235107421875,1.6174315214157104,-0.4272460639476776,0.0,86.66667175292969,159696.0,1.0
12:08:26.136449,202092.765625,196444.84375,220641.328125,209159.046875,221419.15625,179087.734375,-705777.3125,180419.625,0.016845703125,0.98779296875,-0.234619140625,1.4953612089157104,-0.3662109076976776,0.0915527269244194,86.66667175292969,159697.0,1.0
12:08:26.136998,202104.9375,196457.8125,220648.203125,209163.96875,221431.859375,179101.9375,-705773.25,180422.484375,0.0166015625,0.98876953125,-0.232666015625,1.4038084745407104,-0.5493163466453552,-0.1831054538488388,86.66667175292969,159698.0,1.0
12:08:26.139248,202120.84375,196470.59375,220660.1875,209166.828125,221463.6875,179117.40625,-705771.0,180429.015625,0.020263671875,0.988525390625,-0.234375,1.3732908964157104,-0.4882812201976776,-0.2746581733226776,86.66667175292969,159699.0,1.0
12:08:26.142620,202112.0,196462.984375,220658.3125,209164.140625,221459.65625,179109.8125,-705776.125,180426.515625,0.021728515625,0.98876953125,-0.23193359375,1.4038084745407104,-0.4882812201976776,-0.03051757626235485,86.66667175292969,159700.0,1.0
12:08:26.144276,202096.96875,196449.3125,220646.6875,209163.875,221425.875,179092.375,-705778.625,180424.71875,0.021240234375,0.986083984375,-0.234130859375,1.2207030057907104,-0.5187987685203552,-0.0915527269244194,86.66667175292969,159701.0,1.0
12:08:26.146999,202104.84375,196460.3125,220648.296875,209166.109375,221427.390625,179102.65625,-705772.625,180425.34375,0.021484375,0.98681640625,-0.232666015625,1.1291502714157104,-0.4272460639476776,-0.0915527269244194,86.66667175292969,159702.0,1.0
12:08:26.149436,202120.484375,196470.859375,220657.765625,209166.5625,221456.265625,179115.53125,-705771.0,180429.28125,0.01953125,0.9873046875,-0.2333984375,1.0070799589157104,-0.4272460639476776,-0.1525878757238388,86.66667175292969,159703.0,1.0
12:08:26.152964,202114.40625,196464.6875,220658.671875,209164.421875,221460.46875,179111.0625,-705774.875,180427.9375,0.018798828125,0.9892578125,-0.23583984375,0.9765624403953552,-0.3662109076976776,-0.03051757626235485,86.66667175292969,159704.0,1.0
12:08:26.154283,202094.5625,196443.59375,220643.5625,209160.578125,221424.34375,179088.359375,-705783.25,180420.96875,0.019287109375,0.98974609375,-0.236083984375,0.7934569716453552,-0.3356933295726776,-0.03051757626235485,86.66667175292969,159705.0,1.0
12:08:26.157023,202093.484375,196448.421875,220639.984375,209159.671875,221416.84375,179094.609375,-705776.75,180417.390625,0.020263671875,0.98974609375,-0.236083984375,0.7934569716453552,-0.3051757514476776,-0.03051757626235485,86.66667175292969,159706.0,1.0
12:08:26.160449,202110.390625,196458.515625,220649.546875,209165.40625,221445.8125,179107.484375,-705769.25,180426.78125,0.021240234375,0.9873046875,-0.236083984375,0.6713866591453552,-0.1525878757238388,-0.0915527269244194,86.66667175292969,159707.0,1.0
12:08:26.160470,202106.09375,196454.3125,220649.546875,209161.5625,221454.203125,179103.015625,-705770.375,180422.75,0.019287109375,0.98779296875,-0.2314453125,0.6103515028953552,-0.2136230319738388,-0.03051757626235485,86.66667175292969,159708.0,1.0
12:08:26.160477,202089.546875,196438.5,220637.296875,209158.34375,221421.9375,179082.453125,-705766.1875,180419.09375,0.020263671875,0.98876953125,-0.236083984375,0.3967284858226776,-0.1831054538488388,-0.1220703050494194,86.66667175292969,159709.0,1.0
12:08:26.163672,202082.9375,196432.6875,220629.078125,209154.21875,221404.046875,179076.828125,-705766.5625,180414.078125,0.019287109375,0.989013671875,-0.235107421875,0.3051757514476776,-0.2136230319738388,-0.1831054538488388,86.66667175292969,159710.0,1.0
12:08:26.163703,202101.71875,196449.578125,220641.5,209160.75,221434.546875,179097.390625,-705762.0,180422.65625,0.01806640625,0.988525390625,-0.23291015625,0.3051757514476776,-0.1220703050494194,0.0,86.66667175292969,159711.0,1.0
12:08:26.172197,202107.515625,196455.390625,220651.25,209162.984375,221456.453125,179106.59375,-705746.4375,180426.78125,0.017822265625,0.9873046875,-0.232666015625,0.2136230319738388,-0.0915527269244194,-0.1525878757238388,86.66667175292969,159712.0,1.0
12:08:26.172218,202093.390625,196441.53125,220644.1875,209164.78125,221433.109375,179089.421875,-705744.0,180426.953125,0.017578125,0.987060546875,-0.23486328125,0.2136230319738388,-0.1525878757238388,-0.03051757626235485,86.66667175292969,159713.0,1.0
12:08:26.172224,202088.5625,196440.640625,220637.5625,209164.6875,221412.640625,179085.5,-705750.125,180424.546875,0.019287109375,0.9873046875,-0.234130859375,0.1220703050494194,-0.1525878757238388,-0.1525878757238388,86.66667175292969,159714.0,1.0
12:08:26.172230,202107.796875,196459.140625,220648.75,209170.859375,221438.65625,179105.078125,-705748.5625,180431.25,0.017578125,0.986572265625,-0.23583984375,0.0,0.0,-0.0610351525247097,86.66667175292969,159715.0,1.0
12:08:26.172235,202116.375,196465.9375,220656.34375,209169.78125,221462.796875,179114.1875,-705744.0,180434.109375,0.01611328125,0.9853515625,-0.234130859375,-0.03051757626235485,0.0,-0.1525878757238388,86.66667175292969,159716.0,1.0
12:08:26.175026,202101.890625,196451.546875,220647.671875,209167.015625,221442.234375,179098.1875,-705742.875,180429.015625,0.01611328125,0.98486328125,-0.235595703125,-0.1525878757238388,0.0,-0.1220703050494194,86.66667175292969,159717.0,1.0
12:08:26.175038,202096.96875,196450.296875,220641.59375,209168.96875,221418.453125,179093.453125,-705748.125,180426.78125,0.013916015625,0.985107421875,-0.2373046875,-0.2441406100988388,-0.1220703050494194,-0.1831054538488388,86.66667175292969,159718.0,1.0
12:08:26.176822,202114.140625,196466.125,220651.6875,209175.234375,221438.390625,179110.890625,-705737.75,180433.21875,0.014892578125,0.986328125,-0.23876953125,-0.3051757514476776,-0.0915527269244194,-0.1525878757238388,86.66667175292969,159719.0,1.0
12:08:26.186862,202127.375,196477.5625,220663.859375,209172.90625,221468.96875,179127.609375,-705732.875,180435.53125,0.014892578125,0.98486328125,-0.2373046875,-0.2746581733226776,-0.1831054538488388,-0.3051757514476776,86.66667175292969,159720.0,1.0
12:08:26.186892,202117.09375,196469.34375,220662.953125,209170.578125,221461.546875,179119.828125,-705734.1875,180432.59375,0.01513671875,0.984619140625,-0.238037109375,-0.3967284858226776,-0.1831054538488388,-0.2746581733226776,86.66667175292969,159721.0,1.0
12:08:26.186899,202098.765625,196453.515625,220648.65625,209164.5,221427.203125,179100.0625,-705736.9375,180425.53125,0.012939453125,0.98681640625,-0.23486328125,-0.3967284858226776,-0.2746581733226776,-0.1525878757238388,86.66667175292969,159722.0,1.0
12:08:26.189909,202095.90625,196452.4375,220641.046875,209155.828125,221425.25,179101.046875,-705750.1875,180416.046875,0.012939453125,0.987060546875,-0.236328125,-0.4882812201976776,-0.1831054538488388,-0.1525878757238388,86.66667175292969,159723.0,1.0
12:08:26.189924,202100.375,196452.984375,220641.046875,209148.046875,221446.703125,179102.921875,-705754.125,180412.46875,0.011962890625,0.985595703125,-0.23681640625,-0.5798339247703552,-0.2136230319738388,-0.1220703050494194,86.66667175292969,159724.0,1.0
12:08:26.192565,202093.484375,196446.0,220639.71875,209146.0,221440.984375,179092.640625,-705752.6875,180409.515625,0.013671875,0.9853515625,-0.23681640625,-0.6408690810203552,-0.2746581733226776,-0.1831054538488388,86.66667175292969,159725.0,1.0
12:08:26.194984,202079.09375,196431.96875,220627.375,209143.765625,221405.21875,179074.765625,-705750.625,180404.421875,0.013916015625,0.98486328125,-0.231689453125,-0.5798339247703552,-0.3051757514476776,-0.1525878757238388,86.66667175292969,159726.0,1.0
12:08:26.195008,202080.875,196432.140625,220623.4375,209141.609375,221400.390625,179074.859375,-705753.4375,180399.0625,0.00927734375,0.985595703125,-0.234130859375,-0.7019042372703552,-0.3356933295726776,-0.2136230319738388,86.66667175292969,159727.0,1.0
12:08:26.208432,202103.765625,196451.8125,220639.796875,209151.1875,221435.875,179096.765625,-705747.9375,180409.796875,0.010009765625,0.984619140625,-0.235107421875,-0.7324218153953552,-0.3967284858226776,-0.0610351525247097,86.66667175292969,159728.0,1.0
12:08:26.212381,202105.203125,196455.03125,220646.6875,209155.390625,221447.140625,179101.3125,-705750.125,180414.625,0.0126953125,0.987060546875,-0.23583984375,-0.7019042372703552,-0.4272460639476776,-0.1220703050494194,86.66667175292969,159729.0,1.0
12:08:26.212397,202094.5625,196443.5,220638.90625,209157.359375,221418.09375,179085.671875,-705755.375,180415.0625,0.012939453125,0.986572265625,-0.236572265625,-0.8850097060203552,-0.4272460639476776,0.03051757626235485,86.66667175292969,159730.0,1.0
12:08:26.215196,202099.03125,196451.015625,220638.546875,209159.234375,221413.171875,179092.5625,-705756.75,180413.28125,0.011474609375,0.98486328125,-0.23681640625,-0.8850097060203552,-0.4882812201976776,0.0,86.66667175292969,159731.0,1.0
12:08:26.215219,202119.0625,196468.796875,220652.3125,209165.9375,221447.0625,179113.03125,-705755.5625,180422.03125,0.01318359375,0.985595703125,-0.23828125,-0.8239745497703552,-0.4882812201976776,0.0915527269244194,86.66667175292969,159732.0,1.0
12:08:26.225580,202117.359375,196465.046875,220655.0,209162.625,221459.03125,179112.671875,-705753.75,180422.3125,0.013671875,0.986572265625,-0.235107421875,-0.9155272841453552,-0.5798339247703552,0.2136230319738388,86.66667175292969,159733.0,1.0
12:08:26.231122,202097.78125,196447.53125,220642.65625,209154.40625,221426.9375,179092.734375,-705761.625,180412.734375,0.01220703125,0.98583984375,-0.236328125,-1.0070799589157104,-0.5493163466453552,0.3356933295726776,86.66667175292969,159734.0,1.0
12:08:26.231133,202094.5625,196449.484375,220639.265625,209152.25,221412.453125,179091.84375,-705759.375,180407.734375,0.014892578125,0.98681640625,-0.237060546875,-0.9155272841453552,-0.6408690810203552,0.3662109076976776,86.66667175292969,159735.0,1.0
12:08:26.233659,202114.59375,196465.40625,220652.3125,209157.4375,221441.875,179107.578125,-705746.1875,180414.890625,0.015869140625,0.9853515625,-0.236328125,-1.0070799589157104,-0.4577636420726776,0.3356933295726776,86.66667175292969,159736.0,1.0
12:08:26.233669,202121.921875,196471.21875,220662.15625,209160.125,221463.59375,179115.984375,-705748.5,180420.515625,0.014404296875,0.9853515625,-0.23828125,-1.0070799589157104,-0.4272460639476776,0.4577636420726776,86.66667175292969,159737.0,1.0
12:08:26.240668,202107.25,196456.90625,220652.671875,209158.78125,221438.109375,179099.171875,-705754.5625,180418.640625,0.014892578125,0.98486328125,-0.237548828125,-1.0070799589157104,-0.4577636420726776,0.4882812201976776,86.66667175292969,159738.0,1.0
12:08:26.246872,202098.671875,196451.90625,220642.03125,209157.171875,221412.640625,179092.46875,-705759.125,180413.8125,0.0166015625,0.984130859375,-0.2392578125,-1.0375975370407104,-0.4882812201976776,0.6103515028953552,86.66667175292969,159739.0,1.0
12:08:26.253676,202110.109375,196461.921875,220647.140625,209158.0625,221431.953125,179104.71875,-705755.5,180416.234375,0.01513671875,0.98291015625,-0.238037109375,-0.9765624403953552,-0.4882812201976776,0.5493163466453552,86.66667175292969,159740.0,1.0
12:08:26.253692,202119.859375,196470.59375,220658.671875,209161.640625,221461.71875,179118.484375,-705749.5625,180423.921875,0.014404296875,0.982421875,-0.233642578125,-0.9765624403953552,-0.4272460639476776,0.5798339247703552,86.66667175292969,159741.0,1.0
12:08:26.262375,202103.40625,196455.125,220650.078125,209158.0625,221442.671875,179100.609375,-705748.9375,180420.96875,0.013916015625,0.981689453125,-0.233642578125,-0.9460448622703552,-0.3662109076976776,0.6408690810203552,86.66667175292969,159742.0,1.0
12:08:26.262407,202091.15625,196448.859375,220639.171875,209156.546875,221415.5,179091.03125,-705749.8125,180418.28125,0.0146484375,0.981689453125,-0.2392578125,-0.8239745497703552,-0.3356933295726776,0.8239745497703552,86.66667175292969,159743.0,1.0
12:08:26.264283,202101.359375,196456.375,220643.28125,209156.8125,221430.515625,179102.390625,-705750.625,180418.8125,0.017822265625,0.980712890625,-0.240966796875,-0.8239745497703552,-0.3967284858226776,0.7324218153953552,86.66667175292969,159744.0,1.0
12:08:26.283239,202114.3125,196465.046875,220652.3125,209157.625,221457.875,179114.640625,-705754.25,180421.140625,0.017578125,0.982177734375,-0.240966796875,-0.7934569716453552,-0.3051757514476776,0.7934569716453552,86.66667175292969,159745.0,1.0
12:08:26.283259,202103.859375,196457.53125,220648.203125,209156.453125,221445.71875,179106.59375,-705755.1875,180418.015625,0.01953125,0.984375,-0.239990234375,-0.6408690810203552,-0.2136230319738388,1.0070799589157104,86.66667175292969,159746.0,1.0
12:08:26.283263,202090.0,196442.703125,220634.53125,209150.5625,221408.171875,179088.796875,-705755.5625,180408.265625,0.019287109375,0.984619140625,-0.241455078125,-0.5187987685203552,-0.1220703050494194,0.8850097060203552,86.66667175292969,159747.0,1.0
12:08:26.286177,202096.53125,196449.765625,220635.6875,209149.65625,221413.171875,179098.8125,-705758.625,180407.375,0.021484375,0.98046875,-0.240234375,-0.4577636420726776,0.03051757626235485,0.8239745497703552,86.66667175292969,159748.0,1.0
12:08:26.286237,202112.625,196462.28125,220648.46875,209152.703125,221446.609375,179113.828125,-705746.5,180414.890625,0.02197265625,0.976806640625,-0.240478515625,-0.3356933295726776,0.0915527269244194,0.9155272841453552,86.66667175292969,159749.0,1.0
12:08:26.288286,202104.484375,196454.9375,220647.3125,209151.71875,221445.265625,179106.6875,-705746.1875,180414.625,0.02197265625,0.97607421875,-0.240478515625,-0.2136230319738388,0.2136230319738388,0.8544921278953552,86.66667175292969,159750.0,1.0
12:08:26.295597,202090.0,196441.0,220636.140625,209151.625,221413.078125,179087.1875,-705744.5625,180412.203125,0.021240234375,0.97607421875,-0.23974609375,-0.0915527269244194,0.2746581733226776,0.7934569716453552,86.66667175292969,159751.0,1.0
12:08:26.298743,202092.0625,196447.171875,220633.90625,209149.21875,221411.828125,179094.4375,-705748.5,180409.25,0.018798828125,0.97705078125,-0.23876953125,0.0610351525247097,0.3662109076976776,0.6408690810203552,86.66667175292969,159752.0,1.0
12:08:26.298807,202106.984375,196459.859375,220643.640625,209150.015625,221442.859375,179110.609375,-705746.6875,180414.625,0.016357421875,0.97607421875,-0.23583984375,0.1525878757238388,0.3662109076976776,0.4882812201976776,86.66667175292969,159753.0,1.0
12:08:26.305724,202102.96875,196458.25,220645.609375,209146.71875,221450.28125,179111.421875,-705743.125,180414.703125,0.015869140625,0.978759765625,-0.234130859375,0.1831054538488388,0.3662109076976776,0.2746581733226776,86.66667175292969,159754.0,1.0
12:08:26.312414,202083.828125,196441.71875,220633.0,209144.203125,221417.203125,179093.453125,-705752.4375,180410.859375,0.01220703125,0.980224609375,-0.236572265625,0.1525878757238388,0.3662109076976776,0.0610351525247097,86.66667175292969,159755.0,1.0
12:08:26.312476,202078.5625,196441.4375,220625.3125,209139.921875,221405.484375,179093.625,-705757.875,180405.234375,0.012451171875,0.981201171875,-0.2373046875,0.1220703050494194,0.3662109076976776,0.0,86.66667175292969,159756.0,1.0
12:08:26.320608,202099.65625,196459.328125,220637.75,209146.984375,221437.578125,179113.125,-705753.9375,180414.703125,0.011962890625,0.9833984375,-0.238525390625,0.1220703050494194,0.3967284858226776,-0.1525878757238388,86.66667175292969,159757.0,1.0
12:08:26.323760,202100.453125,196458.96875,220642.21875,209147.515625,221450.1875,179115.359375,-705745.1875,180416.3125,0.01123046875,0.98486328125,-0.236572265625,0.1220703050494194,0.4272460639476776,-0.3356933295726776,86.66667175292969,159758.0,1.0
12:08:26.323852,202083.921875,196442.34375,220632.203125,209145.734375,221420.5,179096.671875,-705743.75,180412.46875,0.013427734375,0.986572265625,-0.238525390625,0.03051757626235485,0.4272460639476776,-0.3967284858226776,86.66667175292969,159759.0,1.0
12:08:26.330648,202078.203125,196445.296875,220624.875,209139.109375,221403.515625,179097.921875,-705755.375,180401.03125,0.01318359375,0.987060546875,-0.237060546875,0.0,0.3967284858226776,-0.3967284858226776,86.66667175292969,159760.0,1.0
12:08:26.337460,202095.625,196457.1875,220635.6875,209142.953125,221430.78125,179111.953125,-705756.625,180407.46875,0.017578125,0.98779296875,-0.234375,-0.0610351525247097,0.3967284858226776,-0.2746581733226776,86.66667175292969,159761.0,1.0
12:08:26.337562,202104.125,196465.5,220646.78125,209146.625,221454.296875,179121.25,-705760.3125,180413.640625,0.017578125,0.988037109375,-0.236572265625,-0.0915527269244194,0.5187987685203552,-0.2746581733226776,86.66667175292969,159762.0,1.0
12:08:26.343186,202089.734375,196447.25,220639.171875,209146.265625,221430.421875,179101.9375,-705759.125,180412.109375,0.019775390625,0.9892578125,-0.239990234375,-0.1525878757238388,0.6103515028953552,-0.2746581733226776,86.66667175292969,159763.0,1.0
12:08:26.358321,202083.46875,196444.75,220632.375,209146.171875,221408.078125,179097.921875,-705755.375,180409.609375,0.021240234375,0.9873046875,-0.241455078125,-0.2441406100988388,0.5493163466453552,-0.2746581733226776,86.66667175292969,159764.0,1.0
12:08:26.358350,202097.421875,196458.515625,220638.375,209147.15625,221427.390625,179114.015625,-705746.25,180412.5625,0.01953125,0.990478515625,-0.24072265625,-0.3051757514476776,0.6408690810203552,-0.2136230319738388,86.66667175292969,159765.0,1.0
12:08:26.358356,202107.515625,196464.953125,220647.578125,209150.828125,221451.078125,179120.984375,-705744.5,180419.09375,0.0146484375,0.994384765625,-0.24072265625,-0.5493163466453552,0.7019042372703552,-0.0610351525247097,86.66667175292969,159766.0,1.0
12:08:26.358362,202092.0625,196450.203125,220639.0,209148.140625,221431.046875,179104.8125,-705738.6875,180415.78125,0.0166015625,0.9921875,-0.23681640625,-0.7324218153953552,0.7934569716453552,0.0,86.66667175292969,159767.0,1.0
12:08:26.373932,202079.53125,196440.015625,220626.84375,209145.734375,221400.75,179092.5625,-705738.6875,180411.3125,0.017578125,0.990234375,-0.23828125,-0.8850097060203552,0.8544921278953552,0.03051757626235485,86.66667175292969,159768.0,1.0
12:08:26.373954,202089.375,196450.65625,220630.0625,209146.4375,221414.6875,179106.140625,-705742.0625,180411.84375,0.012939453125,0.9921875,-0.236572265625,-0.9155272841453552,0.8239745497703552,0.1220703050494194,86.66667175292969,159769.0,1.0
12:08:26.373960,202101.265625,196457.0,220640.96875,209146.796875,221446.96875,179117.046875,-705744.1875,180417.65625,0.012451171875,0.9921875,-0.23876953125,-1.0375975370407104,0.7934569716453552,0.2441406100988388,86.66667175292969,159770.0,1.0
12:08:26.373966,202093.390625,196448.234375,220642.03125,209146.359375,221441.875,179108.828125,-705754.0625,180417.03125,0.010498046875,0.992919921875,-0.235595703125,-1.2207030057907104,0.7019042372703552,0.3051757514476776,86.66667175292969,159771.0,1.0
12:08:26.381271,202082.21875,196438.859375,220631.484375,209141.96875,221408.34375,179094.34375,-705752.3125,180408.8125,0.0078125,0.99267578125,-0.235107421875,-1.3732908964157104,0.6713866591453552,0.4577636420726776,86.66667175292969,159772.0,1.0
12:08:26.395039,202089.546875,196450.03125,220631.390625,209141.171875,221411.296875,179104.359375,-705752.8125,180404.609375,0.0078125,0.992431640625,-0.235595703125,-1.4953612089157104,0.6408690810203552,0.5798339247703552,86.66667175292969,159773.0,1.0
12:08:26.395067,202105.109375,196464.78125,220642.84375,209145.109375,221442.046875,179121.171875,-705745.125,180410.6875,0.005126953125,0.99169921875,-0.234130859375,-1.6784666776657104,0.5493163466453552,0.7019042372703552,86.66667175292969,159774.0,1.0
12:08:26.412338,202095.453125,196456.015625,220639.53125,209141.078125,221438.109375,179112.3125,-705741.6875,180406.484375,0.005859375,0.99072265625,-0.2314453125,-1.8310545682907104,0.4272460639476776,0.7019042372703552,86.66667175292969,159775.0,1.0
12:08:26.412348,202078.203125,196437.25,220624.609375,209139.03125,221401.015625,179091.21875,-705742.3125,180402.09375,0.00537109375,0.98779296875,-0.233642578125,-1.8920897245407104,0.3051757514476776,0.7934569716453552,86.66667175292969,159776.0,1.0
12:08:26.446439,202083.03125,196444.84375,220624.515625,209142.25,221400.921875,179097.296875,-705743.0625,180403.703125,0.005859375,0.98876953125,-0.238037109375,-1.9836424589157104,0.2136230319738388,0.7934569716453552,86.66667175292969,159777.0,1.0
12:08:26.446519,202099.203125,196455.578125,220634.703125,209145.109375,221432.125,179112.140625,-705740.8125,180411.9375,0.0048828125,0.98828125,-0.2333984375,-2.105712652206421,0.0610351525247097,0.8850097060203552,86.66667175292969,159778.0,1.0
12:08:26.461828,202096.796875,196450.65625,220637.5625,209143.578125,221438.5625,179107.390625,-705738.375,180411.75,0.00634765625,0.989501953125,-0.2373046875,-2.288818120956421,-0.0610351525247097,0.9765624403953552,86.66667175292969,159779.0,1.0
12:08:26.464270,202083.921875,196437.953125,220628.890625,209144.921875,221407.984375,179089.6875,-705744.9375,180408.1875,0.008544921875,0.9873046875,-0.236328125,-2.471923589706421,-0.2136230319738388,1.0681151151657104,86.66667175292969,159780.0,1.0
12:08:26.466816,202080.25,196437.953125,220623.171875,209141.078125,221397.703125,179088.625,-705752.0625,180401.921875,0.009521484375,0.98779296875,-0.235595703125,-2.471923589706421,-0.2746581733226776,1.0986326932907104,86.66667175292969,159781.0,1.0
12:08:26.469304,202100.109375,196456.734375,220637.828125,209146.71875,221430.515625,179110.34375,-705749.3125,180412.375,0.008544921875,0.98681640625,-0.23583984375,-2.502441167831421,-0.4577636420726776,1.2512205839157104,86.66667175292969,159782.0,1.0
12:08:26.471767,202103.859375,196454.40625,220643.46875,209150.109375,221444.015625,179111.78125,-705749.3125,180417.390625,0.00927734375,0.98876953125,-0.231689453125,-2.624511480331421,-0.5187987685203552,1.2512205839157104,86.66667175292969,159783.0,1.0
12:08:26.474287,202084.1875,196433.75,220627.640625,209143.40625,221408.609375,179086.921875,-705747.8125,180407.546875,0.012939453125,0.98876953125,-0.232666015625,-2.685546636581421,-0.5187987685203552,1.3122557401657104,86.66667175292969,159784.0,1.0
12:08:26.479289,202079.1875,196434.203125,220619.421875,209140.640625,221390.109375,179084.421875,-705760.625,180401.921875,0.013427734375,0.986572265625,-0.237060546875,-2.746581792831421,-0.5187987685203552,1.3122557401657104,86.66667175292969,159785.0,1.0
12:08:26.481737,202095.8125,196446.625,220627.46875,209143.140625,221415.765625,179100.515625,-705763.0,180406.484375,0.01513671875,0.98486328125,-0.23681640625,-2.777099370956421,-0.4882812201976776,1.4038084745407104,86.66667175292969,159786.0,1.0
12:08:26.484248,202104.75,196452.4375,220639.4375,209149.03125,221440.265625,179108.5625,-705761.0,180414.96875,0.015380859375,0.98388671875,-0.237548828125,-2.746581792831421,-0.4272460639476776,1.3732908964157104,86.66667175292969,159787.0,1.0
12:08:26.486811,202090.09375,196440.90625,220632.46875,209147.34375,221417.640625,179094.609375,-705766.3125,180412.734375,0.0185546875,0.983642578125,-0.236083984375,-2.685546636581421,-0.3662109076976776,1.5563963651657104,86.66667175292969,159788.0,1.0
12:08:26.489250,202081.234375,196432.859375,220624.515625,209144.65625,221394.578125,179084.78125,-705762.1875,180407.640625,0.0185546875,0.98193359375,-0.23681640625,-2.716064214706421,-0.3051757514476776,1.6784666776657104,86.66667175292969,159789.0,1.0
12:08:26.491806,202096.34375,196448.15625,220632.375,209147.421875,221417.109375,179101.234375,-705756.75,180409.609375,0.019775390625,0.98193359375,-0.23486328125,-2.716064214706421,-0.3356933295726776,1.7700194120407104,86.66667175292969,159790.0,1.0
12:08:26.494267,202104.578125,196457.359375,220640.703125,209143.859375,221442.40625,179113.5625,-705757.25,180409.703125,0.0205078125,0.97900390625,-0.233642578125,-2.624511480331421,-0.3051757514476776,1.7700194120407104,86.66667175292969,159791.0,1.0
12:08:26.496756,202091.15625,196441.71875,220634.34375,209143.140625,221424.171875,179094.515625,-705759.3125,180407.46875,0.021728515625,0.978759765625,-0.235107421875,-2.655029058456421,-0.3356933295726776,1.7700194120407104,86.66667175292969,159792.0,1.0
12:08:26.500553,202082.9375,196437.953125,220626.75,209144.65625,221398.0625,179088.265625,-705761.125,180406.65625,0.021240234375,0.978515625,-0.235107421875,-2.624511480331421,-0.2441406100988388,1.7089842557907104,86.66667175292969,159793.0,1.0
12:08:26.502962,202098.40625,196452.625,220633.546875,209151.265625,221414.953125,179102.75,-705763.0,180413.09375,0.02197265625,0.97998046875,-0.234619140625,-2.563476324081421,-0.1831054538488388,1.7089842557907104,86.66667175292969,159794.0,1.0
12:08:26.504486,202109.046875,196459.234375,220642.75,209154.765625,221442.671875,179110.265625,-705763.9375,180420.609375,0.021484375,0.981201171875,-0.234619140625,-2.441406011581421,-0.03051757626235485,1.6784666776657104,86.66667175292969,159795.0,1.0
12:08:26.511798,202096.96875,196448.0625,220637.828125,209151.09375,221431.671875,179099.984375,-705765.125,180415.0625,0.0224609375,0.97998046875,-0.23583984375,-2.441406011581421,-0.0915527269244194,1.6479490995407104,86.66667175292969,159796.0,1.0
12:08:26.511813,202085.34375,196437.59375,220626.65625,209151.1875,221400.390625,179086.921875,-705757.875,180413.453125,0.021484375,0.979248046875,-0.234375,-2.258300542831421,0.0610351525247097,1.4953612089157104,86.66667175292969,159797.0,1.0
12:08:26.511817,202089.546875,196443.6875,220625.9375,209149.21875,221404.859375,179096.046875,-705754.75,180411.75,0.022705078125,0.98046875,-0.235107421875,-2.288818120956421,0.1525878757238388,1.4038084745407104,86.66667175292969,159798.0,1.0
12:08:26.518175,202102.96875,196454.765625,220636.3125,209151.625,221436.421875,179111.78125,-705767.1875,180417.125,0.021484375,0.979248046875,-0.238037109375,-2.197265386581421,0.2441406100988388,1.3427733182907104,86.66667175292969,159799.0,1.0
12:08:26.518246,202094.015625,196450.03125,220634.890625,209147.609375,221435.25,179108.375,-705766.8125,180415.0625,0.022705078125,0.980712890625,-0.237548828125,-2.105712652206421,0.3662109076976776,1.2512205839157104,86.66667175292969,159800.0,1.0
12:08:26.520053,202077.03125,196432.6875,220621.5625,209145.640625,221401.90625,179088.71875,-705769.0625,180411.578125,0.023193359375,0.9814453125,-0.2373046875,-2.044677495956421,0.5187987685203552,1.2512205839157104,86.66667175292969,159801.0,1.0
12:08:26.520132,202078.109375,196435.8125,220617.1875,209138.9375,221397.4375,179093.359375,-705763.3125,180403.984375,0.024658203125,0.98388671875,-0.23583984375,-1.9531248807907104,0.5798339247703552,1.0375975370407104,86.66667175292969,159802.0,1.0
12:08:26.533974,202095.0,196448.328125,220627.46875,209142.6875,221427.75,179109.984375,-705765.75,180411.40625,0.024658203125,0.984375,-0.237060546875,-1.9226073026657104,0.5798339247703552,0.9765624403953552,86.66667175292969,159803.0,1.0
12:08:26.534049,202093.390625,196446.984375,220632.375,209146.53125,221436.59375,179110.078125,-705765.375,180414.625,0.024169921875,0.982666015625,-0.23779296875,-1.8310545682907104,0.6713866591453552,0.9765624403953552,86.66667175292969,159804.0,1.0
12:08:26.535687,202075.421875,196428.75,220619.859375,209142.875,221402.0,179084.78125,-705771.8125,180408.890625,0.024169921875,0.983642578125,-0.23876953125,-1.8005369901657104,0.8239745497703552,0.8850097060203552,86.66667175292969,159805.0,1.0
12:08:26.538090,202076.859375,196435.546875,220619.234375,209143.578125,221396.546875,179090.046875,-705773.5,180407.28125,0.023681640625,0.982666015625,-0.236083984375,-1.7395018339157104,0.8544921278953552,0.8239745497703552,86.66667175292969,159806.0,1.0
12:08:26.540658,202097.15625,196453.25,220633.546875,209151.1875,221430.78125,179111.59375,-705763.3125,180416.234375,0.02099609375,0.981201171875,-0.238525390625,-1.6174315214157104,0.9460448622703552,0.7934569716453552,86.66667175292969,159807.0,1.0
12:08:26.543136,202103.859375,196459.59375,220644.453125,209156.1875,221450.90625,179118.03125,-705758.3125,180423.5625,0.02294921875,0.983642578125,-0.23681640625,-1.4648436307907104,1.0986326932907104,0.7629393935203552,86.66667175292969,159808.0,1.0
12:08:26.545750,202090.890625,196447.171875,220638.1875,209154.578125,221424.890625,179102.5625,-705761.0,180420.515625,0.022216796875,0.982421875,-0.23876953125,-1.5258787870407104,1.1596678495407104,0.6713866591453552,86.66667175292969,159809.0,1.0
12:08:26.548244,202088.75,196450.03125,220632.03125,209149.65625,221407.0,179105.515625,-705757.8125,180411.75,0.02392578125,0.981201171875,-0.2373046875,-1.3732908964157104,1.2207030057907104,0.6408690810203552,86.66667175292969,159810.0,1.0
12:08:26.550598,202102.515625,196461.375,220637.5625,209152.96875,221429.265625,179115.625,-705750.625,180414.96875,0.021484375,0.98291015625,-0.237060546875,-1.4038084745407104,1.2207030057907104,0.5493163466453552,86.66667175292969,159811.0,1.0
12:08:26.553223,202105.109375,196461.203125,220641.59375,209151.359375,221446.609375,179119.109375,-705752.875,180416.5,0.0205078125,0.982421875,-0.238037109375,-1.3122557401657104,1.2512205839157104,0.5798339247703552,86.66667175292969,159812.0,1.0
12:08:26.556390,202088.296875,196444.21875,220630.765625,209144.75,221418.53125,179099.703125,-705751.5625,180410.140625,0.0185546875,0.981689453125,-0.236572265625,-1.1596678495407104,1.2512205839157104,0.4577636420726776,86.66667175292969,159813.0,1.0
12:08:26.556471,202079.984375,196440.46875,220622.71875,209142.421875,221394.75,179092.640625,-705751.0625,180404.421875,0.016845703125,0.98193359375,-0.234619140625,-1.0681151151657104,1.2817381620407104,0.3967284858226776,86.66667175292969,159814.0,1.0
12:08:26.558151,202096.34375,196454.9375,220632.109375,209147.34375,221417.640625,179107.84375,-705741.6875,180409.796875,0.013671875,0.982421875,-0.23876953125,-1.0681151151657104,1.1291502714157104,0.3967284858226776,86.66667175292969,159815.0,1.0
12:08:26.561468,202110.203125,196464.953125,220646.15625,209154.046875,221448.3125,179119.5625,-705742.6875,180418.640625,0.012939453125,0.982177734375,-0.236572265625,-1.0070799589157104,1.0986326932907104,0.2136230319738388,86.66667175292969,159816.0,1.0
12:08:26.561554,202097.234375,196450.296875,220640.515625,209151.359375,221431.046875,179104.453125,-705747.0,180415.421875,0.0126953125,0.982177734375,-0.235595703125,-1.0681151151657104,1.0681151151657104,0.1525878757238388,86.66667175292969,159817.0,1.0
12:08:26.563684,202088.921875,196446.71875,220633.453125,209150.921875,221405.390625,179099.53125,-705754.0625,180413.09375,0.013427734375,0.98046875,-0.235595703125,-0.8850097060203552,0.9765624403953552,0.03051757626235485,86.66667175292969,159818.0,1.0
12:08:26.563759,202101.078125,196459.234375,220637.484375,209153.0625,221419.96875,179110.890625,-705754.75,180413.28125,0.01171875,0.979248046875,-0.237548828125,-0.8850097060203552,0.9155272841453552,0.0610351525247097,86.66667175292969,159819.0,1.0
12:08:26.566788,202111.09375,196463.4375,220643.5625,209152.609375,221444.375,179119.109375,-705751.0625,180416.859375,0.011962890625,0.980224609375,-0.236572265625,-0.7934569716453552,0.7934569716453552,0.1831054538488388,86.66667175292969,159820.0,1.0
12:08:26.583122,202099.65625,196449.3125,220639.796875,209151.90625,221434.359375,179106.328125,-705756.625,180415.515625,0.012939453125,0.981201171875,-0.23974609375,-0.7019042372703552,0.7324218153953552,0.1831054538488388,86.66667175292969,159821.0,1.0
12:08:26.583159,202089.109375,196440.640625,220632.65625,209154.578125,221404.328125,179093.890625,-705757.0625,180415.0625,0.012939453125,0.98291015625,-0.23779296875,-0.6103515028953552,0.5187987685203552,0.3051757514476776,86.66667175292969,159822.0,1.0
12:08:26.584833,202096.703125,196451.546875,220635.421875,209155.03125,221410.9375,179106.0625,-705761.0,180412.65625,0.0126953125,0.98291015625,-0.2373046875,-0.6408690810203552,0.4272460639476776,0.2441406100988388,86.66667175292969,159823.0,1.0
12:08:26.584860,202110.46875,196460.046875,220644.0,209153.421875,221440.796875,179118.21875,-705760.9375,180414.890625,0.012939453125,0.985107421875,-0.236328125,-0.7324218153953552,0.4882812201976776,0.3967284858226776,86.66667175292969,159824.0,1.0
12:08:26.586832,202105.734375,196454.40625,220645.875,209154.140625,221441.78125,179111.78125,-705756.75,180416.5,0.013916015625,0.986083984375,-0.23779296875,-0.6713866591453552,0.3051757514476776,0.3051757514476776,86.66667175292969,159825.0,1.0
12:08:26.594527,202092.6875,196443.5,220635.6875,209153.59375,221409.6875,179096.125,-705756.5625,180412.109375,0.014892578125,0.984130859375,-0.2373046875,-0.7629393935203552,0.2746581733226776,0.3662109076976776,86.66667175292969,159826.0,1.0
12:08:26.605129,202099.65625,196454.671875,220638.1875,209152.796875,221411.65625,179108.203125,-705752.4375,180409.96875,0.015625,0.986083984375,-0.236572265625,-0.7019042372703552,0.2746581733226776,0.4272460639476776,86.66667175292969,159827.0,1.0
12:08:26.605151,202115.65625,196468.09375,220649.1875,209155.828125,221444.015625,179123.578125,-705746.875,180415.78125,0.01611328125,0.986083984375,-0.236328125,-0.7324218153953552,0.2746581733226776,0.3967284858226776,86.66667175292969,159828.0,1.0
12:08:26.607401,202111.375,196466.484375,220651.15625,209153.421875,221450.90625,179122.15625,-705757.4375,180414.625,0.016357421875,0.984619140625,-0.236572265625,-0.7629393935203552,0.0915527269244194,0.4577636420726776,86.66667175292969,159829.0,1.0
12:08:26.607418,202095.625,196453.515625,220640.875,209152.34375,221417.734375,179107.75,-705760.3125,180411.84375,0.0146484375,0.985595703125,-0.236328125,-0.7934569716453552,0.0915527269244194,0.6103515028953552,86.66667175292969,159830.0,1.0
12:08:26.609330,202089.640625,196448.515625,220631.3125,209147.34375,221401.90625,179099.796875,-705759.5625,180405.046875,0.014404296875,0.987548828125,-0.2373046875,-0.9460448622703552,0.0915527269244194,0.6408690810203552,86.66667175292969,159831.0,1.0
12:08:26.619467,202106.71875,196460.046875,220641.59375,209152.171875,221432.3125,179115.171875,-705756.75,180413.28125,0.016357421875,0.988525390625,-0.23828125,-1.0681151151657104,-0.1525878757238388,0.7324218153953552,86.66667175292969,159832.0,1.0
12:08:26.623612,202110.390625,196465.5,220650.265625,209155.203125,221451.171875,179122.59375,-705750.625,180419.71875,0.017578125,0.98681640625,-0.239501953125,-1.1596678495407104,-0.1831054538488388,0.8239745497703552,86.66667175292969,159833.0,1.0
12:08:26.623642,202096.53125,196453.609375,220643.734375,209158.34375,221426.140625,179108.203125,-705754.3125,180420.25,0.01708984375,0.98876953125,-0.240478515625,-1.2512205839157104,-0.3051757514476776,0.8544921278953552,86.66667175292969,159834.0,1.0
12:08:26.629311,202088.125,196447.53125,220632.65625,209154.765625,221404.859375,179101.234375,-705754.0625,180413.640625,0.015625,0.989013671875,-0.240234375,-1.2207030057907104,-0.3356933295726776,1.0375975370407104,86.66667175292969,159835.0,1.0
12:08:26.636225,202102.421875,196452.078125,220635.25,209150.640625,221421.84375,179107.9375,-705749.125,180409.15625,0.015380859375,0.989501953125,-0.2392578125,-1.4038084745407104,-0.3967284858226776,0.9460448622703552,86.66667175292969,159836.0,1.0
12:08:26.636249,202107.703125,196457.453125,220642.3125,209148.046875,221441.6875,179114.1875,-705752.1875,180409.4375,0.017333984375,0.98779296875,-0.23779296875,-1.5258787870407104,-0.4272460639476776,0.9460448622703552,86.66667175292969,159837.0,1.0
12:08:26.638131,202092.5,196444.125,220633.09375,209146.4375,221416.65625,179096.3125,-705757.875,180406.296875,0.016845703125,0.98779296875,-0.238525390625,-1.5869139432907104,-0.4882812201976776,0.8850097060203552,86.66667175292969,159838.0,1.0
12:08:26.648078,202086.25,196443.40625,220625.859375,209145.375,221393.5,179092.734375,-705757.875,180404.25,0.015380859375,0.98681640625,-0.23876953125,-1.7089842557907104,-0.4882812201976776,0.9460448622703552,86.66667175292969,159839.0,1.0
12:08:26.651229,202100.375,196455.84375,220633.09375,209148.59375,221415.59375,179108.65625,-705755.1875,180409.078125,0.015625,0.986328125,-0.241943359375,-1.8005369901657104,-0.4882812201976776,0.8850097060203552,86.66667175292969,159840.0,1.0
12:08:26.651241,202109.671875,196460.9375,220641.046875,209149.125,221441.0625,179117.40625,-705753.25,180412.5625,0.015380859375,0.985107421875,-0.239501953125,-1.9531248807907104,-0.4577636420726776,0.8544921278953552,86.66667175292969,159841.0,1.0
12:08:26.653144,202098.40625,196449.40625,220637.125,209148.046875,221424.96875,179103.015625,-705756.125,180410.234375,0.01611328125,0.985107421875,-0.240234375,-2.014159917831421,-0.4577636420726776,0.7934569716453552,86.66667175292969,159842.0,1.0
12:08:26.680573,202087.5,196443.40625,220628.359375,209145.640625,221397.4375,179095.953125,-705757.8125,180405.3125,0.017822265625,0.985595703125,-0.23828125,-2.044677495956421,-0.3967284858226776,0.7324218153953552,86.66667175292969,159843.0,1.0
12:08:26.685109,202099.75,196456.375,220634.171875,209146.09375,221412.90625,179108.203125,-705763.6875,180405.140625,0.0205078125,0.98681640625,-0.2373046875,-2.136230230331421,-0.4882812201976776,0.7629393935203552,86.66667175292969,159844.0,1.0
12:08:26.685166,202112.078125,196464.328125,220645.171875,209150.015625,221442.40625,179116.34375,-705756.4375,180411.40625,0.02099609375,0.987548828125,-0.240234375,-2.197265386581421,-0.4577636420726776,0.7629393935203552,86.66667175292969,159845.0,1.0
12:08:26.685183,202101.71875,196451.1875,220641.59375,209147.703125,221432.578125,179104.8125,-705751.8125,180409.34375,0.022705078125,0.98876953125,-0.23828125,-2.288818120956421,-0.4882812201976776,0.7324218153953552,86.66667175292969,159846.0,1.0
12:08:26.685199,202089.375,196442.15625,220631.578125,209145.640625,221401.28125,179092.28125,-705756.1875,180405.046875,0.021484375,0.987548828125,-0.23828125,-2.441406011581421,-0.4577636420726776,0.6103515028953552,86.66667175292969,159847.0,1.0
12:08:26.688236,202100.8125,196454.671875,220636.859375,209151.265625,221410.125,179104.890625,-705763.875,180408.984375,0.023193359375,0.986328125,-0.239013671875,-2.502441167831421,-0.3967284858226776,0.7019042372703552,86.66667175292969,159848.0,1.0
12:08:26.688297,202114.3125,196464.515625,220645.609375,209149.03125,221438.5625,179118.3125,-705759.125,180409.703125,0.023193359375,0.9853515625,-0.236572265625,-2.624511480331421,-0.3051757514476776,0.6408690810203552,86.66667175292969,159849.0,1.0
12:08:26.688315,202106.984375,196459.140625,220644.265625,209146.71875,221437.671875,179112.671875,-705760.625,180408.265625,0.02294921875,0.983642578125,-0.23876953125,-2.685546636581421,-0.2441406100988388,0.6408690810203552,86.66667175292969,159850.0,1.0
12:08:26.690772,202093.671875,196446.71875,220634.796875,209148.328125,221406.5625,179097.109375,-705761.3125,180407.640625,0.02099609375,0.98486328125,-0.2373046875,-2.685546636581421,-0.1831054538488388,0.4882812201976776,86.66667175292969,159851.0,1.0
12:08:26.694345,202096.53125,196451.640625,220633.546875,209151.0,221405.484375,179102.390625,-705760.5625,180407.015625,0.020263671875,0.984130859375,-0.23583984375,-2.868652105331421,-0.0610351525247097,0.5187987685203552,86.66667175292969,159852.0,1.0
12:08:26.701764,202115.75,196466.390625,220647.21875,209157.984375,221438.203125,179119.828125,-705757.1875,180415.0625,0.02099609375,0.98583984375,-0.235595703125,-2.899169683456421,0.03051757626235485,0.4577636420726776,86.66667175292969,159853.0,1.0
12:08:26.712376,202116.015625,196464.515625,220652.3125,209158.96875,221446.34375,179118.75,-705758.875,180414.890625,0.021728515625,0.986328125,-0.233154296875,-2.960204839706421,0.0,0.5187987685203552,86.66667175292969,159854.0,1.0
12:08:26.712427,202099.828125,196446.546875,220640.421875,209156.546875,221412.1875,179098.375,-705762.875,180410.0625,0.021240234375,0.986083984375,-0.23486328125,-2.990722417831421,0.03051757626235485,0.4272460639476776,86.66667175292969,159855.0,1.0
12:08:26.718585,202096.25,196450.46875,220633.09375,209152.078125,221398.59375,179100.78125,-705773.6875,180403.171875,0.020263671875,0.9873046875,-0.23583984375,-3.143310308456421,0.0610351525247097,0.3967284858226776,86.66667175292969,159856.0,1.0
12:08:26.718596,202116.546875,196462.8125,220647.578125,209159.765625,221431.40625,179119.109375,-705776.5625,180412.828125,0.01904296875,0.987060546875,-0.236572265625,-3.265380620956421,0.0610351525247097,0.4577636420726776,86.66667175292969,159857.0,1.0
12:08:26.722390,202118.4375,196462.015625,220654.90625,209158.96875,221448.484375,179119.28125,-705774.8125,180415.15625,0.021484375,0.98828125,-0.235595703125,-3.234863042831421,0.1220703050494194,0.3662109076976776,86.66667175292969,159858.0,1.0
12:08:26.722404,202103.59375,196444.03125,220645.96875,209157.625,221419.875,179096.84375,-705769.5,180412.375,0.019287109375,0.988037109375,-0.2333984375,-3.326415777206421,0.0915527269244194,0.3662109076976776,86.66667175292969,159859.0,1.0
12:08:26.734315,202101.53125,196446.453125,220640.96875,209157.625,221402.71875,179097.46875,-705770.75,180409.703125,0.019287109375,0.98828125,-0.234375,-3.356933355331421,0.1525878757238388,0.3356933295726776,86.66667175292969,159860.0,1.0
12:08:26.738684,202121.375,196466.203125,220653.390625,209163.796875,221431.859375,179119.46875,-705769.9375,180418.1875,0.016845703125,0.9873046875,-0.233642578125,-3.387450933456421,0.03051757626235485,0.2746581733226776,86.66667175292969,159861.0,1.0
12:08:26.738717,202128.4375,196474.609375,220662.78125,209166.109375,221455.1875,179127.609375,-705771.5625,180422.484375,0.016357421875,0.987548828125,-0.233642578125,-3.417968511581421,0.1220703050494194,0.3051757514476776,86.66667175292969,159862.0,1.0
12:08:26.745551,202111.015625,196456.203125,220651.15625,209161.90625,221429.796875,179110.265625,-705766.0,180417.296875,0.015625,0.987060546875,-0.2314453125,-3.448486089706421,0.0915527269244194,0.3051757514476776,86.66667175292969,159863.0,1.0
12:08:26.757809,202100.1875,196449.578125,220640.15625,209159.046875,221405.484375,179103.734375,-705759.875,180412.921875,0.01513671875,0.9853515625,-0.229736328125,-3.479003667831421,0.0915527269244194,0.3967284858226776,86.66667175292969,159864.0,1.0
12:08:26.757885,202114.40625,196462.546875,220645.96875,209161.828125,221426.140625,179119.28125,-705756.1875,180416.234375,0.01318359375,0.984619140625,-0.22705078125,-3.417968511581421,-0.03051757626235485,0.4272460639476776,86.66667175292969,159865.0,1.0
12:08:26.757916,202122.1875,196467.015625,220653.75,209162.984375,221451.4375,179127.6875,-705758.0625,180421.5,0.015625,0.98388671875,-0.22802734375,-3.387450933456421,-0.0610351525247097,0.3356933295726776,86.66667175292969,159866.0,1.0
12:08:26.757938,202095.09375,196438.40625,220634.34375,209148.140625,221422.65625,179098.375,-705768.5,180408.8125,0.016845703125,0.984130859375,-0.22900390625,-3.387450933456421,-0.0610351525247097,0.3662109076976776,86.66667175292969,159867.0,1.0
12:08:26.805637,202075.421875,196420.53125,220616.640625,209140.453125,221386.96875,179078.703125,-705768.4375,180399.78125,0.014892578125,0.984130859375,-0.230712890625,-3.265380620956421,-0.0915527269244194,0.3967284858226776,86.66667175292969,159868.0,1.0
12:08:26.809317,202084.28125,196429.46875,220621.46875,209140.28125,221400.125,179087.453125,-705767.25,180400.84375,0.01416015625,0.982666015625,-0.226318359375,-3.234863042831421,-0.1220703050494194,0.3967284858226776,86.66667175292969,159869.0,1.0
12:08:26.809370,202096.96875,196437.328125,220631.484375,209140.90625,221427.5625,179096.484375,-705773.0625,180404.421875,0.01513671875,0.982666015625,-0.227783203125,-3.265380620956421,-0.0610351525247097,0.3967284858226776,86.66667175292969,159870.0,1.0
12:08:26.810507,202087.9375,196429.546875,220629.078125,209139.203125,221417.375,179088.0,-705777.9375,180400.765625,0.016357421875,0.980224609375,-0.228271484375,-3.173827886581421,-0.1525878757238388,0.4882812201976776,86.66667175292969,159871.0,1.0
12:08:26.813162,202076.046875,196417.9375,220618.078125,209138.9375,221385.1875,179069.75,-705782.5625,180396.828125,0.0146484375,0.979736328125,-0.230712890625,-3.051757574081421,-0.2136230319738388,0.6713866591453552,86.66667175292969,159872.0,1.0
12:08:26.815874,202088.84375,196431.96875,220625.40625,209145.1875,221395.734375,179082.71875,-705784.0,180400.765625,0.015869140625,0.98095703125,-0.22998046875,-2.929687261581421,-0.2441406100988388,0.6408690810203552,86.66667175292969,159873.0,1.0
12:08:26.818293,202111.09375,196450.296875,220643.109375,209154.140625,221432.75,179104.8125,-705774.3125,180412.828125,0.016357421875,0.981201171875,-0.230712890625,-2.899169683456421,-0.2746581733226776,0.6408690810203552,86.66667175292969,159874.0,1.0
12:08:26.820627,202108.0625,196450.296875,220646.234375,209156.09375,221435.171875,179105.515625,-705770.9375,180416.234375,0.014404296875,0.980224609375,-0.228515625,-2.777099370956421,-0.2746581733226776,0.7324218153953552,86.66667175292969,159875.0,1.0
12:08:26.823213,202090.265625,196429.640625,220631.046875,209150.109375,221398.875,179082.90625,-705778.4375,180407.375,0.0166015625,0.979736328125,-0.230712890625,-2.655029058456421,-0.3356933295726776,0.7324218153953552,86.66667175292969,159876.0,1.0
12:08:26.828777,202094.828125,196439.03125,220630.765625,209151.265625,221397.96875,179091.390625,-705779.4375,180406.125,0.01611328125,0.97998046875,-0.22998046875,-2.471923589706421,-0.3662109076976776,0.8544921278953552,86.66667175292969,159877.0,1.0
12:08:26.830551,202109.9375,196453.15625,220639.71875,209151.8125,221427.828125,179108.828125,-705774.1875,180411.484375,0.0166015625,0.978515625,-0.232421875,-2.319335699081421,-0.3356933295726776,0.8850097060203552,86.66667175292969,159878.0,1.0
12:08:26.835696,202105.203125,196449.21875,220639.4375,209147.875,221432.65625,179106.328125,-705765.9375,180409.078125,0.01708984375,0.980712890625,-0.22900390625,-2.227782964706421,-0.3662109076976776,0.9155272841453552,86.66667175292969,159879.0,1.0
12:08:26.835725,202090.09375,196436.171875,220628.09375,209146.625,221400.390625,179091.125,-705761.75,180404.875,0.01708984375,0.983154296875,-0.22998046875,-2.197265386581421,-0.3967284858226776,0.9155272841453552,86.66667175292969,159880.0,1.0
12:08:26.838526,202090.890625,196442.515625,220624.78125,209145.375,221389.65625,179098.453125,-705769.6875,180399.78125,0.017333984375,0.982421875,-0.2333984375,-2.075195074081421,-0.3662109076976776,0.9765624403953552,86.66667175292969,159881.0,1.0
12:08:26.840522,202106.625,196454.046875,220633.09375,209146.09375,221417.109375,179111.421875,-705766.5625,180402.8125,0.0166015625,0.984375,-0.2294921875,-2.014159917831421,-0.3967284858226776,0.9155272841453552,86.66667175292969,159882.0,1.0
12:08:26.843630,202108.328125,196456.640625,220638.453125,209143.5,221432.65625,179115.53125,-705758.6875,180401.65625,0.01806640625,0.982177734375,-0.22900390625,-1.8920897245407104,-0.4272460639476776,0.9155272841453552,86.66667175292969,159883.0,1.0
12:08:26.843647,202093.671875,196443.859375,220630.765625,209143.5,221406.375,179100.421875,-705767.25,180400.21875,0.017333984375,0.981689453125,-0.228515625,-1.8615721464157104,-0.3662109076976776,0.9155272841453552,86.66667175292969,159884.0,1.0
12:08:26.846565,202083.5625,196439.5625,220621.828125,209137.6875,221387.421875,179095.859375,-705767.75,180393.421875,0.02001953125,0.98095703125,-0.2265625,-1.7700194120407104,-0.4577636420726776,1.0070799589157104,86.66667175292969,159885.0,1.0
12:08:26.846590,202095.8125,196450.03125,220628.890625,209138.84375,221411.65625,179109.546875,-705763.5,180396.375,0.020263671875,0.979736328125,-0.229736328125,-1.7089842557907104,-0.4577636420726776,1.0070799589157104,86.66667175292969,159886.0,1.0
12:08:26.855244,202101.4375,196453.421875,220637.65625,209139.828125,221433.640625,179111.59375,-705762.25,180399.6875,0.019775390625,0.980712890625,-0.231201171875,-1.4953612089157104,-0.3051757514476776,1.0375975370407104,86.66667175292969,159887.0,1.0
12:08:26.855268,202087.40625,196437.78125,220630.234375,209141.34375,221410.84375,179093.890625,-705761.375,180398.96875,0.022216796875,0.980224609375,-0.230224609375,-1.2817381620407104,-0.2441406100988388,1.0070799589157104,86.66667175292969,159888.0,1.0
12:08:26.855621,202079.625,196433.75,220622.546875,209138.046875,221387.78125,179088.53125,-705764.5625,180394.046875,0.025634765625,0.981201171875,-0.23095703125,-1.1901854276657104,-0.2136230319738388,1.0375975370407104,86.66667175292969,159889.0,1.0
12:08:26.858587,202093.578125,196446.546875,220629.703125,209138.578125,221408.171875,179103.640625,-705764.5,180395.21875,0.024658203125,0.98095703125,-0.233154296875,-1.0986326932907104,-0.0915527269244194,0.9765624403953552,86.66667175292969,159890.0,1.0
12:08:26.858605,202104.84375,196456.828125,220639.265625,209142.328125,221434.984375,179116.421875,-705769.6875,180401.921875,0.026611328125,0.978759765625,-0.230712890625,-1.0070799589157104,0.0,1.0681151151657104,86.66667175292969,159891.0,1.0
12:08:26.860574,202093.671875,196440.734375,220633.0,209142.6875,221418.09375,179100.78125,-705781.125,180399.953125,0.0263671875,0.97802734375,-0.2314453125,-0.9155272841453552,0.1525878757238388,1.0986326932907104,86.66667175292969,159892.0,1.0
12:08:26.863312,202081.5,196431.078125,220621.03125,209141.265625,221387.875,179088.53125,-705787.5625,180396.375,0.02490234375,0.9775390625,-0.23193359375,-0.7629393935203552,0.2441406100988388,0.9155272841453552,86.66667175292969,159893.0,1.0
12:08:26.866279,202089.46875,196440.8125,220622.71875,209141.078125,221398.78125,179099.625,-705795.625,180394.234375,0.024658203125,0.976318359375,-0.232177734375,-0.5187987685203552,0.4272460639476776,0.6713866591453552,86.66667175292969,159894.0,1.0
12:08:26.866301,202103.328125,196449.84375,220634.796875,209143.40625,221430.34375,179111.515625,-705785.9375,180399.59375,0.0224609375,0.97509765625,-0.2353515625,-0.3356933295726776,0.4577636420726776,0.6103515028953552,86.66667175292969,159895.0,1.0
12:08:26.876577,202097.15625,196443.6875,220637.03125,209144.828125,221427.5625,179104.625,-705780.75,180400.84375,0.021484375,0.976806640625,-0.230712890625,-0.2136230319738388,0.4882812201976776,0.3967284858226776,86.66667175292969,159896.0,1.0
12:08:26.894235,202089.1875,196437.515625,220630.59375,209147.15625,221400.03125,179095.234375,-705775.75,180401.5625,0.01953125,0.980712890625,-0.2294921875,-0.1220703050494194,0.6103515028953552,0.1831054538488388,86.66667175292969,159897.0,1.0
12:08:26.894262,202094.5625,196444.9375,220630.859375,209146.0,221405.125,179102.84375,-705766.9375,180399.421875,0.018310546875,0.981689453125,-0.230224609375,-0.1220703050494194,0.5798339247703552,0.0915527269244194,86.66667175292969,159898.0,1.0
12:08:26.894269,202110.03125,196455.84375,220642.125,209148.328125,221436.78125,179116.96875,-705757.375,180406.125,0.015625,0.98291015625,-0.2294921875,-0.1525878757238388,0.5493163466453552,-0.1831054538488388,86.66667175292969,159899.0,1.0
12:08:26.905851,202101.078125,196447.96875,220640.609375,209144.65625,221435.078125,179110.265625,-705764.9375,180403.796875,0.012451171875,0.98486328125,-0.231689453125,-0.1220703050494194,0.4882812201976776,-0.3356933295726776,86.66667175292969,159900.0,1.0
12:08:26.905874,202086.78125,196435.640625,220629.96875,209143.5,221403.0625,179096.484375,-705770.5625,180402.8125,0.01171875,0.98583984375,-0.232421875,-0.1525878757238388,0.3662109076976776,-0.6103515028953552,86.66667175292969,159901.0,1.0
12:08:26.905881,202086.953125,196440.46875,220625.59375,209137.140625,221397.609375,179102.125,-705765.1875,180395.65625,0.010986328125,0.985595703125,-0.2294921875,-0.1525878757238388,0.3967284858226776,-0.7324218153953552,86.66667175292969,159902.0,1.0
12:08:26.905887,202105.375,196454.9375,220637.125,209142.0625,221429.359375,179119.828125,-705771.625,180401.828125,0.013427734375,0.988525390625,-0.229248046875,-0.2441406100988388,0.2136230319738388,-0.8850097060203552,86.66667175292969,159903.0,1.0
12:08:26.905892,202104.84375,196453.15625,220640.96875,209145.546875,221438.296875,179120.625,-705782.9375,180405.9375,0.013671875,0.990478515625,-0.228271484375,-0.2441406100988388,0.3051757514476776,-0.8544921278953552,86.66667175292969,159904.0,1.0
12:08:26.921238,202088.296875,196436.703125,220629.609375,209144.921875,221405.484375,179101.140625,-705780.9375,180404.15625,0.014404296875,0.99169921875,-0.233642578125,-0.2746581733226776,0.2441406100988388,-0.8544921278953552,86.66667175292969,159905.0,1.0
12:08:26.921252,202085.171875,196439.5625,220625.671875,209144.03125,221393.859375,179102.5625,-705778.8125,180402.1875,0.017333984375,0.9912109375,-0.2353515625,-0.3967284858226776,0.3051757514476776,-0.8239745497703552,86.66667175292969,159906.0,1.0
12:08:26.924224,202101.171875,196452.984375,220634.171875,209147.421875,221422.109375,179119.28125,-705773.4375,180407.546875,0.018310546875,0.9931640625,-0.234619140625,-0.4272460639476776,0.3051757514476776,-0.7934569716453552,86.66667175292969,159907.0,1.0
12:08:26.924238,202101.625,196452.703125,220637.75,209144.65625,221437.578125,179121.875,-705776.125,180406.578125,0.019287109375,0.99267578125,-0.23388671875,-0.5493163466453552,0.2746581733226776,-0.6713866591453552,86.66667175292969,159908.0,1.0
12:08:26.924241,202085.796875,196437.78125,220627.546875,209143.140625,221410.9375,179104.09375,-705775.25,180404.328125,0.01806640625,0.99365234375,-0.23779296875,-0.7629393935203552,0.2746581733226776,-0.5187987685203552,86.66667175292969,159909.0,1.0
12:08:26.929390,202079.53125,196438.859375,220620.046875,209139.734375,221392.609375,179102.84375,-705773.0,180399.0625,0.015869140625,0.994384765625,-0.23681640625,-0.7629393935203552,0.2441406100988388,-0.3356933295726776,86.66667175292969,159910.0,1.0
12:08:26.931778,202097.59375,196449.9375,220629.078125,209144.390625,221418.984375,179117.859375,-705773.8125,180404.25,0.01513671875,0.99365234375,-0.236328125,-0.9460448622703552,0.2136230319738388,-0.2441406100988388,86.66667175292969,159911.0,1.0
12:08:26.934254,202103.671875,196452.625,220638.109375,209146.0,221442.59375,179123.84375,-705769.875,180408.453125,0.01416015625,0.994140625,-0.23291015625,-1.0375975370407104,0.3967284858226776,-0.1831054538488388,86.66667175292969,159912.0,1.0
12:08:26.944286,202088.296875,196437.78125,220629.875,209142.875,221419.875,179106.859375,-705772.75,180405.9375,0.013427734375,0.991943359375,-0.2333984375,-1.2512205839157104,0.3051757514476776,-0.1220703050494194,86.66667175292969,159913.0,1.0
12:08:26.948614,202079.8125,196433.671875,220620.765625,209139.203125,221395.015625,179100.78125,-705771.5,180401.03125,0.0126953125,0.99267578125,-0.233154296875,-1.4343260526657104,0.3051757514476776,0.0610351525247097,86.66667175292969,159914.0,1.0
12:08:26.948645,202096.96875,196447.078125,220630.0625,209145.8125,221416.5625,179110.53125,-705763.0625,180409.25,0.00927734375,0.9931640625,-0.23583984375,-1.5563963651657104,0.2136230319738388,0.1525878757238388,86.66667175292969,159915.0,1.0
12:08:26.957408,202106.8125,196454.765625,220639.796875,209148.6875,221444.828125,179121.171875,-705763.0,180415.25,0.00830078125,0.991943359375,-0.233642578125,-1.6784666776657104,0.1831054538488388,0.3662109076976776,86.66667175292969,159916.0,1.0
12:08:26.957419,202092.6875,196442.34375,220633.546875,209142.953125,221427.5625,179107.9375,-705771.1875,180407.46875,0.0078125,0.990234375,-0.234375,-1.8310545682907104,0.0915527269244194,0.4882812201976776,86.66667175292969,159917.0,1.0
12:08:26.959296,202079.8125,196433.390625,220622.28125,209142.0625,221397.265625,179096.046875,-705776.0625,180403.890625,0.0048828125,0.98828125,-0.22900390625,-1.8920897245407104,-0.03051757626235485,0.5493163466453552,86.66667175292969,159918.0,1.0
12:08:26.966752,202087.140625,196442.421875,220622.546875,209141.96875,221405.75,179106.859375,-705776.125,180401.75,0.003173828125,0.98974609375,-0.230224609375,-2.044677495956421,-0.2441406100988388,0.6103515028953552,86.66667175292969,159919.0,1.0
12:08:26.971162,202099.125,196450.203125,220630.765625,209142.515625,221433.734375,179117.140625,-705776.1875,180405.046875,0.0048828125,0.98974609375,-0.2314453125,-2.044677495956421,-0.3662109076976776,0.7324218153953552,86.66667175292969,159920.0,1.0
12:08:26.971195,202091.25,196443.40625,220628.890625,209141.265625,221428.28125,179110.265625,-705779.5,180405.140625,0.0048828125,0.9892578125,-0.231201171875,-2.105712652206421,-0.4577636420726776,0.7629393935203552,86.66667175292969,159921.0,1.0
12:08:26.976767,202076.859375,196430.09375,220616.828125,209141.34375,221393.140625,179093.984375,-705782.0,180401.65625,0.004638671875,0.986572265625,-0.232666015625,-2.166747808456421,-0.6713866591453552,0.7019042372703552,86.66667175292969,159922.0,1.0
12:08:26.989854,202083.109375,196436.265625,220617.359375,209141.609375,221395.828125,179101.234375,-705773.875,180399.421875,0.009033203125,0.985595703125,-0.232666015625,-2.227782964706421,-0.7629393935203552,0.7629393935203552,86.66667175292969,159923.0,1.0
12:08:26.989933,202096.4375,196445.015625,220625.859375,209140.71875,221423.640625,179112.21875,-705771.0,180402.28125,0.009033203125,0.98583984375,-0.232666015625,-2.258300542831421,-0.9155272841453552,0.8544921278953552,86.66667175292969,159924.0,1.0
12:08:26.989958,202092.765625,196441.796875,220627.375,209138.671875,221423.28125,179107.390625,-705773.0625,180399.15625,0.009033203125,0.9873046875,-0.22900390625,-2.349853277206421,-1.0375975370407104,1.0375975370407104,86.66667175292969,159925.0,1.0
12:08:26.989981,202078.109375,196428.84375,220616.46875,209137.953125,221391.09375,179088.53125,-705772.125,180395.75,0.012451171875,0.986083984375,-0.232421875,-2.441406011581421,-1.0375975370407104,1.0986326932907104,86.66667175292969,159926.0,1.0
12:08:26.996835,202078.46875,196436.796875,220613.875,209135.265625,221387.25,179095.78125,-705773.8125,180392.09375,0.012939453125,0.9873046875,-0.23388671875,-2.502441167831421,-1.0070799589157104,1.0681151151657104,86.66667175292969,159927.0,1.0
12:08:27.003584,202095.90625,196446.453125,220624.25,209139.828125,221418.265625,179109.546875,-705772.25,180398.703125,0.015625,0.986328125,-0.23388671875,-2.441406011581421,-0.9765624403953552,1.1596678495407104,86.66667175292969,159928.0,1.0
12:08:27.003595,202095.8125,196439.75,220627.109375,209142.421875,221426.9375,179104.453125,-705781.5,180401.828125,0.016357421875,0.987060546875,-0.23095703125,-2.532958745956421,-0.9155272841453552,1.1901854276657104,86.66667175292969,159929.0,1.0
12:08:27.005530,202081.59375,196426.953125,220617.625,209141.53125,221396.1875,179089.25,-705782.8125,180399.328125,0.01708984375,0.985595703125,-0.231201171875,-2.563476324081421,-0.7934569716453552,1.2817381620407104,86.66667175292969,159930.0,1.0
12:08:27.015532,202080.515625,196429.375,220613.609375,209139.109375,221385.453125,179092.5625,-705790.4375,180394.59375,0.0185546875,0.98388671875,-0.233642578125,-2.563476324081421,-0.7324218153953552,1.3122557401657104,86.66667175292969,159931.0,1.0
12:08:27.022536,202098.578125,196443.5,220625.234375,209145.546875,221417.203125,179109.90625,-705791.3125,180404.15625,0.0205078125,0.984375,-0.2353515625,-2.532958745956421,-0.6408690810203552,1.4953612089157104,86.66667175292969,159932.0,1.0
12:08:27.022590,202098.9375,196442.078125,220629.078125,209145.375,221431.59375,179108.109375,-705786.375,180406.84375,0.021728515625,0.985107421875,-0.2314453125,-2.532958745956421,-0.6103515028953552,1.4648436307907104,86.66667175292969,159933.0,1.0
