Timestamp,Fz,FC3,FCz,FC4,Cz,C3,C4
12:02:16.042309,202151.25,196698.765625,231065.109375,216541.125,228727.46875,177673.9375,-705658.1875,183030.484375,0.000732421875,0.98681640625,-0.23291015625,-2.777099370956421,0.4882812201976776,1.0681151151657104,93.33334350585938,67117.0,1.0
12:02:16.045591,202157.765625,196700.09375,231072.609375,216540.40625,228757.328125,177680.46875,-705653.8125,183035.578125,-0.00146484375,0.987548828125,-0.232666015625,-2.807616949081421,0.4577636420726776,1.0681151151657104,93.33334350585938,67118.0,1.0
12:02:16.045694,202123.078125,196664.609375,231048.203125,216523.859375,228715.484375,177645.140625,-705666.875,183018.421875,-0.0029296875,0.988037109375,-0.2333984375,-2.838134527206421,0.4882812201976776,0.8850097060203552,93.33334350585938,67119.0,1.0
12:02:16.051130,202098.046875,196645.109375,231025.578125,216509.375,228669.984375,177623.78125,-705674.0,183000.890625,-0.002197265625,0.98779296875,-0.236328125,-2.929687261581421,0.5493163466453552,0.8850097060203552,93.33334350585938,67120.0,1.0
12:02:16.057943,202113.421875,196660.3125,231032.921875,216512.234375,228693.5,177640.9375,-705683.4375,183005.546875,-0.00439453125,0.987548828125,-0.232177734375,-2.990722417831421,0.4882812201976776,0.8850097060203552,93.33334350585938,67121.0,1.0
12:02:16.057961,202126.75,196667.28125,231044.625,216515.015625,228728.984375,177649.53125,-705676.5,183013.234375,-0.0029296875,0.987548828125,-0.23095703125,-2.990722417831421,0.4272460639476776,0.7934569716453552,93.33334350585938,67122.0,1.0
12:02:16.066191,202109.3125,196645.296875,231035.421875,216509.46875,228707.0,177625.484375,-705678.9375,183005.453125,-0.002197265625,0.98779296875,-0.231689453125,-2.990722417831421,0.4272460639476776,0.7934569716453552,93.33334350585938,67123.0,1.0
12:02:16.066205,202097.15625,196636.265625,231024.328125,216509.015625,228669.0,177612.421875,-705689.3125,182998.921875,-0.002197265625,0.9873046875,-0.232421875,-2.838134527206421,0.3662109076976776,0.8544921278953552,93.33334350585938,67124.0,1.0
12:02:16.069771,202115.296875,196657.546875,231034.4375,216516.359375,228690.359375,177634.0625,-705685.375,183005.90625,-0.0029296875,0.9873046875,-0.232421875,-2.777099370956421,0.2746581733226776,0.7934569716453552,93.33334350585938,67125.0,1.0
12:02:16.075380,202139.703125,196678.28125,231055.09375,216524.578125,228736.671875,177656.6875,-705676.0625,183020.734375,-0.00341796875,0.986083984375,-0.23095703125,-2.807616949081421,0.3662109076976776,0.8239745497703552,93.33334350585938,67126.0,1.0
12:02:16.075404,202135.421875,196672.65625,231058.484375,216526.984375,228736.5,177652.203125,-705675.0625,183022.984375,-0.003173828125,0.985595703125,-0.229248046875,-2.716064214706421,0.2441406100988388,0.9460448622703552,93.33334350585938,67127.0,1.0
12:02:16.081010,202117.625,196659.515625,231046.59375,216526.359375,228693.578125,177635.40625,-705687.1875,183017.171875,-0.001953125,0.984130859375,-0.2314453125,-2.655029058456421,0.2136230319738388,0.9460448622703552,93.33334350585938,67128.0,1.0
12:02:16.089222,202121.109375,196669.515625,231043.46875,216522.34375,228693.046875,177645.765625,-705684.0625,183010.8125,-0.0009765625,0.98486328125,-0.23095703125,-2.532958745956421,0.1525878757238388,0.9765624403953552,93.33334350585938,67129.0,1.0
12:02:16.089268,202142.75,196682.671875,231056.515625,216525.65625,228731.9375,177660.875,-705683.4375,183017.703125,0.0,0.98583984375,-0.2294921875,-2.563476324081421,0.1831054538488388,1.0070799589157104,93.33334350585938,67130.0,1.0
12:02:16.117707,202140.609375,196677.203125,231060.90625,216527.171875,228739.53125,177656.40625,-705683.5625,183020.734375,-0.00244140625,0.983642578125,-0.230224609375,-2.532958745956421,0.1831054538488388,1.0070799589157104,93.33334350585938,67131.0,1.0
12:02:16.120666,202119.234375,196660.140625,231047.765625,216525.5625,228696.4375,177635.21875,-705684.0625,183014.390625,-0.002685546875,0.982666015625,-0.22802734375,-2.532958745956421,0.1525878757238388,0.9765624403953552,93.33334350585938,67132.0,1.0
12:02:16.120963,202123.34375,196670.859375,231047.046875,216525.46875,228691.078125,177644.96875,-705685.125,183012.15625,-0.000244140625,0.983154296875,-0.2314453125,-2.319335699081421,0.0610351525247097,1.0070799589157104,93.33334350585938,67133.0,1.0
12:02:16.122549,202146.953125,196689.8125,231062.421875,216530.125,228732.296875,177667.140625,-705682.5,183022.53125,-0.001708984375,0.984619140625,-0.230224609375,-2.258300542831421,0.03051757626235485,1.0681151151657104,93.33334350585938,67134.0,1.0
12:02:16.124865,202149.453125,196688.75,231071.8125,216531.734375,228751.609375,177669.46875,-705676.0625,183027.09375,-0.00146484375,0.98388671875,-0.2314453125,-2.136230230331421,0.03051757626235485,1.1596678495407104,93.33334350585938,67135.0,1.0
12:02:16.127515,202131.578125,196670.5,231061.890625,216533.96875,228714.328125,177648.1875,-705673.6875,183024.9375,-0.001220703125,0.983154296875,-0.23095703125,-2.136230230331421,0.03051757626235485,1.2207030057907104,93.33334350585938,67136.0,1.0
12:02:16.129885,202126.921875,196671.578125,231053.390625,216530.03125,228694.75,177646.84375,-705674.4375,183017.34375,-0.000244140625,0.981689453125,-0.229248046875,-2.044677495956421,0.0915527269244194,1.0986326932907104,93.33334350585938,67137.0,1.0
12:02:16.132349,202147.3125,196687.84375,231063.84375,216532.796875,228729.34375,177666.515625,-705673.0625,183024.234375,0.0,0.979248046875,-0.230712890625,-1.9226073026657104,0.03051757626235485,1.2207030057907104,93.33334350585938,67138.0,1.0
12:02:16.135076,202155.265625,196692.5,231075.65625,216536.46875,228758.765625,177674.375,-705670.1875,183034.421875,-0.000244140625,0.979248046875,-0.232666015625,-1.7089842557907104,0.0,1.2207030057907104,93.33334350585938,67139.0,1.0
12:02:16.138644,202129.421875,196668.625,231061.265625,216531.90625,228722.546875,177649.53125,-705665.625,183028.96875,0.00048828125,0.9765625,-0.23095703125,-1.5563963651657104,-0.0915527269244194,1.2512205839157104,93.33334350585938,67140.0,1.0
12:02:16.138696,202112.984375,196655.3125,231038.640625,216522.875,228681.421875,177634.0625,-705677.625,183013.328125,0.000732421875,0.976806640625,-0.23095703125,-1.4648436307907104,-0.03051757626235485,1.2817381620407104,93.33334350585938,67141.0,1.0
12:02:16.138709,202133.1875,196671.75,231043.015625,216525.03125,228704.046875,177648.359375,-705683.75,183014.65625,0.00390625,0.97509765625,-0.2333984375,-1.0986326932907104,0.03051757626235485,1.2512205839157104,93.33334350585938,67142.0,1.0
12:02:16.141347,202148.5625,196683.015625,231059.375,216529.5,228741.59375,177662.3125,-705684.0625,183024.9375,0.0029296875,0.977294921875,-0.2333984375,-1.0070799589157104,0.0,1.1901854276657104,93.33334350585938,67143.0,1.0
12:02:16.145245,202130.953125,196664.6875,231052.3125,216527.53125,228715.84375,177640.859375,-705685.75,183020.203125,0.005859375,0.975830078125,-0.232421875,-0.8850097060203552,0.1525878757238388,1.2207030057907104,93.33334350585938,67144.0,1.0
12:02:16.151388,202118.609375,196657.546875,231040.0625,216526.015625,228678.390625,177631.375,-705682.4375,183010.546875,0.006591796875,0.976806640625,-0.232666015625,-0.6713866591453552,0.1525878757238388,1.0375975370407104,93.33334350585938,67145.0,1.0
12:02:16.157898,202138.8125,196678.640625,231050.4375,216530.75,228705.109375,177655.609375,-705681.25,183016.890625,0.004150390625,0.976318359375,-0.23388671875,-0.4882812201976776,0.2746581733226776,0.9765624403953552,93.33334350585938,67146.0,1.0
12:02:16.157911,202154.8125,196688.5625,231061.890625,216532.359375,228742.75,177670.53125,-705678.875,183024.234375,0.00244140625,0.973876953125,-0.234375,-0.3662109076976776,0.2136230319738388,0.8544921278953552,93.33334350585938,67147.0,1.0
12:02:16.165428,202139.625,196674.625,231056.25,216529.671875,228725.40625,177655.15625,-705679.9375,183019.9375,0.00244140625,0.974365234375,-0.235595703125,-0.1525878757238388,0.2136230319738388,0.8544921278953552,93.33334350585938,67148.0,1.0
12:02:16.165436,202122.359375,196663.53125,231043.640625,216527.625,228685.265625,177642.203125,-705685.625,183013.140625,0.001953125,0.97900390625,-0.232421875,0.0610351525247097,0.2746581733226776,0.5798339247703552,93.33334350585938,67149.0,1.0
12:02:16.171718,202136.046875,196679.265625,231048.65625,216530.125,228699.390625,177658.46875,-705688.9375,183014.296875,0.0,0.97900390625,-0.2333984375,0.1525878757238388,0.3356933295726776,0.3051757514476776,93.33334350585938,67150.0,1.0
12:02:16.171771,202153.75,196692.5,231062.234375,216534.140625,228740.4375,177677.0625,-705684.6875,183024.59375,-0.001953125,0.98291015625,-0.232177734375,0.1220703050494194,0.1525878757238388,0.3051757514476776,93.33334350585938,67151.0,1.0
12:02:16.173568,202143.640625,196681.59375,231061.34375,216532.71875,228735.96875,177666.15625,-705686.5625,183024.234375,-0.003662109375,0.987548828125,-0.2333984375,0.03051757626235485,0.2136230319738388,0.0915527269244194,93.33334350585938,67152.0,1.0
12:02:16.182428,202127.28125,196668.1875,231049.640625,216532.359375,228693.3125,177647.375,-705689.25,183021.375,-0.001708984375,0.98583984375,-0.234375,0.0610351525247097,0.0610351525247097,0.03051757626235485,93.33334350585938,67153.0,1.0
12:02:16.187017,202137.921875,196681.0625,231052.046875,216536.015625,228697.515625,177658.734375,-705684.375,183023.515625,-0.002197265625,0.988525390625,-0.234375,0.0,0.0,-0.1525878757238388,93.33334350585938,67154.0,1.0
12:02:16.187088,202163.140625,196699.109375,231069.578125,216544.0625,228742.21875,177680.109375,-705674.375,183036.75,-0.000244140625,0.990478515625,-0.23388671875,-0.0915527269244194,-0.03051757626235485,-0.2136230319738388,93.33334350585938,67155.0,1.0
12:02:16.192371,202157.953125,196692.328125,231071.359375,216541.828125,228748.921875,177674.5625,-705674.75,183037.375,0.001708984375,0.990966796875,-0.23388671875,-0.2136230319738388,-0.03051757626235485,-0.1525878757238388,93.33334350585938,67156.0,1.0
12:02:16.203085,202139.171875,196675.609375,231059.109375,216539.78125,228706.453125,177654.0,-705679.8125,183031.734375,0.002685546875,0.991943359375,-0.232666015625,-0.2441406100988388,-0.1220703050494194,-0.1831054538488388,93.33334350585938,67157.0,1.0
12:02:16.203167,202140.515625,196685.171875,231057.0625,216540.40625,228698.859375,177662.046875,-705687.6875,183028.515625,0.0048828125,0.994140625,-0.235595703125,-0.3051757514476776,-0.0610351525247097,-0.1525878757238388,93.33334350585938,67158.0,1.0
12:02:16.205102,202162.953125,196702.421875,231069.3125,216543.359375,228737.484375,177681.71875,-705690.125,183036.03125,0.006591796875,0.993408203125,-0.23779296875,-0.4577636420726776,0.0,-0.03051757626235485,93.33334350585938,67159.0,1.0
12:02:16.211201,202162.953125,196699.390625,231073.15625,216541.390625,228752.0625,177679.484375,-705684.9375,183037.015625,0.0078125,0.9931640625,-0.236083984375,-0.6103515028953552,0.03051757626235485,0.0915527269244194,93.33334350585938,67160.0,1.0
12:02:16.217907,202138.546875,196676.859375,231057.0625,216537.8125,228708.78125,177652.921875,-705683.125,183028.609375,0.009033203125,0.994140625,-0.235107421875,-0.7934569716453552,0.1220703050494194,0.1220703050494194,93.33334350585938,67161.0,1.0
12:02:16.217917,202132.375,196678.28125,231049.28125,216534.765625,228690.453125,177654.4375,-705684.0625,183021.8125,0.007080078125,0.99365234375,-0.234619140625,-0.9155272841453552,0.3051757514476776,0.1220703050494194,93.33334350585938,67162.0,1.0
12:02:16.229154,202156.703125,196697.0625,231064.828125,216540.84375,228730.234375,177676.078125,-705674.625,183032.453125,0.004638671875,0.9912109375,-0.234130859375,-1.0070799589157104,0.4577636420726776,0.2746581733226776,93.33334350585938,67163.0,1.0
12:02:16.229226,202166.359375,196702.328125,231077.796875,216543.625,228759.5625,177683.859375,-705676.0625,183040.234375,0.003662109375,0.99169921875,-0.232421875,-1.1291502714157104,0.4577636420726776,0.3662109076976776,93.33334350585938,67164.0,1.0
12:02:16.230408,202145.78125,196681.953125,231066.359375,216540.3125,228723.71875,177659.265625,-705680.125,183034.234375,-0.000732421875,0.990966796875,-0.236083984375,-1.2207030057907104,0.4577636420726776,0.3967284858226776,93.33334350585938,67165.0,1.0
12:02:16.230512,202139.625,196681.328125,231058.75,216540.578125,228697.609375,177656.234375,-705676.0625,183029.40625,-0.0029296875,0.989990234375,-0.23486328125,-1.4038084745407104,0.5493163466453552,0.3662109076976776,93.33334350585938,67166.0,1.0
12:02:16.244823,202160.71875,196699.921875,231069.75,216546.296875,228729.078125,177676.625,-705666.75,183035.9375,-0.002685546875,0.990966796875,-0.232666015625,-1.2817381620407104,0.3967284858226776,0.5187987685203552,93.33334350585938,67167.0,1.0
12:02:16.247829,202174.84375,196708.59375,231082.53125,216549.171875,228763.234375,177687.703125,-705671.625,183042.203125,-0.003662109375,0.98828125,-0.232421875,-1.3732908964157104,0.2746581733226776,0.7629393935203552,93.33334350585938,67168.0,1.0
12:02:16.247833,202157.6875,196690.53125,231075.390625,216547.5625,228738.28125,177668.296875,-705680.125,183038.890625,-0.00341796875,0.98828125,-0.23291015625,-1.4953612089157104,0.3662109076976776,0.6408690810203552,93.33334350585938,67169.0,1.0
12:02:16.255461,202142.125,196678.640625,231060.546875,216543.53125,228699.9375,177655.609375,-705683.875,183030.390625,-0.005126953125,0.9873046875,-0.23291015625,-1.4953612089157104,0.3051757514476776,0.8239745497703552,93.33334350585938,67170.0,1.0
12:02:16.255514,202152.578125,196688.65625,231061.4375,216541.46875,228716.65625,177668.84375,-705679.125,183028.703125,-0.006103515625,0.984130859375,-0.233154296875,-1.4648436307907104,0.2746581733226776,0.8544921278953552,93.33334350585938,67171.0,1.0
12:02:16.261818,202166.984375,196698.84375,231073.59375,216544.0625,228755.90625,177683.0625,-705672.6875,183038.53125,-0.005859375,0.984130859375,-0.23291015625,-1.5258787870407104,0.1525878757238388,0.8544921278953552,93.33334350585938,67172.0,1.0
12:02:16.261828,202146.59375,196678.546875,231063.21875,216536.640625,228737.03125,177662.140625,-705664.875,183031.375,-0.00634765625,0.98193359375,-0.231689453125,-1.5563963651657104,0.0610351525247097,0.8239745497703552,93.33334350585938,67173.0,1.0
12:02:16.271813,202128.0,196663.796875,231047.046875,216533.421875,228692.234375,177643.8125,-705668.1875,183022.625,-0.0048828125,0.9833984375,-0.23486328125,-1.4953612089157104,0.0,0.7934569716453552,93.33334350585938,67174.0,1.0
12:02:16.271845,202141.40625,196680.25,231053.484375,216538.25,228706.453125,177660.4375,-705666.875,183026.734375,-0.005126953125,0.98193359375,-0.234375,-1.5563963651657104,0.0,0.8850097060203552,93.33334350585938,67175.0,1.0
12:02:16.274314,202160.8125,196693.03125,231067.34375,216541.75,228747.578125,177676.625,-705663.9375,183036.125,-0.003662109375,0.98193359375,-0.235107421875,-1.4648436307907104,-0.0610351525247097,0.8544921278953552,93.33334350585938,67176.0,1.0
12:02:16.274384,202148.921875,196679.359375,231064.75,216538.34375,228743.203125,177664.09375,-705667.6875,183034.234375,-0.00390625,0.98193359375,-0.235595703125,-1.3122557401657104,-0.2136230319738388,0.9460448622703552,93.33334350585938,67177.0,1.0
12:02:16.291043,202127.546875,196661.203125,231049.453125,216535.125,228699.125,177642.28125,-705672.9375,183027.359375,-0.00146484375,0.981689453125,-0.23681640625,-1.2512205839157104,-0.2441406100988388,0.9765624403953552,93.33334350585938,67178.0,1.0
12:02:16.300373,202130.40625,196668.453125,231045.875,216532.4375,228697.78125,177649.96875,-705670.875,183023.0625,-0.00244140625,0.981689453125,-0.233642578125,-1.1596678495407104,-0.2136230319738388,1.0681151151657104,93.33334350585938,67179.0,1.0
12:02:16.300388,202148.375,196682.484375,231057.234375,216534.6875,228736.59375,177667.671875,-705675.4375,183030.9375,-0.00146484375,0.981201171875,-0.23486328125,-1.2207030057907104,-0.1831054538488388,1.1901854276657104,93.33334350585938,67180.0,1.0
12:02:16.300391,202142.84375,196674.890625,231058.578125,216530.65625,228743.203125,177660.609375,-705676.0,183028.609375,0.001220703125,0.98095703125,-0.234619140625,-1.1291502714157104,-0.1831054538488388,1.0681151151657104,93.33334350585938,67181.0,1.0
12:02:16.300394,202123.609375,196656.015625,231046.78125,216529.140625,228699.84375,177637.90625,-705678.25,183022.4375,0.0,0.9794921875,-0.235107421875,-0.9155272841453552,-0.1220703050494194,1.0681151151657104,93.33334350585938,67182.0,1.0
12:02:16.343029,202126.75,196661.75,231044.09375,216531.640625,228690.625,177643.09375,-705675.5625,183019.578125,0.002197265625,0.98095703125,-0.236572265625,-0.9155272841453552,-0.0915527269244194,1.0681151151657104,93.33334350585938,67183.0,1.0
12:02:16.343049,202154.640625,196681.234375,231061.4375,216543.703125,228735.6875,177665.0,-705673.3125,183034.234375,0.00439453125,0.980712890625,-0.23583984375,-0.8544921278953552,-0.1525878757238388,1.0681151151657104,93.33334350585938,67184.0,1.0
12:02:16.344930,202155.09375,196679.984375,231066.4375,216542.015625,228753.671875,177665.4375,-705669.4375,183036.75,0.001953125,0.979736328125,-0.23876953125,-0.8850097060203552,-0.0610351525247097,1.1901854276657104,93.33334350585938,67185.0,1.0
12:02:16.348583,202131.84375,196656.828125,231052.40625,216537.8125,228711.640625,177639.421875,-705670.4375,183029.40625,0.00341796875,0.97998046875,-0.23583984375,-0.6103515028953552,0.03051757626235485,1.2817381620407104,93.33334350585938,67186.0,1.0
12:02:16.348625,202128.53125,196658.53125,231045.96875,216536.46875,228692.328125,177639.96875,-705673.0625,183025.390625,0.00439453125,0.98046875,-0.236083984375,-0.6713866591453552,0.03051757626235485,1.4038084745407104,93.33334350585938,67187.0,1.0
12:02:16.348634,202150.609375,196676.5,231056.78125,216542.015625,228728.0,177660.34375,-705677.3125,183034.0625,0.00537109375,0.980712890625,-0.2353515625,-0.5493163466453552,0.1220703050494194,1.3427733182907104,93.33334350585938,67188.0,1.0
12:02:16.351055,202155.09375,196677.484375,231062.15625,216537.546875,228752.328125,177664.375,-705680.25,183034.515625,0.002685546875,0.980712890625,-0.236328125,-0.6103515028953552,0.2136230319738388,1.4038084745407104,93.33334350585938,67189.0,1.0
12:02:16.353670,202133.359375,196656.640625,231050.796875,216534.6875,228718.796875,177641.125,-705678.5,183029.40625,0.001708984375,0.980712890625,-0.236328125,-0.5187987685203552,0.3356933295726776,1.3732908964157104,93.33334350585938,67190.0,1.0
12:02:16.356198,202127.375,196655.484375,231043.28125,216535.21875,228691.796875,177639.0625,-705677.625,183024.859375,0.001953125,0.97998046875,-0.237060546875,-0.4882812201976776,0.3356933295726776,1.1901854276657104,93.33334350585938,67191.0,1.0
12:02:16.358699,202148.109375,196673.546875,231054.546875,216540.40625,228721.921875,177660.34375,-705679.625,183031.296875,0.0009765625,0.980224609375,-0.236083984375,-0.3356933295726776,0.3967284858226776,1.1291502714157104,93.33334350585938,67192.0,1.0
12:02:16.361192,202159.296875,196679.71875,231065.453125,216540.84375,228754.296875,177669.203125,-705678.25,183036.390625,0.001953125,0.980224609375,-0.237060546875,-0.3967284858226776,0.4272460639476776,1.1291502714157104,93.33334350585938,67193.0,1.0
12:02:16.363700,202140.96875,196661.125,231057.59375,216538.25,228729.25,177646.671875,-705679.375,183032.09375,0.003662109375,0.981201171875,-0.23974609375,-0.3051757514476776,0.4577636420726776,1.0986326932907104,93.33334350585938,67194.0,1.0
12:02:16.366100,202124.875,196651.640625,231044.71875,216535.3125,228691.53125,177632.8125,-705681.375,183023.515625,0.004638671875,0.98193359375,-0.23828125,-0.1831054538488388,0.5493163466453552,0.9765624403953552,93.33334350585938,67195.0,1.0
12:02:16.369289,202140.0625,196665.40625,231050.4375,216536.640625,228710.390625,177648.90625,-705680.4375,183024.59375,0.004150390625,0.984619140625,-0.23876953125,-0.1220703050494194,0.4272460639476776,1.0070799589157104,93.33334350585938,67196.0,1.0
12:02:16.371126,202158.84375,196678.015625,231064.75,216541.296875,228749.90625,177664.734375,-705673.125,183034.328125,0.00439453125,0.985595703125,-0.23876953125,-0.2441406100988388,0.5493163466453552,1.0375975370407104,93.33334350585938,67197.0,1.0
12:02:16.373543,202141.9375,196661.03125,231057.0625,216535.9375,228732.828125,177646.671875,-705675.5625,183028.703125,0.001708984375,0.983642578125,-0.2412109375,-0.2136230319738388,0.6408690810203552,0.9765624403953552,93.33334350585938,67198.0,1.0
12:02:16.380382,202127.109375,196649.046875,231044.625,216535.484375,228692.421875,177632.0,-705672.875,183023.609375,0.002197265625,0.98095703125,-0.240478515625,-0.2746581733226776,0.5798339247703552,0.8544921278953552,93.33334350585938,67199.0,1.0
12:02:16.380394,202137.46875,196662.546875,231046.78125,216535.9375,228701.984375,177645.859375,-705674.3125,183022.265625,0.002685546875,0.983154296875,-0.2412109375,-0.1831054538488388,0.4882812201976776,0.7019042372703552,93.33334350585938,67200.0,1.0
12:02:16.386010,202156.78125,196676.859375,231060.8125,216538.25,228743.109375,177664.1875,-705680.25,183028.96875,0.001220703125,0.983154296875,-0.24462890625,-0.1220703050494194,0.6103515028953552,0.6408690810203552,93.33334350585938,67201.0,1.0
12:02:16.389089,202146.328125,196667.90625,231059.296875,216534.40625,228739.09375,177654.984375,-705673.5,183026.375,0.00341796875,0.983642578125,-0.246337890625,0.0915527269244194,0.6713866591453552,0.6103515028953552,93.33334350585938,67202.0,1.0
12:02:16.389093,202125.3125,196651.8125,231043.375,216529.3125,228693.40625,177635.046875,-705672.0625,183016.625,0.00634765625,0.984375,-0.24365234375,0.03051757626235485,0.6103515028953552,0.6103515028953552,93.33334350585938,67203.0,1.0
12:02:16.391112,202134.703125,196665.671875,231044.453125,216530.5625,228695.734375,177648.71875,-705679.3125,183014.390625,0.004638671875,0.98828125,-0.2431640625,0.0,0.6408690810203552,0.4882812201976776,93.33334350585938,67204.0,1.0
12:02:16.393541,202157.953125,196685.703125,231059.921875,216537.09375,228738.28125,177672.0625,-705678.6875,183026.28125,0.00244140625,0.98583984375,-0.2421875,-0.0610351525247097,0.7019042372703552,0.4882812201976776,93.33334350585938,67205.0,1.0
12:02:16.396071,202155.0,196682.21875,231064.296875,216536.203125,228748.5625,177669.015625,-705676.5,183028.78125,0.00146484375,0.984375,-0.245849609375,-0.0610351525247097,0.7019042372703552,0.3967284858226776,93.33334350585938,67206.0,1.0
12:02:16.402976,202131.75,196660.3125,231048.390625,216531.28125,228702.25,177643.265625,-705687.6875,183019.9375,0.001220703125,0.9873046875,-0.245361328125,-0.1220703050494194,0.7324218153953552,0.3967284858226776,93.33334350585938,67207.0,1.0
12:02:16.402985,202133.1875,196667.734375,231044.265625,216530.921875,228691.53125,177650.515625,-705692.0625,183016.359375,0.000732421875,0.986328125,-0.24365234375,-0.0610351525247097,0.6408690810203552,0.3051757514476776,93.33334350585938,67208.0,1.0
12:02:16.405362,202156.703125,196686.515625,231057.59375,216537.09375,228730.59375,177672.140625,-705686.375,183026.640625,0.000244140625,0.9873046875,-0.24560546875,-0.1525878757238388,0.6408690810203552,0.3051757514476776,93.33334350585938,67209.0,1.0
12:02:16.405366,202155.359375,196682.578125,231060.1875,216534.859375,228746.421875,177669.90625,-705680.25,183028.25,-0.001220703125,0.986083984375,-0.243408203125,-0.0915527269244194,0.5493163466453552,0.3662109076976776,93.33334350585938,67210.0,1.0
12:02:16.414850,202132.109375,196659.234375,231044.890625,216528.875,228703.328125,177643.984375,-705677.6875,183020.828125,-0.00146484375,0.985595703125,-0.240478515625,-0.1831054538488388,0.4577636420726776,0.3051757514476776,93.33334350585938,67211.0,1.0
12:02:16.419194,202123.890625,196658.796875,231034.609375,216525.203125,228679.28125,177641.484375,-705680.75,183014.65625,-0.00146484375,0.9833984375,-0.24267578125,-0.2136230319738388,0.3967284858226776,0.3662109076976776,93.33334350585938,67212.0,1.0
12:02:16.419214,202144.265625,196676.40625,231045.875,216528.78125,228715.046875,177663.125,-705683.0625,183021.8125,-0.000732421875,0.985107421875,-0.242919921875,-0.2746581733226776,0.3051757514476776,0.3967284858226776,93.33334350585938,67213.0,1.0
12:02:16.421112,202152.9375,196681.328125,231057.59375,216530.484375,228744.984375,177671.96875,-705671.5,183027.796875,-0.0009765625,0.98388671875,-0.242919921875,-0.3356933295726776,0.3662109076976776,0.3662109076976776,93.33334350585938,67214.0,1.0
12:02:16.431052,202134.796875,196663.625,231048.734375,216529.9375,228714.140625,177650.875,-705670.1875,183022.703125,0.0,0.985107421875,-0.244140625,-0.4272460639476776,0.2746581733226776,0.3967284858226776,93.33334350585938,67215.0,1.0
12:02:16.435388,202124.875,196659.78125,231036.671875,216526.1875,228681.953125,177644.609375,-705678.5625,183013.59375,-0.002197265625,0.98486328125,-0.244384765625,-0.4272460639476776,0.0915527269244194,0.3967284858226776,93.33334350585938,67216.0,1.0
12:02:16.435445,202147.046875,196679.625,231048.03125,216532.625,228712.0,177665.796875,-705679.0,183021.09375,-0.0009765625,0.986328125,-0.24609375,-0.4272460639476776,0.0610351525247097,0.3356933295726776,93.33334350585938,67217.0,1.0
12:02:16.444904,202162.78125,196691.421875,231061.796875,216536.203125,228748.125,177678.859375,-705669.1875,183029.765625,-0.00146484375,0.986328125,-0.24609375,-0.4577636420726776,0.0915527269244194,0.3356933295726776,93.33334350585938,67218.0,1.0
12:02:16.447911,202144.8125,196673.8125,231053.84375,216533.25,228723.890625,177659.359375,-705669.75,183025.84375,-0.0029296875,0.986328125,-0.24365234375,-0.6103515028953552,0.03051757626235485,0.4272460639476776,93.33334350585938,67219.0,1.0
12:02:16.447977,202127.734375,196662.015625,231038.1875,216528.78125,228683.65625,177644.34375,-705679.375,183016.453125,-0.002197265625,0.9873046875,-0.243408203125,-0.6713866591453552,0.03051757626235485,0.5187987685203552,93.33334350585938,67220.0,1.0
12:02:16.453705,202142.21875,196675.78125,231042.390625,216529.9375,228702.25,177661.15625,-705680.8125,183017.703125,0.0,0.98583984375,-0.242431640625,-0.7629393935203552,0.03051757626235485,0.5798339247703552,93.33334350585938,67221.0,1.0
12:02:16.456092,202158.125,196685.171875,231054.015625,216531.734375,228740.25,177674.921875,-705674.3125,183026.1875,-0.00048828125,0.986572265625,-0.241455078125,-0.7324218153953552,-0.1525878757238388,0.7324218153953552,93.33334350585938,67222.0,1.0
12:02:16.462353,202144.8125,196670.140625,231050.265625,216530.390625,228727.734375,177659.625,-705678.9375,183024.765625,0.0009765625,0.98388671875,-0.242919921875,-0.8544921278953552,-0.1220703050494194,0.7934569716453552,93.33334350585938,67223.0,1.0
12:02:16.469119,202124.421875,196654.5,231035.515625,216526.09375,228684.90625,177642.90625,-705682.6875,183016.0,-0.001953125,0.984619140625,-0.2431640625,-0.9460448622703552,-0.0610351525247097,0.7324218153953552,93.33334350585938,67224.0,1.0
12:02:16.469134,202137.921875,196670.328125,231041.328125,216529.3125,228696.890625,177660.53125,-705676.25,183017.96875,0.000732421875,0.98486328125,-0.2431640625,-1.0681151151657104,-0.03051757626235485,0.8544921278953552,93.33334350585938,67225.0,1.0
12:02:16.479238,202161.703125,196687.5,231058.578125,216534.6875,228739.984375,177680.46875,-705673.8125,183028.78125,0.0,0.985107421875,-0.24072265625,-1.0681151151657104,-0.1220703050494194,0.9155272841453552,93.33334350585938,67226.0,1.0
12:02:16.479271,202148.65625,196674.625,231053.5625,216527.890625,228734.265625,177665.890625,-705674.125,183022.4375,-0.00048828125,0.98486328125,-0.2431640625,-1.1901854276657104,-0.1525878757238388,0.8850097060203552,93.33334350585938,67227.0,1.0
12:02:16.481076,202125.765625,196656.828125,231037.296875,216525.203125,228688.21875,177644.15625,-705676.875,183013.328125,-0.000244140625,0.9853515625,-0.244140625,-1.2207030057907104,-0.1525878757238388,1.0070799589157104,93.33334350585938,67228.0,1.0
12:02:16.484863,202131.65625,196666.65625,231036.671875,216526.09375,228686.875,177654.359375,-705678.6875,183011.984375,0.0009765625,0.983642578125,-0.246337890625,-1.3122557401657104,-0.1525878757238388,0.9765624403953552,93.33334350585938,67229.0,1.0
12:02:16.494188,202153.296875,196681.953125,231048.46875,216529.671875,228725.40625,177671.25,-705671.4375,183021.546875,-0.000732421875,0.985595703125,-0.24365234375,-1.3732908964157104,-0.1831054538488388,1.0070799589157104,93.33334350585938,67230.0,1.0
12:02:16.494204,202148.5625,196676.234375,231050.0,216527.078125,228734.796875,177666.96875,-705662.5,183023.6875,-0.000244140625,0.98681640625,-0.24365234375,-1.3427733182907104,-0.1525878757238388,1.0070799589157104,93.33334350585938,67231.0,1.0
12:02:16.496129,202122.90625,196654.140625,231032.375,216522.078125,228689.65625,177641.125,-705674.1875,183015.640625,0.001708984375,0.984619140625,-0.242431640625,-1.4953612089157104,-0.2441406100988388,1.0375975370407104,93.33334350585938,67232.0,1.0
12:02:16.499913,202121.203125,196658.078125,231026.21875,216520.28125,228675.25,177642.734375,-705685.0,183009.75,-0.000732421875,0.98486328125,-0.24462890625,-1.5258787870407104,-0.2746581733226776,1.0070799589157104,93.33334350585938,67233.0,1.0
12:02:16.510481,202144.625,196675.0625,231039.796875,216526.546875,228713.25,177663.65625,-705685.5625,183019.765625,0.000732421875,0.981689453125,-0.241455078125,-1.4953612089157104,-0.2746581733226776,0.8239745497703552,93.33334350585938,67234.0,1.0
12:02:16.510493,202148.921875,196675.6875,231046.5,216525.46875,228733.375,177667.234375,-705680.1875,183024.046875,0.0029296875,0.982177734375,-0.240234375,-1.4648436307907104,-0.3051757514476776,0.8544921278953552,93.33334350585938,67235.0,1.0
12:02:16.512323,202126.921875,196653.875,231032.375,216521.1875,228692.234375,177641.75,-705680.75,183016.1875,0.00341796875,0.98583984375,-0.2412109375,-1.6174315214157104,-0.2136230319738388,0.8239745497703552,93.33334350585938,67236.0,1.0
12:02:16.522315,202119.140625,196652.53125,231022.359375,216517.15625,228667.125,177637.8125,-705688.875,183007.515625,0.003173828125,0.98486328125,-0.244873046875,-1.6479490995407104,-0.2136230319738388,0.7629393935203552,93.33334350585938,67237.0,1.0
12:02:16.525408,202143.734375,196674.625,231038.734375,216527.4375,228706.375,177663.203125,-705679.5625,183020.296875,0.002685546875,0.984375,-0.244873046875,-1.7395018339157104,-0.1831054538488388,0.7324218153953552,93.33334350585938,67238.0,1.0
12:02:16.525417,202152.859375,196680.609375,231051.953125,216529.046875,228737.84375,177670.984375,-705676.6875,183027.09375,0.005615234375,0.983642578125,-0.2451171875,-1.8615721464157104,-0.1525878757238388,0.6103515028953552,93.33334350585938,67239.0,1.0
12:02:16.529867,202135.59375,196662.28125,231044.71875,216528.875,228709.046875,177649.078125,-705685.3125,183022.984375,0.0068359375,0.98193359375,-0.24169921875,-1.8005369901657104,-0.03051757626235485,0.6103515028953552,93.33334350585938,67240.0,1.0
12:02:16.534155,202125.578125,196658.078125,231032.828125,216527.890625,228678.03125,177641.75,-705690.375,183015.5625,0.0048828125,0.98388671875,-0.2421875,-1.8615721464157104,0.0,0.6408690810203552,93.33334350585938,67241.0,1.0
12:02:16.534190,202144.984375,196674.265625,231039.796875,216530.484375,228703.6875,177660.171875,-705687.9375,183019.125,0.005126953125,0.98486328125,-0.244384765625,-1.8615721464157104,0.0,0.5493163466453552,93.33334350585938,67242.0,1.0
12:02:16.543629,202156.078125,196680.703125,231048.46875,216529.859375,228735.421875,177669.90625,-705687.875,183024.234375,0.004638671875,0.98486328125,-0.24365234375,-1.9226073026657104,0.0,0.5493163466453552,93.33334350585938,67243.0,1.0
12:02:16.546668,202133.546875,196659.421875,231036.3125,216521.890625,228708.25,177648.0,-705684.6875,183015.5625,0.005126953125,0.985595703125,-0.239990234375,-1.8615721464157104,0.0,0.5187987685203552,93.33334350585938,67244.0,1.0
12:02:16.546695,202117.453125,196649.578125,231023.0,216517.875,228669.359375,177635.765625,-705679.625,183007.421875,0.005615234375,0.98681640625,-0.2421875,-1.9226073026657104,0.0610351525247097,0.6103515028953552,93.33334350585938,67245.0,1.0
12:02:16.548569,202134.171875,196667.109375,231030.59375,216521.1875,228689.828125,177652.296875,-705681.375,183010.90625,0.006103515625,0.98681640625,-0.2421875,-2.044677495956421,0.1831054538488388,0.5798339247703552,93.33334350585938,67246.0,1.0
12:02:16.563567,202152.40625,196679.625,231044.546875,216522.609375,228728.90625,177668.125,-705677.3125,183017.171875,0.00634765625,0.988037109375,-0.242919921875,-2.105712652206421,0.3051757514476776,0.4577636420726776,93.33334350585938,67247.0,1.0
12:02:16.566651,202140.15625,196668.359375,231040.875,216518.046875,228716.921875,177655.515625,-705680.125,183011.890625,0.00537109375,0.98876953125,-0.24169921875,-2.105712652206421,0.3051757514476776,0.4882812201976776,93.33334350585938,67248.0,1.0
12:02:16.566669,202122.09375,196654.6875,231026.5625,216514.75,228673.90625,177638.359375,-705688.9375,183002.953125,0.005859375,0.98779296875,-0.23876953125,-2.197265386581421,0.3356933295726776,0.4882812201976776,93.33334350585938,67249.0,1.0
12:02:16.568545,202134.609375,196670.6875,231031.75,216519.578125,228686.78125,177655.78125,-705682.0,183006.96875,0.005615234375,0.987548828125,-0.239013671875,-2.258300542831421,0.5187987685203552,0.5493163466453552,93.33334350585938,67250.0,1.0
12:02:16.572259,202157.765625,196688.03125,231049.453125,216527.265625,228731.484375,177676.625,-705670.1875,183021.28125,0.004150390625,0.98583984375,-0.238037109375,-2.319335699081421,0.5798339247703552,0.5798339247703552,93.33334350585938,67251.0,1.0
12:02:16.587928,202149.1875,196678.1875,231049.71875,216524.578125,228730.59375,177668.03125,-705665.25,183020.921875,0.00341796875,0.9853515625,-0.240234375,-2.410888433456421,0.5493163466453552,0.6103515028953552,93.33334350585938,67252.0,1.0
12:02:16.587946,202131.9375,196663.0,231038.734375,216526.90625,228689.734375,177651.046875,-705666.6875,183018.328125,0.001953125,0.984619140625,-0.2373046875,-2.441406011581421,0.4272460639476776,0.5798339247703552,93.33334350585938,67253.0,1.0
12:02:16.590378,202145.25,196678.90625,231044.453125,216534.140625,228695.109375,177668.84375,-705661.6875,183022.0,0.0,0.983154296875,-0.23583984375,-2.441406011581421,0.5187987685203552,0.5798339247703552,93.33334350585938,67254.0,1.0
12:02:16.590385,202161.609375,196688.390625,231053.5625,216534.140625,228731.140625,177682.078125,-705663.125,183027.0,-0.00048828125,0.985595703125,-0.234619140625,-2.441406011581421,0.4577636420726776,0.4577636420726776,93.33334350585938,67255.0,1.0
12:02:16.592286,202146.859375,196671.046875,231046.328125,216521.0,228731.40625,177665.171875,-705668.375,183018.421875,-0.0009765625,0.986328125,-0.2353515625,-2.410888433456421,0.4272460639476776,0.4272460639476776,93.33334350585938,67256.0,1.0
12:02:16.597332,202117.984375,196642.703125,231024.421875,216511.078125,228681.25,177631.640625,-705675.875,183005.28125,-0.00146484375,0.984619140625,-0.236083984375,-2.502441167831421,0.3356933295726776,0.5493163466453552,93.33334350585938,67257.0,1.0
12:02:16.603640,202112.171875,196644.671875,231015.390625,216506.515625,228664.4375,177633.609375,-705675.625,182997.3125,-0.00146484375,0.985107421875,-0.2373046875,-2.441406011581421,0.3662109076976776,0.4577636420726776,93.33334350585938,67258.0,1.0
12:02:16.614948,202127.734375,196656.375,231021.296875,216504.734375,228695.734375,177646.84375,-705674.8125,182999.1875,-0.0029296875,0.984619140625,-0.23828125,-2.410888433456421,0.2136230319738388,0.4577636420726776,93.33334350585938,67259.0,1.0
12:02:16.614992,202130.953125,196654.5,231027.109375,216503.65625,228714.953125,177645.140625,-705682.0625,183001.34375,-0.005126953125,0.980712890625,-0.238037109375,-2.349853277206421,0.1525878757238388,0.4882812201976776,93.33334350585938,67260.0,1.0
12:02:16.614996,202109.578125,196631.796875,231012.984375,216501.59375,228674.890625,177618.765625,-705687.1875,182994.546875,-0.00537109375,0.9814453125,-0.23681640625,-2.319335699081421,0.03051757626235485,0.3662109076976776,93.33334350585938,67261.0,1.0
12:02:16.617902,202111.28125,196641.1875,231012.078125,216507.859375,228657.546875,177625.03125,-705679.5,182994.546875,-0.00341796875,0.982177734375,-0.235595703125,-2.166747808456421,0.0915527269244194,0.2746581733226776,93.33334350585938,67262.0,1.0
12:02:16.617921,202138.546875,196664.421875,231028.71875,216517.15625,228695.1875,177649.609375,-705673.5,183004.734375,-0.001708984375,0.982177734375,-0.232177734375,-2.166747808456421,-0.0610351525247097,0.3662109076976776,93.33334350585938,67263.0,1.0
12:02:16.626046,202150.34375,196671.484375,231041.140625,216520.28125,228727.734375,177659.265625,-705668.9375,183012.515625,-0.001220703125,0.98193359375,-0.234619140625,-2.044677495956421,-0.0915527269244194,0.4882812201976776,93.33334350585938,67264.0,1.0
12:02:16.630381,202131.65625,196653.703125,231032.5625,216517.6875,228699.484375,177639.515625,-705670.5625,183008.765625,-0.001220703125,0.980224609375,-0.234130859375,-1.9836424589157104,-0.2441406100988388,0.5187987685203552,93.33334350585938,67265.0,1.0
12:02:16.630388,202124.15625,196652.09375,231026.03125,216518.046875,228672.578125,177635.578125,-705675.625,183005.453125,0.0,0.983154296875,-0.234375,-1.8615721464157104,-0.2746581733226776,0.5187987685203552,93.33334350585938,67266.0,1.0
12:02:16.637365,202148.46875,196673.546875,231039.625,216524.9375,228702.609375,177658.46875,-705673.75,183013.046875,0.000732421875,0.982421875,-0.23583984375,-1.8005369901657104,-0.2441406100988388,0.5493163466453552,93.33334350585938,67267.0,1.0
12:02:16.650465,202164.03125,196685.796875,231053.65625,216527.265625,228738.46875,177671.96875,-705668.6875,183020.109375,0.000732421875,0.982177734375,-0.234619140625,-1.8310545682907104,-0.2441406100988388,0.6103515028953552,93.33334350585938,67268.0,1.0
12:02:16.650476,202144.890625,196667.015625,231044.359375,216523.140625,228715.21875,177651.671875,-705665.6875,183015.109375,0.0,0.982421875,-0.236083984375,-1.8005369901657104,-0.3356933295726776,0.7324218153953552,93.33334350585938,67269.0,1.0
12:02:16.652958,202129.421875,196658.34375,231031.75,216520.734375,228677.046875,177639.15625,-705671.0,183008.140625,0.000244140625,0.983642578125,-0.236328125,-1.7700194120407104,-0.3356933295726776,0.7019042372703552,93.33334350585938,67270.0,1.0
12:02:16.652969,202144.09375,196674.4375,231039.359375,216523.234375,228696.171875,177656.953125,-705671.1875,183010.546875,0.000732421875,0.983154296875,-0.236328125,-1.6479490995407104,-0.4272460639476776,0.6713866591453552,93.33334350585938,67271.0,1.0
12:02:16.658530,202162.859375,196689.109375,231055.171875,216526.359375,228738.46875,177674.5625,-705667.3125,183020.921875,0.000244140625,0.98095703125,-0.234619140625,-1.5258787870407104,-0.4882812201976776,0.7019042372703552,93.33334350585938,67272.0,1.0
12:02:16.665395,202150.890625,196675.953125,231052.140625,216524.75,228729.34375,177661.953125,-705661.9375,183018.421875,0.000244140625,0.97998046875,-0.237548828125,-1.4648436307907104,-0.3967284858226776,0.8239745497703552,93.33334350585938,67273.0,1.0
12:02:16.665404,202131.578125,196660.21875,231036.40625,216519.578125,228684.1875,177642.90625,-705659.4375,183008.84375,0.00048828125,0.978515625,-0.236083984375,-1.4953612089157104,-0.3662109076976776,0.8544921278953552,93.33334350585938,67274.0,1.0
12:02:16.667286,202141.859375,196674.078125,231039.984375,216521.453125,228692.421875,177656.859375,-705667.5625,183011.984375,0.002685546875,0.978271484375,-0.23828125,-1.4038084745407104,-0.4577636420726776,0.8544921278953552,93.33334350585938,67275.0,1.0
12:02:16.703078,202165.09375,196691.609375,231056.34375,216527.96875,228735.6875,177679.5625,-705663.125,183025.125,0.002685546875,0.9775390625,-0.2373046875,-1.1901854276657104,-0.3967284858226776,0.7934569716453552,93.33334350585938,67276.0,1.0
12:02:16.703096,202159.734375,196684.359375,231057.421875,216527.53125,228738.015625,177673.9375,-705665.375,183026.46875,0.001708984375,0.979248046875,-0.239501953125,-0.9765624403953552,-0.4882812201976776,0.8544921278953552,93.33334350585938,67277.0,1.0
12:02:16.721186,202137.46875,196664.515625,231041.765625,216525.109375,228692.875,177650.78125,-705669.3125,183019.125,0.003662109375,0.976806640625,-0.240966796875,-0.9460448622703552,-0.3967284858226776,0.8544921278953552,93.33334350585938,67278.0,1.0
12:02:16.721205,202140.0625,196671.9375,231038.640625,216523.6875,228689.296875,177657.75,-705671.8125,183016.0,0.005615234375,0.9775390625,-0.242431640625,-0.8544921278953552,-0.3356933295726776,0.9155272841453552,93.33334350585938,67279.0,1.0
12:02:16.721207,202160.265625,196686.78125,231051.421875,216528.15625,228729.96875,177675.546875,-705663.375,183025.65625,0.006103515625,0.977294921875,-0.242431640625,-0.5798339247703552,-0.3051757514476776,0.8544921278953552,93.33334350585938,67280.0,1.0
12:02:16.724690,202156.421875,196682.390625,231054.28125,216525.5625,228741.59375,177673.21875,-705664.1875,183025.21875,0.0048828125,0.975830078125,-0.239501953125,-0.5187987685203552,-0.2441406100988388,0.8544921278953552,93.33334350585938,67281.0,1.0
12:02:16.724699,202136.578125,196661.828125,231041.328125,216523.6875,228698.5,177650.515625,-705664.625,183019.046875,0.005615234375,0.97509765625,-0.239013671875,-0.4882812201976776,-0.1525878757238388,0.7019042372703552,93.33334350585938,67282.0,1.0
12:02:16.724701,202134.53125,196664.875,231033.71875,216521.0,228681.6875,177652.390625,-705664.8125,183013.234375,0.00537109375,0.9775390625,-0.2412109375,-0.3967284858226776,-0.1220703050494194,0.6713866591453552,93.33334350585938,67283.0,1.0
12:02:16.728471,202155.09375,196680.078125,231044.546875,216524.578125,228716.921875,177669.828125,-705664.8125,183020.109375,0.00439453125,0.9794921875,-0.240478515625,-0.2441406100988388,-0.0610351525247097,0.6408690810203552,93.33334350585938,67284.0,1.0
12:02:16.728481,202159.375,196681.765625,231053.21875,216525.109375,228740.15625,177673.9375,-705654.6875,183024.046875,0.00390625,0.97705078125,-0.242919921875,-0.0915527269244194,-0.0915527269244194,0.6103515028953552,93.33334350585938,67285.0,1.0
12:02:16.728488,202137.46875,196661.46875,231039.53125,216522.96875,228700.828125,177650.59375,-705648.375,183017.96875,0.001708984375,0.98095703125,-0.2431640625,-0.0610351525247097,-0.0915527269244194,0.4577636420726776,93.33334350585938,67286.0,1.0
12:02:16.731045,202130.671875,196660.84375,231030.0625,216522.34375,228675.34375,177648.0,-705653.5625,183011.890625,0.000732421875,0.9833984375,-0.23876953125,-0.0610351525247097,-0.03051757626235485,0.2441406100988388,93.33334350585938,67287.0,1.0
12:02:16.761982,202151.59375,196679.09375,231040.15625,216527.703125,228708.515625,177669.015625,-705654.375,183018.59375,0.001220703125,0.986572265625,-0.236083984375,-0.1220703050494194,0.0,0.1220703050494194,93.33334350585938,67288.0,1.0
12:02:16.762062,202163.84375,196687.140625,231053.03125,216528.953125,228740.703125,177680.8125,-705651.75,183025.484375,-0.00146484375,0.98779296875,-0.237060546875,-0.2746581733226776,-0.03051757626235485,0.03051757626235485,93.33334350585938,67289.0,1.0
12:02:16.765687,202147.21875,196670.59375,231046.328125,216528.59375,228713.15625,177660.96875,-705648.5625,183022.078125,-0.001953125,0.989013671875,-0.23876953125,-0.3662109076976776,0.0,-0.1831054538488388,93.33334350585938,67290.0,1.0
12:02:16.766803,202138.28125,196667.734375,231037.65625,216528.875,228682.40625,177656.5,-705652.3125,183017.25,0.000244140625,0.990234375,-0.23779296875,-0.5187987685203552,-0.03051757626235485,-0.1525878757238388,93.33334350585938,67291.0,1.0
12:02:16.768550,202155.359375,196683.015625,231044.71875,216530.65625,228706.90625,177674.109375,-705662.375,183020.46875,-0.00048828125,0.992919921875,-0.239013671875,-0.6713866591453552,-0.0610351525247097,-0.1831054538488388,93.33334350585938,67292.0,1.0
12:02:16.771074,202167.78125,196690.625,231055.53125,216528.328125,228741.328125,177685.109375,-705655.625,183025.296875,0.00146484375,0.992431640625,-0.23828125,-0.6408690810203552,-0.0915527269244194,-0.2441406100988388,93.33334350585938,67293.0,1.0
12:02:16.773534,202152.40625,196676.234375,231050.265625,216526.015625,228722.109375,177669.015625,-705648.25,183022.984375,0.00439453125,0.99072265625,-0.239013671875,-0.7324218153953552,-0.0610351525247097,-0.1220703050494194,93.33334350585938,67294.0,1.0
12:02:16.776051,202139.4375,196669.25,231038.640625,216526.453125,228684.109375,177658.296875,-705649.625,183018.78125,0.00634765625,0.989501953125,-0.236328125,-0.8850097060203552,0.03051757626235485,-0.1525878757238388,93.33334350585938,67295.0,1.0
12:02:16.778533,202157.6875,196687.3125,231046.421875,216531.546875,228704.046875,177678.40625,-705651.6875,183024.234375,0.005126953125,0.989501953125,-0.240234375,-1.0986326932907104,0.0,-0.0610351525247097,93.33334350585938,67296.0,1.0
12:02:16.781134,202177.171875,196700.8125,231060.0,216536.296875,228743.921875,177695.125,-705649.25,183035.21875,0.00537109375,0.98974609375,-0.239013671875,-1.1596678495407104,0.0610351525247097,0.0915527269244194,93.33334350585938,67297.0,1.0
12:02:16.783674,202161.609375,196684.28125,231052.765625,216531.8125,228730.6875,177677.421875,-705648.375,183031.5625,0.004150390625,0.989013671875,-0.239501953125,-1.2512205839157104,0.1525878757238388,0.3051757514476776,93.33334350585938,67298.0,1.0
12:02:16.788556,202141.5,196666.578125,231037.921875,216530.203125,228686.4375,177656.953125,-705639.6875,183024.5,0.00341796875,0.98828125,-0.239501953125,-1.3732908964157104,0.2746581733226776,0.2136230319738388,93.33334350585938,67299.0,1.0
12:02:16.791135,202151.59375,196678.015625,231041.40625,216534.59375,228693.9375,177669.734375,-705637.8125,183026.375,0.003662109375,0.987548828125,-0.239501953125,-1.5258787870407104,0.3356933295726776,0.3051757514476776,93.33334350585938,67300.0,1.0
12:02:16.794191,202169.84375,196688.921875,231053.5625,216537.71875,228733.8125,177684.578125,-705649.1875,183035.21875,0.001708984375,0.9873046875,-0.240478515625,-1.5258787870407104,0.3967284858226776,0.4882812201976776,93.33334350585938,67301.0,1.0
12:02:16.794199,202158.125,196675.6875,231051.515625,216532.265625,228735.34375,177674.109375,-705656.5625,183033.96875,0.000732421875,0.985595703125,-0.2412109375,-1.4648436307907104,0.4577636420726776,0.5798339247703552,93.33334350585938,67302.0,1.0
12:02:16.799831,202139.703125,196658.796875,231039.71875,216531.015625,228693.84375,177653.109375,-705659.375,183029.59375,0.0,0.986328125,-0.2412109375,-1.5869139432907104,0.4882812201976776,0.5798339247703552,93.33334350585938,67303.0,1.0
12:02:16.803253,202146.6875,196671.75,231041.859375,216534.859375,228692.78125,177664.09375,-705657.0625,183030.21875,-0.00439453125,0.98681640625,-0.23974609375,-1.7700194120407104,0.4577636420726776,0.6103515028953552,93.33334350585938,67304.0,1.0
12:02:16.803349,202171.453125,196692.5,231059.03125,216543.625,228736.953125,177688.6875,-705653.1875,183043.359375,-0.00439453125,0.984619140625,-0.2392578125,-1.8615721464157104,0.3967284858226776,0.5493163466453552,93.33334350585938,67305.0,1.0
12:02:16.804887,202169.390625,196687.5,231061.078125,216540.046875,228748.65625,177684.21875,-705656.75,183041.484375,-0.004150390625,0.984130859375,-0.2421875,-1.9531248807907104,0.4272460639476776,0.6103515028953552,93.33334350585938,67306.0,1.0
12:02:16.811195,202145.4375,196664.78125,231042.9375,216533.609375,228703.421875,177657.578125,-705652.125,183031.109375,-0.00439453125,0.983642578125,-0.238525390625,-2.044677495956421,0.3662109076976776,0.6713866591453552,93.33334350585938,67307.0,1.0
12:02:16.814240,202144.625,196669.515625,231035.6875,216532.171875,228686.609375,177660.25,-705655.125,183024.40625,-0.003662109375,0.984619140625,-0.2431640625,-2.044677495956421,0.3356933295726776,0.7629393935203552,93.33334350585938,67308.0,1.0
12:02:16.814254,202166.4375,196686.515625,231048.03125,216535.9375,228724.34375,177680.109375,-705653.25,183032.453125,-0.005126953125,0.98291015625,-0.241943359375,-2.105712652206421,0.2441406100988388,0.7934569716453552,93.33334350585938,67309.0,1.0
12:02:16.816162,202170.46875,196685.34375,231057.0625,216536.734375,228747.140625,177682.703125,-705655.0,183037.1875,-0.00146484375,0.98583984375,-0.236572265625,-2.105712652206421,0.0915527269244194,0.8544921278953552,93.33334350585938,67310.0,1.0
12:02:16.818592,202148.921875,196664.96875,231045.703125,216535.578125,228709.59375,177659.1875,-705657.75,183031.734375,-0.000732421875,0.98388671875,-0.23876953125,-2.014159917831421,0.0,0.8850097060203552,93.33334350585938,67311.0,1.0
12:02:16.821098,202142.125,196665.3125,231035.6875,216533.15625,228682.859375,177656.234375,-705656.75,183024.046875,-0.00146484375,0.984619140625,-0.239501953125,-2.105712652206421,-0.03051757626235485,0.8544921278953552,93.33334350585938,67312.0,1.0
12:02:16.823627,202163.3125,196683.109375,231045.4375,216537.09375,228714.859375,177675.359375,-705653.625,183031.203125,-0.00146484375,0.98486328125,-0.2373046875,-2.075195074081421,0.03051757626235485,0.7629393935203552,93.33334350585938,67313.0,1.0
12:02:16.827922,202170.734375,196688.5625,231055.265625,216534.859375,228745.96875,177684.671875,-705648.0,183035.40625,-0.0009765625,0.984130859375,-0.236572265625,-2.136230230331421,-0.0915527269244194,0.7934569716453552,93.33334350585938,67314.0,1.0
12:02:16.827930,202152.859375,196671.40625,231048.734375,216532.625,228719.25,177664.734375,-705648.8125,183031.375,0.001220703125,0.98291015625,-0.23583984375,-2.075195074081421,-0.0915527269244194,0.8544921278953552,93.33334350585938,67315.0,1.0
12:02:16.838038,202141.859375,196665.046875,231038.734375,216531.90625,228688.046875,177656.5,-705651.0625,183026.46875,-0.000244140625,0.982421875,-0.23583984375,-2.136230230331421,-0.0915527269244194,0.8239745497703552,93.33334350585938,67316.0,1.0
12:02:16.838079,202160.359375,196680.875,231047.671875,216537.09375,228713.703125,177674.5625,-705655.8125,183032.71875,0.002197265625,0.982177734375,-0.23828125,-2.075195074081421,-0.0610351525247097,1.0070799589157104,93.33334350585938,67317.0,1.0
12:02:16.840475,202175.46875,196690.265625,231061.703125,216540.765625,228750.171875,177687.171875,-705649.1875,183042.375,0.00390625,0.982421875,-0.236083984375,-1.9836424589157104,-0.03051757626235485,0.9155272841453552,93.33334350585938,67318.0,1.0
12:02:16.840510,202156.703125,196671.9375,231054.109375,216537.09375,228728.984375,177667.046875,-705651.3125,183038.53125,0.00390625,0.980712890625,-0.239013671875,-1.8615721464157104,0.0610351525247097,0.8850097060203552,93.33334350585938,67319.0,1.0
12:02:16.849827,202140.78125,196661.03125,231040.515625,216535.21875,228688.84375,177652.125,-705654.6875,183031.828125,0.004150390625,0.98193359375,-0.24072265625,-1.8920897245407104,0.1220703050494194,0.9460448622703552,93.33334350585938,67320.0,1.0
12:02:16.854253,202155.359375,196677.65625,231045.96875,216538.703125,228705.5625,177669.640625,-705653.875,183033.34375,0.005126953125,0.98046875,-0.239990234375,-1.7700194120407104,0.1220703050494194,0.9155272841453552,93.33334350585938,67321.0,1.0
12:02:16.854328,202176.09375,196694.28125,231060.09375,216542.90625,228747.3125,177688.421875,-705648.8125,183043.546875,0.004638671875,0.981689453125,-0.23583984375,-1.6784666776657104,0.2441406100988388,0.9460448622703552,93.33334350585938,67322.0,1.0
12:02:16.857179,202164.390625,196683.203125,231057.765625,216540.9375,228739.984375,177676.34375,-705636.5,183042.5625,0.005615234375,0.980712890625,-0.236572265625,-1.6784666776657104,0.1525878757238388,1.0375975370407104,93.33334350585938,67323.0,1.0
12:02:16.866113,202144.09375,196666.390625,231043.203125,216538.34375,228695.734375,177656.765625,-705642.9375,183035.40625,0.00390625,0.9814453125,-0.2392578125,-1.4953612089157104,0.2136230319738388,0.9460448622703552,93.33334350585938,67324.0,1.0
12:02:16.870419,202152.046875,196676.671875,231043.109375,216537.90625,228698.859375,177669.375,-705650.75,183031.203125,0.0048828125,0.981689453125,-0.237548828125,-1.4648436307907104,0.3356933295726776,0.9460448622703552,93.33334350585938,67325.0,1.0
12:02:16.870437,202176.359375,196693.9375,231058.3125,216542.453125,228740.609375,177691.8125,-705646.3125,183041.484375,0.003173828125,0.98046875,-0.23876953125,-1.3122557401657104,0.3662109076976776,0.9460448622703552,93.33334350585938,67326.0,1.0
12:02:16.879814,202170.734375,196687.578125,231059.734375,216539.234375,228744.28125,177686.453125,-705646.125,183040.5,0.000732421875,0.98193359375,-0.238525390625,-1.2817381620407104,0.4577636420726776,0.9460448622703552,93.33334350585938,67327.0,1.0
12:02:16.884235,202149.546875,196670.421875,231046.328125,216536.828125,228699.84375,177666.0625,-705656.5625,183033.609375,0.00146484375,0.98046875,-0.2373046875,-1.2512205839157104,0.3967284858226776,0.8850097060203552,93.33334350585938,67328.0,1.0
12:02:16.884245,202153.484375,196679.171875,231044.1875,216537.546875,228694.203125,177674.109375,-705656.875,183031.109375,0.0,0.979736328125,-0.23828125,-1.1901854276657104,0.3662109076976776,0.7324218153953552,93.33334350585938,67329.0,1.0
12:02:16.894245,202173.234375,196691.96875,231053.5625,216542.28125,228730.421875,177691.28125,-705655.9375,183038.53125,0.00048828125,0.97998046875,-0.241455078125,-1.1901854276657104,0.3051757514476776,0.7019042372703552,93.33334350585938,67330.0,1.0
12:02:16.894259,202170.640625,196687.578125,231056.34375,216538.609375,228744.1875,177688.953125,-705662.5625,183039.15625,0.00146484375,0.980712890625,-0.2412109375,-1.1596678495407104,0.2746581733226776,0.5798339247703552,93.33334350585938,67331.0,1.0
12:02:16.896064,202150.796875,196669.171875,231044.71875,216536.828125,228704.765625,177666.96875,-705667.125,183035.40625,0.00341796875,0.984375,-0.239990234375,-1.0986326932907104,0.2136230319738388,0.5187987685203552,93.33334350585938,67332.0,1.0
12:02:16.899908,202149.640625,196675.953125,231040.34375,216538.875,228690.359375,177672.0625,-705663.375,183032.625,0.00341796875,0.984619140625,-0.2392578125,-1.0681151151657104,0.2746581733226776,0.4272460639476776,93.33334350585938,67333.0,1.0
12:02:16.910396,202168.046875,196692.59375,231050.265625,216540.9375,228724.609375,177689.3125,-705655.0,183038.53125,0.00390625,0.98583984375,-0.239501953125,-1.0986326932907104,0.2746581733226776,0.4882812201976776,93.33334350585938,67334.0,1.0
12:02:16.910422,202175.46875,196697.421875,231060.546875,216541.5625,228750.53125,177694.953125,-705651.25,183043.890625,0.0029296875,0.984619140625,-0.239990234375,-1.0681151151657104,0.2441406100988388,0.3662109076976776,93.33334350585938,67335.0,1.0
12:02:16.912983,202152.859375,196674.34375,231046.59375,216536.640625,228711.828125,177669.375,-705657.5,183036.296875,0.0009765625,0.983642578125,-0.240478515625,-1.0375975370407104,0.2441406100988388,0.3356933295726776,93.33334350585938,67336.0,1.0
12:02:16.912993,202142.578125,196670.421875,231035.421875,216533.25,228684.375,177664.453125,-705662.875,183028.96875,0.0009765625,0.982421875,-0.237548828125,-1.0070799589157104,0.1831054538488388,0.2136230319738388,93.33334350585938,67337.0,1.0
12:02:16.921109,202161.796875,196687.5,231045.703125,216537.359375,228715.484375,177684.390625,-705660.0,183035.671875,0.002197265625,0.982177734375,-0.241455078125,-0.8850097060203552,0.1525878757238388,0.2136230319738388,93.33334350585938,67338.0,1.0
12:02:16.924846,202170.90625,196691.34375,231055.453125,216537.90625,228746.15625,177692.171875,-705653.75,183041.21875,0.002685546875,0.98193359375,-0.236328125,-0.8544921278953552,0.1525878757238388,0.2136230319738388,93.33334350585938,67339.0,1.0
12:02:16.932920,202151.328125,196670.859375,231046.0625,216534.953125,228719.25,177669.28125,-705659.625,183037.1875,0.004150390625,0.982177734375,-0.240234375,-0.7324218153953552,0.1220703050494194,0.2136230319738388,93.33334350585938,67340.0,1.0
12:02:16.932984,202137.65625,196663.53125,231034.171875,216532.265625,228684.546875,177658.921875,-705666.625,183029.859375,0.001708984375,0.9833984375,-0.23779296875,-0.7324218153953552,0.1831054538488388,0.3356933295726776,93.33334350585938,67341.0,1.0
12:02:16.934878,202153.5625,196678.734375,231040.875,216534.59375,228707.359375,177675.1875,-705660.8125,183033.4375,0.001953125,0.983642578125,-0.238525390625,-0.6713866591453552,0.2746581733226776,0.2746581733226776,93.33334350585938,67342.0,1.0
12:02:16.943564,202165.90625,196684.453125,231048.734375,216533.96875,228741.421875,177682.875,-705655.875,183037.640625,0.0009765625,0.985107421875,-0.239990234375,-0.7019042372703552,0.3051757514476776,0.1831054538488388,93.33334350585938,67343.0,1.0
12:02:16.950444,202146.6875,196665.3125,231038.90625,216528.421875,228720.40625,177662.671875,-705652.625,183031.734375,-0.00048828125,0.984130859375,-0.2431640625,-0.7019042372703552,0.2441406100988388,0.1831054538488388,93.33334350585938,67344.0,1.0
12:02:16.950505,202128.359375,196652.71875,231024.78125,216524.484375,228678.390625,177646.9375,-705654.0625,183024.046875,-0.000244140625,0.9853515625,-0.240478515625,-0.7019042372703552,0.1525878757238388,0.1525878757238388,93.33334350585938,67345.0,1.0
12:02:16.956677,202142.125,196668.0,231029.078125,216527.078125,228692.234375,177662.9375,-705661.3125,183025.21875,-0.00146484375,0.98486328125,-0.2431640625,-0.6713866591453552,0.0915527269244194,0.0610351525247097,93.33334350585938,67346.0,1.0
12:02:16.956721,202164.03125,196682.3125,231045.609375,216532.890625,228734.0,177680.1875,-705657.0625,183035.84375,-0.002685546875,0.983154296875,-0.2421875,-0.6713866591453552,0.0915527269244194,0.0610351525247097,93.33334350585938,67347.0,1.0
12:02:16.963023,202152.21875,196669.34375,231042.9375,216529.5,228726.21875,177667.59375,-705653.875,183033.4375,-0.0009765625,0.9814453125,-0.244140625,-0.7019042372703552,0.0915527269244194,0.0,93.33334350585938,67348.0,1.0
12:02:16.963067,202132.015625,196653.875,231027.28125,216526.984375,228679.71875,177648.359375,-705665.6875,183026.015625,-0.0009765625,0.983154296875,-0.244384765625,-0.6713866591453552,-0.03051757626235485,0.0610351525247097,93.33334350585938,67349.0,1.0
12:02:16.965213,202141.234375,196667.203125,231028.625,216528.59375,228683.65625,177660.609375,-705672.875,183023.25,-0.0009765625,0.983642578125,-0.242431640625,-0.6408690810203552,-0.0915527269244194,0.03051757626235485,93.33334350585938,67350.0,1.0
12:02:16.976055,202166.796875,196685.4375,231045.96875,216534.40625,228728.1875,177681.453125,-705673.6875,183033.53125,-0.001708984375,0.98388671875,-0.240966796875,-0.6103515028953552,-0.1525878757238388,-0.03051757626235485,93.33334350585938,67351.0,1.0
12:02:16.980376,202163.140625,196679.625,231050.34375,216532.796875,228735.15625,177674.65625,-705661.875,183032.984375,-0.00244140625,0.982421875,-0.241943359375,-0.6408690810203552,-0.1831054538488388,0.03051757626235485,93.33334350585938,67352.0,1.0
12:02:16.980402,202142.390625,196661.390625,231036.40625,216530.203125,228691.96875,177651.5,-705662.5625,183024.9375,-0.00146484375,0.983642578125,-0.2451171875,-0.5798339247703552,-0.1831054538488388,0.1220703050494194,93.33334350585938,67353.0,1.0
12:02:16.982282,202141.765625,196665.859375,231029.703125,216526.09375,228681.6875,177655.96875,-705663.8125,183015.90625,-0.002685546875,0.9833984375,-0.24365234375,-0.5493163466453552,-0.2441406100988388,0.1831054538488388,93.33334350585938,67354.0,1.0
12:02:16.994947,202165.640625,196683.640625,231045.515625,216532.09375,228723.4375,177678.140625,-705659.0,183027.171875,-0.002197265625,0.983154296875,-0.240478515625,-0.5493163466453552,-0.2441406100988388,0.1525878757238388,93.33334350585938,67355.0,1.0
12:02:16.999758,202166.265625,196683.375,231052.59375,216531.546875,228742.3125,177681.265625,-705654.8125,183031.734375,-0.0029296875,0.984619140625,-0.243408203125,-0.5798339247703552,-0.3356933295726776,0.0610351525247097,93.33334350585938,67356.0,1.0
12:02:16.999779,202144.890625,196662.1875,231039.171875,216528.421875,228701.625,177658.109375,-705655.5,183026.90625,-0.00146484375,0.98291015625,-0.24365234375,-0.5798339247703552,-0.3662109076976776,0.0,93.33334350585938,67357.0,1.0
12:02:16.999785,202139.53125,196662.734375,231030.234375,216525.296875,228681.875,177657.75,-705652.125,183021.015625,-0.001220703125,0.98388671875,-0.24365234375,-0.7324218153953552,-0.3051757514476776,0.1831054538488388,93.33334350585938,67358.0,1.0
12:02:17.003534,202158.9375,196678.8125,231040.34375,216528.78125,228715.671875,177674.5625,-705643.4375,183028.609375,-0.001220703125,0.984375,-0.23974609375,-0.6713866591453552,-0.3051757514476776,0.3051757514476776,93.33334350585938,67359.0,1.0
12:02:17.007295,202165.640625,196680.515625,231048.109375,216527.96875,228741.0625,177678.671875,-705649.6875,183033.53125,0.00048828125,0.984375,-0.2412109375,-0.7934569716453552,-0.3662109076976776,0.3356933295726776,93.33334350585938,67360.0,1.0
12:02:17.016644,202139.703125,196653.875,231031.390625,216520.46875,228700.734375,177650.25,-705661.25,183024.40625,0.0009765625,0.9833984375,-0.24365234375,-0.8544921278953552,-0.2441406100988388,0.4882812201976776,93.33334350585938,67361.0,1.0
12:02:17.016671,202127.109375,196649.859375,231018.171875,216514.921875,228669.265625,177642.640625,-705664.375,183013.046875,0.0,0.984130859375,-0.2431640625,-0.8850097060203552,-0.3051757514476776,0.5187987685203552,93.33334350585938,67362.0,1.0
12:02:17.021162,202144.453125,196666.578125,231024.953125,216517.96875,228696.0,177660.53125,-705661.5625,183016.71875,0.000732421875,0.984375,-0.243896484375,-0.9460448622703552,-0.3662109076976776,0.4272460639476776,93.33334350585938,67363.0,1.0
12:02:17.031058,202153.5625,196672.03125,231033.8125,216517.15625,228726.578125,177670.0,-705663.5,183021.09375,-0.001220703125,0.987060546875,-0.241943359375,-1.0070799589157104,-0.2441406100988388,0.5493163466453552,93.33334350585938,67364.0,1.0
12:02:17.033524,202130.671875,196650.125,231021.03125,216510.0,228695.546875,177646.578125,-705667.9375,183013.953125,0.00048828125,0.987060546875,-0.24169921875,-0.9765624403953552,-0.2441406100988388,0.5798339247703552,93.33334350585938,67365.0,1.0
12:02:17.064281,202119.0625,196644.75,231009.671875,216509.5625,228662.296875,177637.8125,-705664.25,183009.03125,0.000732421875,0.985107421875,-0.2431640625,-1.2512205839157104,-0.2746581733226776,0.6408690810203552,93.33334350585938,67366.0,1.0
12:02:17.064300,202134.96875,196659.6875,231016.90625,216512.421875,228684.828125,177654.4375,-705660.25,183013.59375,-0.000244140625,0.98388671875,-0.2431640625,-1.2512205839157104,-0.2441406100988388,0.6103515028953552,93.33334350585938,67367.0,1.0
12:02:17.081164,202151.421875,196670.234375,231030.328125,216515.8125,228723.53125,177668.921875,-705664.1875,183021.8125,-0.0009765625,0.984130859375,-0.24658203125,-1.2512205839157104,-0.1831054538488388,0.6408690810203552,93.33334350585938,67368.0,1.0
12:02:17.085315,202133.890625,196652.265625,231023.0,216510.546875,228707.359375,177651.046875,-705661.0625,183017.4375,-0.001708984375,0.98486328125,-0.24609375,-1.2817381620407104,-0.1831054538488388,0.6713866591453552,93.33334350585938,67369.0,1.0
12:02:17.085329,202111.640625,196634.46875,231004.484375,216503.390625,228662.734375,177632.09375,-705662.375,183007.515625,0.001708984375,0.984130859375,-0.245849609375,-1.3427733182907104,-0.0610351525247097,0.6713866591453552,93.33334350585938,67370.0,1.0
12:02:17.085331,202125.9375,196649.40625,231009.40625,216506.609375,228674.984375,177648.8125,-705660.8125,183009.65625,0.002685546875,0.98291015625,-0.24560546875,-1.4038084745407104,-0.0610351525247097,0.5798339247703552,93.33334350585938,67371.0,1.0
12:02:17.085333,202145.875,196663.265625,231023.0,216509.203125,228714.234375,177664.8125,-705658.1875,183016.359375,0.001708984375,0.983642578125,-0.2431640625,-1.4038084745407104,-0.0915527269244194,0.5798339247703552,93.33334350585938,67372.0,1.0
12:02:17.088453,202135.859375,196653.25,231021.65625,216506.25,228709.234375,177654.09375,-705655.25,183013.5,0.00048828125,0.986083984375,-0.2451171875,-1.5563963651657104,-0.0610351525247097,0.6408690810203552,93.33334350585938,67373.0,1.0
12:02:17.088466,202116.46875,196637.515625,231007.703125,216502.859375,228665.953125,177634.953125,-705669.4375,183006.078125,0.0029296875,0.985107421875,-0.241455078125,-1.6479490995407104,-0.0915527269244194,0.7019042372703552,93.33334350585938,67374.0,1.0
12:02:17.088468,202122.625,196646.90625,231007.4375,216501.15625,228667.75,177644.78125,-705671.875,183003.484375,0.00146484375,0.986328125,-0.2431640625,-1.5869139432907104,0.03051757626235485,0.7019042372703552,93.33334350585938,67375.0,1.0
12:02:17.091606,202143.90625,196662.1875,231022.359375,216505.53125,228709.5,177662.578125,-705666.0,183013.671875,0.00244140625,0.986083984375,-0.244384765625,-1.7700194120407104,-0.0610351525247097,0.7019042372703552,93.33334350585938,67376.0,1.0
12:02:17.091616,202137.921875,196655.03125,231023.890625,216503.75,228715.484375,177657.390625,-705663.5,183014.484375,0.002197265625,0.986328125,-0.2431640625,-1.7395018339157104,0.03051757626235485,0.7324218153953552,93.33334350585938,67377.0,1.0
12:02:17.093563,202121.734375,196638.765625,231013.25,216506.15625,228673.828125,177638.0,-705663.5,183012.515625,0.004638671875,0.98876953125,-0.245361328125,-1.7395018339157104,0.2136230319738388,0.7019042372703552,93.33334350585938,67378.0,1.0
12:02:17.096036,202124.78125,196647.078125,231011.09375,216506.515625,228665.59375,177645.5,-705663.3125,183008.9375,0.005615234375,0.988037109375,-0.244873046875,-1.8310545682907104,0.2746581733226776,0.7019042372703552,93.33334350585938,67379.0,1.0
12:02:17.099093,202145.609375,196663.703125,231023.265625,216509.5625,228703.59375,177666.0625,-705667.375,183016.625,0.0068359375,0.98876953125,-0.243896484375,-1.8615721464157104,0.3051757514476776,0.7934569716453552,93.33334350585938,67380.0,1.0
12:02:17.099098,202144.171875,196660.140625,231025.5,216507.859375,228717.453125,177664.09375,-705663.9375,183016.359375,0.00390625,0.98681640625,-0.240478515625,-2.044677495956421,0.4272460639476776,0.6103515028953552,93.33334350585938,67381.0,1.0
12:02:17.101062,202118.4375,196635.09375,231007.34375,216501.59375,228669.265625,177633.703125,-705660.9375,183005.453125,0.00341796875,0.9873046875,-0.239013671875,-2.136230230331421,0.4577636420726776,0.6408690810203552,93.33334350585938,67382.0,1.0
12:02:17.103542,202115.296875,196637.96875,231000.1875,216500.96875,228650.21875,177636.109375,-705665.6875,183000.71875,0.00439453125,0.989501953125,-0.23974609375,-2.166747808456421,0.4882812201976776,0.6408690810203552,93.33334350585938,67383.0,1.0
12:02:17.106579,202143.90625,196661.46875,231018.609375,216510.984375,228691.96875,177662.046875,-705667.5625,183013.5,0.00390625,0.98681640625,-0.241943359375,-2.136230230331421,0.4882812201976776,0.6408690810203552,93.33334350585938,67384.0,1.0
12:02:17.106586,202156.609375,196671.125,231033.71875,216514.65625,228723.09375,177671.875,-705666.9375,183021.015625,0.00390625,0.986083984375,-0.24169921875,-2.166747808456421,0.4577636420726776,0.7019042372703552,93.33334350585938,67385.0,1.0
12:02:17.113783,202138.546875,196653.609375,231024.953125,216514.03125,228691.34375,177650.328125,-705664.125,183016.453125,0.004150390625,0.986572265625,-0.24267578125,-2.349853277206421,0.5493163466453552,0.6713866591453552,93.33334350585938,67386.0,1.0
12:02:17.117962,202131.484375,196651.8125,231016.90625,216514.828125,228664.703125,177647.109375,-705663.0,183011.796875,0.0029296875,0.98876953125,-0.241455078125,-2.380370855331421,0.6408690810203552,0.6408690810203552,93.33334350585938,67387.0,1.0
12:02:17.118034,202155.4375,196674.625,231030.6875,216522.4375,228698.046875,177673.046875,-705656.125,183021.640625,0.00390625,0.98828125,-0.239990234375,-2.380370855331421,0.7019042372703552,0.6713866591453552,93.33334350585938,67388.0,1.0
12:02:17.127352,202170.5625,196688.03125,231045.609375,216526.546875,228736.5,177689.9375,-705649.875,183032.71875,0.001220703125,0.9873046875,-0.236083984375,-2.380370855331421,0.6408690810203552,0.6103515028953552,93.33334350585938,67389.0,1.0
12:02:17.130478,202149.8125,196667.640625,231036.5,216521.625,228709.859375,177668.484375,-705651.9375,183027.984375,0.00146484375,0.986083984375,-0.239013671875,-2.441406011581421,0.7629393935203552,0.5187987685203552,93.33334350585938,67390.0,1.0
12:02:17.130547,202124.78125,196646.984375,231012.359375,216509.5625,228662.375,177646.390625,-705662.5625,183011.53125,0.001708984375,0.985107421875,-0.2373046875,-2.441406011581421,0.6103515028953552,0.6713866591453552,93.33334350585938,67391.0,1.0
12:02:17.134930,202131.390625,196652.0,231008.953125,216503.75,228673.28125,177653.28125,-705668.375,183006.609375,0.000244140625,0.983642578125,-0.239013671875,-2.471923589706421,0.6713866591453552,0.7324218153953552,93.33334350585938,67392.0,1.0
12:02:17.143643,202143.46875,196656.828125,231017.1875,216502.671875,228704.765625,177659.1875,-705669.125,183010.546875,-0.002197265625,0.9833984375,-0.23876953125,-2.532958745956421,0.6103515028953552,0.7019042372703552,93.33334350585938,67393.0,1.0
12:02:17.150440,202124.234375,196634.828125,231006.546875,216493.90625,228684.375,177635.140625,-705674.3125,183001.421875,-0.001953125,0.983154296875,-0.238037109375,-2.441406011581421,0.5493163466453552,0.5493163466453552,93.33334350585938,67394.0,1.0
12:02:17.150583,202103.671875,196619.359375,230989.28125,216487.203125,228638.328125,177614.65625,-705685.9375,182988.203125,-0.003173828125,0.980712890625,-0.240478515625,-2.441406011581421,0.5493163466453552,0.6103515028953552,93.33334350585938,67395.0,1.0
12:02:17.152934,202118.15625,196637.875,230993.75,216489.890625,228651.03125,177632.625,-705690.5,182988.015625,-0.003662109375,0.980224609375,-0.238037109375,-2.349853277206421,0.4577636420726776,0.5187987685203552,93.33334350585938,67396.0,1.0
12:02:17.152997,202145.078125,196661.03125,231014.3125,216499.453125,228698.765625,177658.296875,-705687.875,183002.953125,-0.00390625,0.9775390625,-0.23828125,-2.349853277206421,0.4272460639476776,0.4882812201976776,93.33334350585938,67397.0,1.0
12:02:17.162481,202139.890625,196656.375,231018.078125,216500.53125,228700.46875,177653.109375,-705681.375,183004.46875,-0.0048828125,0.97900390625,-0.236328125,-2.258300542831421,0.3051757514476776,0.5493163466453552,93.33334350585938,67398.0,1.0
12:02:17.166716,202122.453125,196642.96875,231006.984375,216501.25,228658.796875,177635.765625,-705684.375,183000.625,-0.004638671875,0.97998046875,-0.240478515625,-2.166747808456421,0.1525878757238388,0.5798339247703552,93.33334350585938,67399.0,1.0
12:02:17.166786,202128.890625,196654.140625,231006.265625,216501.6875,228660.234375,177646.84375,-705686.625,182999.375,-0.002685546875,0.977783203125,-0.23876953125,-2.105712652206421,0.0915527269244194,0.6713866591453552,93.33334350585938,67400.0,1.0
12:02:17.176347,202147.671875,196667.203125,231016.640625,216504.109375,228697.875,177663.65625,-705672.875,183006.703125,-0.000732421875,0.98046875,-0.2392578125,-1.9836424589157104,-0.03051757626235485,0.5798339247703552,93.33334350585938,67401.0,1.0
12:02:17.180792,202141.859375,196658.53125,231018.25,216501.953125,228705.46875,177657.125,-705665.1875,183007.421875,-0.000244140625,0.98046875,-0.235595703125,-1.8310545682907104,0.0,0.6103515028953552,93.33334350585938,67402.0,1.0
12:02:17.180875,202118.703125,196636.078125,231004.03125,216498.65625,228661.125,177632.09375,-705667.5,183000.71875,-0.00048828125,0.98095703125,-0.23291015625,-1.8005369901657104,-0.03051757626235485,0.6713866591453552,93.33334350585938,67403.0,1.0
12:02:17.190089,202119.59375,196641.359375,230999.5625,216498.203125,228652.28125,177638.359375,-705672.0625,182997.140625,-0.000732421875,0.981689453125,-0.232421875,-1.6784666776657104,-0.1525878757238388,0.7629393935203552,93.33334350585938,67404.0,1.0
12:02:17.193058,202144.8125,196661.5625,231016.015625,216507.40625,228695.453125,177663.46875,-705668.3125,183010.734375,0.00048828125,0.981689453125,-0.234130859375,-1.6784666776657104,-0.0915527269244194,0.7324218153953552,93.33334350585938,67405.0,1.0
12:02:17.193154,202147.75,196664.515625,231024.609375,216509.203125,228717.90625,177668.578125,-705662.6875,183016.453125,0.00244140625,0.980712890625,-0.23583984375,-1.5258787870407104,-0.1220703050494194,0.7019042372703552,93.33334350585938,67406.0,1.0
12:02:17.196736,202124.421875,196642.4375,231010.203125,216502.5,228676.15625,177643.359375,-705672.0625,183008.5,0.001708984375,0.982177734375,-0.234375,-1.4343260526657104,-0.1831054538488388,0.6408690810203552,93.33334350585938,67407.0,1.0
12:02:17.197217,202120.21875,196643.234375,231003.140625,216500.703125,228656.484375,177642.828125,-705668.6875,183002.859375,-0.000732421875,0.984130859375,-0.23486328125,-1.3427733182907104,-0.1831054538488388,0.7629393935203552,93.33334350585938,67408.0,1.0
12:02:17.206171,202145.703125,196663.0,231018.515625,216508.484375,228694.5625,177664.90625,-705663.1875,183012.34375,0.00048828125,0.979736328125,-0.234619140625,-1.4953612089157104,-0.1831054538488388,0.7629393935203552,93.33334350585938,67409.0,1.0
12:02:17.209283,202157.234375,196671.75,231032.203125,216512.78125,228725.328125,177675.453125,-705658.8125,183020.203125,0.001708984375,0.978271484375,-0.2373046875,-1.3122557401657104,-0.3051757514476776,0.7934569716453552,93.33334350585938,67410.0,1.0
12:02:17.209359,202137.65625,196651.8125,231022.546875,216511.171875,228692.15625,177652.5625,-705658.1875,183016.0,0.002197265625,0.978271484375,-0.237548828125,-1.2512205839157104,-0.2136230319738388,0.7324218153953552,93.33334350585938,67411.0,1.0
12:02:17.216279,202127.1875,196647.796875,231011.640625,216509.28125,228660.953125,177645.328125,-705660.6875,183010.015625,0.003662109375,0.979248046875,-0.239013671875,-1.0986326932907104,-0.2441406100988388,0.8850097060203552,93.33334350585938,67412.0,1.0
12:02:17.223062,202146.140625,196664.34375,231019.859375,216512.328125,228689.734375,177664.015625,-705665.5,183015.46875,0.004150390625,0.980224609375,-0.239013671875,-0.9460448622703552,-0.2441406100988388,0.8544921278953552,93.33334350585938,67413.0,1.0
12:02:17.223133,202162.6875,196675.515625,231034.34375,216515.1875,228727.109375,177676.4375,-705670.625,183023.875,0.00390625,0.982421875,-0.23974609375,-0.8544921278953552,-0.1525878757238388,0.8544921278953552,93.33334350585938,67414.0,1.0
12:02:17.228563,202146.234375,196658.875,231028.53125,216513.578125,228704.671875,177658.296875,-705674.75,183019.765625,0.005859375,0.982177734375,-0.239990234375,-0.7934569716453552,-0.1220703050494194,0.8239745497703552,93.33334350585938,67415.0,1.0
12:02:17.235477,202132.109375,196648.875,231016.109375,216511.796875,228666.21875,177644.875,-705677.4375,183011.171875,0.006591796875,0.979248046875,-0.239013671875,-0.6103515028953552,-0.0915527269244194,0.7629393935203552,93.33334350585938,67416.0,1.0
12:02:17.235492,202145.609375,196662.1875,231020.3125,216514.03125,228684.640625,177659.546875,-705668.75,183011.53125,0.007568359375,0.97607421875,-0.24072265625,-0.4577636420726776,-0.0915527269244194,0.7629393935203552,93.33334350585938,67417.0,1.0
12:02:17.239830,202163.140625,196674.53125,231033.90625,216515.8125,228722.8125,177675.28125,-705660.25,183019.765625,0.005859375,0.97705078125,-0.23828125,-0.3356933295726776,-0.0610351525247097,0.8239745497703552,93.33334350585938,67418.0,1.0
12:02:17.242346,202147.84375,196659.0625,231027.734375,216511.34375,228706.71875,177658.640625,-705667.3125,183015.28125,0.006591796875,0.97509765625,-0.240234375,-0.1525878757238388,0.0,0.6713866591453552,93.33334350585938,67419.0,1.0
12:02:17.252312,202128.09375,196644.484375,231011.453125,216506.34375,228663.1875,177641.84375,-705669.125,183006.796875,0.006103515625,0.97509765625,-0.240478515625,0.03051757626235485,-0.0610351525247097,0.5493163466453552,93.33334350585938,67420.0,1.0
12:02:17.255468,202135.59375,196656.640625,231010.75,216503.828125,228670.0625,177655.15625,-705668.0,183005.359375,0.004150390625,0.97607421875,-0.241455078125,0.1220703050494194,0.1220703050494194,0.2441406100988388,93.33334350585938,67421.0,1.0
12:02:17.255479,202154.015625,196671.484375,231023.0,216504.90625,228709.9375,177673.40625,-705665.0,183013.765625,0.001953125,0.979248046875,-0.23974609375,0.1831054538488388,0.1525878757238388,0.2441406100988388,93.33334350585938,67422.0,1.0
12:02:17.257308,202144.8125,196662.546875,231021.65625,216502.046875,228707.890625,177665.625,-705666.3125,183013.765625,0.00048828125,0.9814453125,-0.24267578125,0.1220703050494194,0.0610351525247097,-0.03051757626235485,93.33334350585938,67423.0,1.0
12:02:17.268669,202122.90625,196645.5625,231005.734375,216499.984375,228662.734375,177645.328125,-705664.0,183008.671875,-0.000244140625,0.982421875,-0.2421875,0.1220703050494194,0.0,-0.1525878757238388,93.33334350585938,67424.0,1.0
12:02:17.272913,202126.390625,196653.515625,231004.3125,216500.609375,228662.015625,177654.71875,-705661.9375,183006.796875,-0.0029296875,0.982177734375,-0.238525390625,-0.03051757626235485,-0.03051757626235485,-0.3051757514476776,93.33334350585938,67425.0,1.0
12:02:17.272928,202148.5625,196668.625,231018.609375,216505.984375,228702.078125,177671.609375,-705660.6875,183016.09375,-0.000732421875,0.98486328125,-0.2392578125,-0.0915527269244194,-0.1220703050494194,-0.4272460639476776,93.33334350585938,67426.0,1.0
12:02:17.279213,202146.859375,196663.265625,231023.703125,216505.09375,228713.609375,177666.78125,-705663.5625,183017.078125,-0.002197265625,0.987060546875,-0.24072265625,-0.0915527269244194,-0.0915527269244194,-0.5187987685203552,93.33334350585938,67427.0,1.0
12:02:17.279250,202127.546875,196645.734375,231012.625,216506.25,228673.5625,177645.0625,-705661.9375,183012.96875,0.002197265625,0.987060546875,-0.238525390625,-0.1831054538488388,-0.1831054538488388,-0.5493163466453552,93.33334350585938,67428.0,1.0
12:02:17.289984,202131.3125,196653.609375,231010.125,216507.859375,228663.8125,177652.65625,-705664.625,183009.203125,0.002685546875,0.990966796875,-0.240966796875,-0.1525878757238388,-0.0915527269244194,-0.5187987685203552,93.33334350585938,67429.0,1.0
12:02:17.292392,202154.015625,196670.859375,231022.8125,216510.625,228701.984375,177673.40625,-705670.0625,183017.4375,0.00439453125,0.992431640625,-0.2412109375,-0.1831054538488388,-0.1220703050494194,-0.4882812201976776,93.33334350585938,67430.0,1.0
12:02:17.294846,202157.328125,196674.171875,231031.046875,216510.546875,228723.171875,177677.515625,-705665.8125,183021.71875,0.00634765625,0.991943359375,-0.240966796875,-0.3662109076976776,-0.0915527269244194,-0.3967284858226776,93.33334350585938,67431.0,1.0
12:02:17.297271,202136.578125,196653.609375,231018.796875,216509.5625,228682.5,177654.796875,-705667.25,183015.734375,0.00634765625,0.99169921875,-0.2412109375,-0.4882812201976776,0.0610351525247097,-0.2441406100988388,93.33334350585938,67432.0,1.0
12:02:17.301031,202130.671875,196652.796875,231010.296875,216508.84375,228660.0625,177654.625,-705657.5625,183009.46875,0.007080078125,0.99267578125,-0.238525390625,-0.6103515028953552,0.1831054538488388,-0.2136230319738388,93.33334350585938,67433.0,1.0
12:02:17.308585,202153.125,196672.65625,231023.96875,216516.359375,228697.96875,177678.40625,-705655.6875,183020.390625,0.009033203125,0.9912109375,-0.241943359375,-0.7934569716453552,0.2746581733226776,-0.0610351525247097,93.33334350585938,67434.0,1.0
12:02:17.312857,202159.5625,196675.609375,231032.46875,216514.75,228726.125,177683.6875,-705651.5,183025.75,0.00634765625,0.99072265625,-0.241943359375,-1.0375975370407104,0.3967284858226776,0.0,93.33334350585938,67435.0,1.0
12:02:17.312867,202139.359375,196654.40625,231020.578125,216512.234375,228692.6875,177657.9375,-705653.375,183020.828125,0.004150390625,0.989990234375,-0.243408203125,-1.2207030057907104,0.4577636420726776,0.1525878757238388,93.33334350585938,67436.0,1.0
12:02:17.319171,202125.40625,196647.265625,231008.234375,216507.859375,228660.40625,177647.5625,-705666.0,183011.265625,0.001953125,0.9892578125,-0.24169921875,-1.4038084745407104,0.5187987685203552,0.1220703050494194,93.33334350585938,67437.0,1.0
12:02:17.319178,202145.703125,196664.609375,231018.25,216512.15625,228689.296875,177666.34375,-705670.0,183016.8125,-0.001953125,0.989501953125,-0.240478515625,-1.4648436307907104,0.5187987685203552,0.1525878757238388,93.33334350585938,67438.0,1.0
12:02:17.321071,202160.359375,196674.0,231030.6875,216515.8125,228724.609375,177678.40625,-705672.25,183024.40625,-0.003173828125,0.990234375,-0.243896484375,-1.5869139432907104,0.5798339247703552,0.3051757514476776,93.33334350585938,67439.0,1.0
12:02:17.328503,202140.328125,196654.59375,231020.9375,216512.328125,228698.671875,177657.3125,-705672.75,183018.78125,-0.004150390625,0.992431640625,-0.238525390625,-1.7089842557907104,0.5798339247703552,0.3051757514476776,93.33334350585938,67440.0,1.0
12:02:17.335661,202127.8125,196645.734375,231009.40625,216509.921875,228661.3125,177645.0625,-705668.8125,183012.15625,-0.0078125,0.992919921875,-0.239990234375,-1.9226073026657104,0.5493163466453552,0.3662109076976776,93.33334350585938,67441.0,1.0
12:02:17.335675,202142.75,196660.84375,231015.125,216513.9375,228680.625,177661.953125,-705663.75,183015.5625,-0.00634765625,0.989013671875,-0.240966796875,-2.075195074081421,0.3967284858226776,0.4882812201976776,93.33334350585938,67442.0,1.0
12:02:17.344811,202153.125,196670.234375,231024.25,216513.140625,228715.9375,177673.75,-705662.5,183020.65625,-0.007568359375,0.98828125,-0.240478515625,-2.166747808456421,0.2746581733226776,0.5493163466453552,93.33334350585938,67443.0,1.0
12:02:17.354687,202135.234375,196653.703125,231018.34375,216508.3125,228701.453125,177656.046875,-705654.375,183016.8125,-0.0087890625,0.988525390625,-0.236572265625,-2.319335699081421,0.2441406100988388,0.5798339247703552,93.33334350585938,67444.0,1.0
12:02:17.354698,202118.703125,196642.078125,231008.59375,216508.75,228664.25,177642.109375,-705653.875,183013.953125,-0.0078125,0.988525390625,-0.23974609375,-2.349853277206421,0.1220703050494194,0.4577636420726776,93.33334350585938,67445.0,1.0
12:02:17.354701,202127.546875,196654.046875,231010.296875,216507.40625,228673.5625,177655.34375,-705652.75,183011.796875,-0.007080078125,0.98779296875,-0.2431640625,-2.410888433456421,0.0,0.5187987685203552,93.33334350585938,67446.0,1.0
12:02:17.357923,202149.71875,196671.75,231027.546875,216511.609375,228718.703125,177676.171875,-705649.875,183022.703125,-0.006103515625,0.9873046875,-0.2421875,-2.471923589706421,-0.1525878757238388,0.6408690810203552,93.33334350585938,67447.0,1.0
12:02:17.357936,202141.40625,196661.921875,231026.125,216508.75,228718.4375,177667.5,-705646.5,183020.65625,-0.005615234375,0.98583984375,-0.240966796875,-2.532958745956421,-0.2441406100988388,0.7324218153953552,93.33334350585938,67448.0,1.0
12:02:17.359796,202115.296875,196637.515625,231004.21875,216500.34375,228667.03125,177639.96875,-705650.5,183007.421875,-0.003662109375,0.985107421875,-0.240234375,-2.563476324081421,-0.3356933295726776,0.7019042372703552,93.33334350585938,67449.0,1.0
12:02:17.369951,202116.828125,196645.375,230998.140625,216495.515625,228661.21875,177647.828125,-705664.625,183001.609375,-0.005126953125,0.983154296875,-0.240478515625,-2.624511480331421,-0.3967284858226776,0.8239745497703552,93.33334350585938,67450.0,1.0
12:02:17.397982,202137.46875,196660.765625,231010.921875,216498.921875,228700.375,177665.359375,-705669.125,183010.1875,-0.00341796875,0.982666015625,-0.23974609375,-2.655029058456421,-0.3662109076976776,0.8544921278953552,93.33334350585938,67451.0,1.0
12:02:17.398001,202132.921875,196655.484375,231012.984375,216495.96875,228711.015625,177662.484375,-705669.125,183010.109375,-0.001220703125,0.98193359375,-0.239501953125,-2.593993902206421,-0.3662109076976776,0.7629393935203552,93.33334350585938,67452.0,1.0
12:02:17.399791,202110.921875,196633.578125,230998.40625,216493.109375,228666.84375,177638.359375,-705667.75,183002.40625,0.000732421875,0.97998046875,-0.240966796875,-2.593993902206421,-0.4272460639476776,0.8239745497703552,93.33334350585938,67453.0,1.0
12:02:17.403595,202112.171875,196639.03125,230996.171875,216494.171875,228655.9375,177643.453125,-705669.8125,182998.65625,-0.000732421875,0.9814453125,-0.240478515625,-2.471923589706421,-0.4272460639476776,0.9155272841453552,93.33334350585938,67454.0,1.0
12:02:17.403604,202137.203125,196658.609375,231011.90625,216500.890625,228697.34375,177666.515625,-705666.3125,183008.9375,0.001220703125,0.979736328125,-0.24072265625,-2.471923589706421,-0.3356933295726776,1.0375975370407104,93.33334350585938,67455.0,1.0
12:02:17.403606,202138.546875,196655.21875,231016.90625,216499.984375,228715.046875,177665.171875,-705671.875,183011.171875,0.0029296875,0.978759765625,-0.2392578125,-2.349853277206421,-0.1831054538488388,1.0070799589157104,93.33334350585938,67456.0,1.0
12:02:17.428498,202114.765625,196631.875,231001.09375,216494.359375,228672.125,177637.09375,-705680.5625,183001.78125,0.004150390625,0.9794921875,-0.23974609375,-2.166747808456421,-0.2136230319738388,1.1901854276657104,93.33334350585938,67457.0,1.0
12:02:17.428516,202111.71875,196634.109375,230994.375,216495.15625,228650.21875,177637.015625,-705678.25,182997.40625,0.00048828125,0.9794921875,-0.2392578125,-2.075195074081421,-0.0915527269244194,1.1291502714157104,93.33334350585938,67458.0,1.0
12:02:17.428519,202137.5625,196656.46875,231010.296875,216505.359375,228688.125,177660.96875,-705675.25,183009.390625,0.003173828125,0.977783203125,-0.23876953125,-2.044677495956421,-0.1525878757238388,1.1596678495407104,93.33334350585938,67459.0,1.0
12:02:17.458602,202147.046875,196661.65625,231020.84375,216507.859375,228717.640625,177668.03125,-705675.0625,183016.71875,0.002685546875,0.9755859375,-0.23828125,-1.9531248807907104,-0.0610351525247097,1.2207030057907104,93.33334350585938,67460.0,1.0
12:02:17.461658,202129.421875,196642.25,231012.53125,216505.53125,228687.6875,177645.765625,-705678.375,183013.046875,0.002197265625,0.979248046875,-0.239990234375,-1.8310545682907104,-0.03051757626235485,1.3122557401657104,93.33334350585938,67461.0,1.0
12:02:17.461664,202121.921875,196638.40625,231004.9375,216503.296875,228659.078125,177639.609375,-705672.5,183006.34375,0.003173828125,0.977783203125,-0.242431640625,-1.7700194120407104,0.0915527269244194,1.2817381620407104,93.33334350585938,67462.0,1.0
12:02:17.463595,202141.671875,196655.9375,231015.578125,216507.671875,228687.328125,177658.828125,-705668.0,183011.71875,0.0029296875,0.978271484375,-0.240966796875,-1.5869139432907104,0.1831054538488388,1.2512205839157104,93.33334350585938,67463.0,1.0
12:02:17.466130,202151.875,196661.296875,231024.328125,216505.890625,228718.53125,177667.140625,-705665.875,183015.015625,0.0009765625,0.978759765625,-0.23828125,-1.4038084745407104,0.0610351525247097,1.1901854276657104,93.33334350585938,67464.0,1.0
12:02:17.468561,202133.0,196642.25,231014.859375,216501.875,228694.828125,177646.3125,-705664.8125,183010.1875,0.00146484375,0.977294921875,-0.238037109375,-1.4038084745407104,0.2441406100988388,1.1596678495407104,93.33334350585938,67465.0,1.0
12:02:17.471130,202117.09375,196630.8125,231000.109375,216498.828125,228654.515625,177632.984375,-705664.25,183003.03125,0.001220703125,0.977294921875,-0.240966796875,-1.3122557401657104,0.1831054538488388,0.9765624403953552,93.33334350585938,67466.0,1.0
12:02:17.473563,202132.5625,196645.03125,231004.484375,216500.96875,228670.875,177648.359375,-705665.0,183005.90625,0.0029296875,0.979248046875,-0.243408203125,-1.1596678495407104,0.2746581733226776,0.8544921278953552,93.33334350585938,67467.0,1.0
12:02:17.476119,202148.203125,196655.03125,231016.640625,216503.484375,228709.046875,177663.125,-705664.0,183014.578125,0.0029296875,0.98095703125,-0.24072265625,-1.0986326932907104,0.3051757514476776,0.9765624403953552,93.33334350585938,67468.0,1.0
12:02:17.478600,202132.28125,196642.515625,231012.53125,216500.265625,228698.234375,177650.328125,-705663.3125,183012.78125,0.00341796875,0.982177734375,-0.239013671875,-1.0375975370407104,0.3051757514476776,0.9155272841453552,93.33334350585938,67469.0,1.0
12:02:17.481065,202112.34375,196629.203125,230998.578125,216496.59375,228655.765625,177633.171875,-705663.5,183004.640625,0.003662109375,0.983642578125,-0.241455078125,-0.9460448622703552,0.3662109076976776,0.7934569716453552,93.33334350585938,67470.0,1.0
12:02:17.483587,202119.859375,196642.078125,230999.84375,216495.703125,228665.15625,177647.46875,-705661.6875,183001.875,0.00390625,0.982666015625,-0.242919921875,-0.9460448622703552,0.3662109076976776,0.6713866591453552,93.33334350585938,67471.0,1.0
12:02:17.486104,202139.078125,196658.171875,231013.25,216499.71875,228706.453125,177666.78125,-705667.0625,183010.375,0.00439453125,0.985107421875,-0.242919921875,-1.0070799589157104,0.3356933295726776,0.7019042372703552,93.33334350585938,67472.0,1.0
12:02:17.488551,202130.234375,196648.78125,231012.359375,216497.75,228706.453125,177657.3125,-705667.6875,183009.296875,0.0029296875,0.982177734375,-0.24072265625,-0.8850097060203552,0.4577636420726776,0.6408690810203552,93.33334350585938,67473.0,1.0
12:02:17.491159,202106.984375,196627.5,230994.375,216492.390625,228657.546875,177632.265625,-705671.625,182998.390625,0.004150390625,0.9814453125,-0.2431640625,-0.8239745497703552,0.5187987685203552,0.5798339247703552,93.33334350585938,67474.0,1.0
12:02:17.494288,202114.234375,196639.296875,230994.828125,216495.34375,228655.3125,177642.546875,-705674.0,182996.515625,0.0068359375,0.98095703125,-0.24169921875,-0.7934569716453552,0.5798339247703552,0.5493163466453552,93.33334350585938,67475.0,1.0
12:02:17.494313,202139.984375,196658.34375,231010.203125,216502.40625,228697.421875,177664.015625,-705668.6875,183008.40625,0.007080078125,0.984375,-0.240234375,-0.7934569716453552,0.6408690810203552,0.5493163466453552,93.33334350585938,67476.0,1.0
12:02:17.496659,202136.140625,196653.703125,231013.421875,216500.265625,228707.359375,177661.78125,-705672.0625,183008.765625,0.00634765625,0.984619140625,-0.241943359375,-0.7629393935203552,0.6713866591453552,0.4882812201976776,93.33334350585938,67477.0,1.0
12:02:17.496685,202110.203125,196630.1875,230996.53125,216494.09375,228660.59375,177636.75,-705676.8125,182998.484375,0.0068359375,0.98486328125,-0.2412109375,-0.7629393935203552,0.6408690810203552,0.5187987685203552,93.33334350585938,67478.0,1.0
12:02:17.499203,202107.96875,196634.828125,230990.984375,216491.046875,228646.109375,177639.0625,-705675.875,182992.40625,0.00390625,0.983642578125,-0.2431640625,-0.7934569716453552,0.7324218153953552,0.3967284858226776,93.33334350585938,67479.0,1.0
12:02:17.499213,202130.671875,196652.625,231002.96875,216495.78125,228683.65625,177660.53125,-705675.0625,183000.71875,0.00244140625,0.983642578125,-0.243896484375,-0.8544921278953552,0.7629393935203552,0.3051757514476776,93.33334350585938,67480.0,1.0
12:02:17.501123,202133.359375,196653.34375,231007.796875,216493.46875,228703.5,177663.921875,-705680.4375,183002.328125,-0.00048828125,0.982421875,-0.244140625,-0.9155272841453552,0.8239745497703552,0.2441406100988388,93.33334350585938,67481.0,1.0
12:02:17.503557,202110.46875,196632.15625,230993.3125,216489.0,228664.53125,177639.25,-705677.6875,182995.265625,-0.001953125,0.982666015625,-0.243896484375,-0.9460448622703552,0.7019042372703552,0.2441406100988388,93.33334350585938,67482.0,1.0
12:02:17.506595,202098.3125,196626.609375,230979.625,216482.109375,228636.90625,177633.34375,-705673.5625,182985.0625,-0.003173828125,0.983154296875,-0.24560546875,-0.8544921278953552,0.6713866591453552,0.1831054538488388,93.33334350585938,67483.0,1.0
12:02:17.506606,202115.5625,196641.53125,230987.140625,216482.90625,228666.765625,177649.96875,-705672.0625,182988.734375,-0.002197265625,0.98388671875,-0.245849609375,-0.7629393935203552,0.7019042372703552,0.1220703050494194,93.33334350585938,67484.0,1.0
12:02:17.510905,202126.75,196649.671875,231000.109375,216487.46875,228699.75,177661.15625,-705675.0625,182998.75,-0.002685546875,0.98388671875,-0.24658203125,-0.7934569716453552,0.6103515028953552,0.0915527269244194,93.33334350585938,67485.0,1.0
12:02:17.510976,202107.4375,196628.84375,230990.8125,216485.59375,228670.25,177638.984375,-705664.875,182995.0,-0.003662109375,0.982666015625,-0.24560546875,-0.8239745497703552,0.4882812201976776,0.1525878757238388,93.33334350585938,67486.0,1.0
12:02:17.517313,202097.421875,196625.359375,230980.4375,216483.546875,228638.515625,177632.265625,-705663.8125,182988.828125,-0.003662109375,0.982177734375,-0.246337890625,-0.7629393935203552,0.3967284858226776,0.1220703050494194,93.33334350585938,67487.0,1.0
12:02:17.524338,202114.59375,196641.359375,230985.984375,216485.6875,228660.5,177650.6875,-705670.5625,182991.859375,-0.00341796875,0.983154296875,-0.245361328125,-0.7934569716453552,0.3967284858226776,0.1831054538488388,93.33334350585938,67488.0,1.0
12:02:17.524352,202129.78125,196650.125,230996.703125,216487.03125,228694.03125,177660.875,-705673.8125,182998.5625,-0.00634765625,0.9833984375,-0.242431640625,-0.9155272841453552,0.3356933295726776,0.0610351525247097,93.33334350585938,67489.0,1.0
12:02:17.530400,202117.359375,196634.75,230991.96875,216484.796875,228674.8125,177642.828125,-705672.6875,182995.171875,-0.005126953125,0.983154296875,-0.243408203125,-0.8850097060203552,0.3356933295726776,0.0610351525247097,93.33334350585938,67490.0,1.0
12:02:17.530411,202102.78125,196625.265625,230980.34375,216483.625,228636.625,177629.234375,-705669.8125,182988.375,-0.00439453125,0.98486328125,-0.2451171875,-0.8544921278953552,0.2746581733226776,0.03051757626235485,93.33334350585938,67491.0,1.0
12:02:17.532551,202116.734375,196639.75,230984.1875,216484.609375,228651.734375,177644.4375,-705667.5625,182990.171875,-0.00390625,0.986572265625,-0.244140625,-0.8544921278953552,0.1831054538488388,0.1525878757238388,93.33334350585938,67492.0,1.0
12:02:17.543743,202134.25,196652.265625,230997.328125,216485.953125,228690.0,177660.4375,-705661.75,182999.28125,-0.001708984375,0.9873046875,-0.24365234375,-0.9460448622703552,0.03051757626235485,0.1525878757238388,93.33334350585938,67493.0,1.0
12:02:17.548068,202120.046875,196636.4375,230992.859375,216483.546875,228678.390625,177645.6875,-705664.8125,182996.6875,-0.001220703125,0.989990234375,-0.24609375,-1.0375975370407104,0.0915527269244194,0.2746581733226776,93.33334350585938,67494.0,1.0
12:02:17.548116,202100.8125,196619.640625,230977.484375,216481.390625,228634.03125,177625.125,-705673.8125,182989.1875,-0.00146484375,0.98828125,-0.24462890625,-1.1596678495407104,0.0610351525247097,0.3662109076976776,93.33334350585938,67495.0,1.0
12:02:17.551172,202112.0,196632.59375,230980.34375,216485.0625,228641.1875,177637.453125,-705670.625,182988.640625,-0.00048828125,0.987060546875,-0.24365234375,-1.2817381620407104,0.0610351525247097,0.4272460639476776,93.33334350585938,67496.0,1.0
12:02:17.563024,202138.375,196653.421875,231000.109375,216495.96875,228688.21875,177661.6875,-705668.0,183002.140625,0.0,0.990234375,-0.2412109375,-1.3732908964157104,0.0915527269244194,0.5187987685203552,93.33334350585938,67497.0,1.0
12:02:17.563040,202133.625,196645.828125,231002.25,216495.96875,228692.59375,177655.34375,-705665.375,183003.390625,-0.00048828125,0.989013671875,-0.237548828125,-1.4648436307907104,0.03051757626235485,0.5798339247703552,93.33334350585938,67498.0,1.0
12:02:17.564777,202109.3125,196624.1875,230984.28125,216490.15625,228644.671875,177629.140625,-705667.0625,182994.71875,-0.00146484375,0.989501953125,-0.242431640625,-1.5869139432907104,0.0,0.6408690810203552,93.33334350585938,67499.0,1.0
12:02:17.581652,202111.90625,196633.484375,230981.234375,216488.1875,228641.1875,177638.53125,-705662.125,182991.421875,0.0,0.990966796875,-0.24267578125,-1.7089842557907104,0.0610351525247097,0.6408690810203552,93.33334350585938,67500.0,1.0
12:02:17.581668,202133.546875,196649.671875,230995.015625,216490.875,228682.140625,177658.46875,-705660.8125,182999.1875,-0.000244140625,0.989501953125,-0.24169921875,-1.8005369901657104,0.0,0.8239745497703552,93.33334350585938,67501.0,1.0
12:02:17.581670,202135.859375,196649.3125,231003.765625,216493.90625,228697.609375,177658.921875,-705659.0625,183002.59375,-0.000732421875,0.98974609375,-0.244873046875,-1.9531248807907104,0.03051757626235485,0.9155272841453552,93.33334350585938,67502.0,1.0
12:02:17.581672,202114.859375,196629.375,230990.453125,216490.6875,228656.03125,177633.703125,-705661.3125,182996.0625,-0.001953125,0.988525390625,-0.24560546875,-1.9836424589157104,-0.0915527269244194,0.9460448622703552,93.33334350585938,67503.0,1.0
12:02:17.583819,202115.75,196633.765625,230987.59375,216491.234375,228643.96875,177636.5625,-705656.5625,182994.09375,-0.00146484375,0.986083984375,-0.244140625,-2.136230230331421,-0.0610351525247097,0.9460448622703552,93.33334350585938,67504.0,1.0
12:02:17.586178,202141.40625,196654.6875,231002.609375,216498.921875,228684.640625,177660.078125,-705650.9375,183005.1875,-0.002197265625,0.987548828125,-0.245361328125,-2.166747808456421,-0.03051757626235485,1.1291502714157104,93.33334350585938,67505.0,1.0
12:02:17.593673,202145.96875,196656.375,231011.375,216500.078125,228707.4375,177662.40625,-705651.3125,183008.9375,-0.000244140625,0.987548828125,-0.2451171875,-2.349853277206421,-0.1525878757238388,1.0986326932907104,93.33334350585938,67506.0,1.0
12:02:17.610411,202122.453125,196633.3125,230998.859375,216496.953125,228669.171875,177635.9375,-705656.3125,183002.765625,0.00048828125,0.984619140625,-0.245849609375,-2.380370855331421,-0.2136230319738388,1.0375975370407104,93.33334350585938,67507.0,1.0
12:02:17.610425,202115.5625,196633.21875,230991.078125,216495.609375,228647.09375,177634.421875,-705657.5,182997.671875,0.002197265625,0.983642578125,-0.24267578125,-2.441406011581421,-0.1525878757238388,1.0375975370407104,93.33334350585938,67508.0,1.0
12:02:17.610428,202134.078125,196648.6875,231000.546875,216498.296875,228678.03125,177651.9375,-705659.625,183003.484375,0.002685546875,0.98388671875,-0.240478515625,-2.502441167831421,-0.1831054538488388,1.0375975370407104,93.33334350585938,67509.0,1.0
12:02:17.610432,202144.8125,196654.234375,231011.09375,216499.984375,228707.4375,177660.078125,-705660.4375,183008.84375,0.003662109375,0.983154296875,-0.244384765625,-2.441406011581421,-0.1831054538488388,0.9460448622703552,93.33334350585938,67510.0,1.0
12:02:17.612949,202127.375,196636.890625,231002.078125,216497.671875,228679.71875,177640.859375,-705665.0,183004.734375,0.00390625,0.984375,-0.2431640625,-2.532958745956421,-0.1831054538488388,0.8850097060203552,93.33334350585938,67511.0,1.0
12:02:17.612956,202114.59375,196630.453125,230989.734375,216493.109375,228645.65625,177631.828125,-705664.875,182997.578125,0.00244140625,0.982666015625,-0.243408203125,-2.532958745956421,-0.1220703050494194,0.8850097060203552,93.33334350585938,67512.0,1.0
12:02:17.619877,202130.953125,196647.34375,230996.53125,216495.078125,228668.734375,177648.8125,-705665.375,183000.09375,0.00439453125,0.982177734375,-0.24169921875,-2.532958745956421,-0.1220703050494194,0.8850097060203552,93.33334350585938,67513.0,1.0
12:02:17.636032,202144.625,196657.1875,231008.15625,216496.140625,228704.484375,177660.796875,-705662.6875,183006.078125,0.0048828125,0.982177734375,-0.24169921875,-2.624511480331421,-0.1831054538488388,0.8239745497703552,93.33334350585938,67514.0,1.0
12:02:17.636044,202128.984375,196639.578125,231000.1875,216494.625,228684.1875,177642.46875,-705662.75,183003.03125,0.003662109375,0.98193359375,-0.24267578125,-2.624511480331421,-0.0610351525247097,0.8544921278953552,93.33334350585938,67515.0,1.0
12:02:17.636046,202117.359375,196632.421875,230989.734375,216497.046875,228646.46875,177632.546875,-705664.375,182999.640625,0.0048828125,0.982666015625,-0.24267578125,-2.593993902206421,0.0,0.8239745497703552,93.33334350585938,67516.0,1.0
12:02:17.638552,202128.984375,196644.84375,230990.453125,216496.0625,228659.078125,177647.109375,-705657.1875,182999.015625,0.006103515625,0.9833984375,-0.241943359375,-2.655029058456421,0.0915527269244194,0.7934569716453552,93.33334350585938,67517.0,1.0
12:02:17.641146,202145.078125,196655.125,231001.625,216497.125,228696.4375,177660.078125,-705658.0,183005.28125,0.00341796875,0.981201171875,-0.23876953125,-2.563476324081421,0.2136230319738388,0.7324218153953552,93.33334350585938,67518.0,1.0
12:02:17.643589,202130.765625,196638.671875,230996.625,216491.5,228684.640625,177644.15625,-705657.75,183000.09375,0.00537109375,0.983154296875,-0.237548828125,-2.563476324081421,0.2441406100988388,0.6713866591453552,93.33334350585938,67519.0,1.0
12:02:17.646076,202111.546875,196623.203125,230982.40625,216487.65625,228640.125,177624.578125,-705661.4375,182991.859375,0.00537109375,0.982421875,-0.23828125,-2.532958745956421,0.3051757514476776,0.5798339247703552,93.33334350585938,67520.0,1.0
12:02:17.656205,202119.0625,196635.09375,230980.96875,216485.859375,228644.234375,177636.5625,-705662.6875,182988.640625,0.003662109375,0.98291015625,-0.238037109375,-2.563476324081421,0.3051757514476776,0.5187987685203552,93.33334350585938,67521.0,1.0
12:02:17.659228,202139.703125,196651.375,230994.828125,216489.984375,228686.34375,177656.40625,-705664.125,182998.484375,0.0048828125,0.98291015625,-0.23583984375,-2.502441167831421,0.3662109076976776,0.5493163466453552,93.33334350585938,67522.0,1.0
12:02:17.659269,202127.1875,196636.171875,230989.546875,216483.0,228684.109375,177642.546875,-705666.4375,182992.75,0.0048828125,0.982177734375,-0.236572265625,-2.593993902206421,0.3356933295726776,0.4577636420726776,93.33334350585938,67523.0,1.0
12:02:17.667387,202105.734375,196617.390625,230974.796875,216480.953125,228640.125,177621.0,-705667.5,182987.296875,0.005126953125,0.9853515625,-0.238037109375,-2.532958745956421,0.3967284858226776,0.4882812201976776,93.33334350585938,67524.0,1.0
12:02:17.674207,202110.03125,196628.484375,230974.265625,216483.0,228638.0625,177632.984375,-705664.1875,182985.6875,0.00341796875,0.98486328125,-0.239501953125,-2.624511480331421,0.3356933295726776,0.3356933295726776,93.33334350585938,67525.0,1.0
12:02:17.674252,202127.1875,196641.453125,230984.1875,216483.09375,228674.546875,177648.546875,-705663.75,182989.8125,0.00244140625,0.987060546875,-0.23828125,-2.655029058456421,0.2746581733226776,0.3662109076976776,93.33334350585938,67526.0,1.0
12:02:17.676064,202128.09375,196639.296875,230990.8125,216484.515625,228689.734375,177648.359375,-705661.5,182993.65625,0.002197265625,0.987060546875,-0.23681640625,-2.777099370956421,0.3356933295726776,0.2441406100988388,93.33334350585938,67527.0,1.0
12:02:17.678594,202110.734375,196624.734375,230982.671875,216484.078125,228652.359375,177630.9375,-705661.3125,182990.96875,0.00244140625,0.98486328125,-0.2373046875,-2.777099370956421,0.2441406100988388,0.1525878757238388,93.33334350585938,67528.0,1.0
12:02:17.684753,202111.28125,196632.859375,230979.890625,216484.078125,228641.28125,177638.0,-705660.1875,182989.453125,0.002197265625,0.98583984375,-0.23388671875,-2.655029058456421,0.2441406100988388,0.3051757514476776,93.33334350585938,67529.0,1.0
12:02:17.691681,202136.21875,196653.875,230995.359375,216492.84375,228681.6875,177662.671875,-705658.1875,183001.609375,-0.0009765625,0.98779296875,-0.23486328125,-2.655029058456421,0.2136230319738388,0.3356933295726776,93.33334350585938,67530.0,1.0
12:02:17.691737,202146.421875,196658.875,231007.96875,216495.703125,228709.140625,177670.625,-705657.3125,183008.84375,0.000732421875,0.98681640625,-0.233154296875,-2.685546636581421,0.2136230319738388,0.1525878757238388,93.33334350585938,67531.0,1.0
12:02:17.701882,202127.546875,196641.453125,230999.125,216493.734375,228676.15625,177649.4375,-705659.375,183004.640625,-0.000732421875,0.987060546875,-0.233642578125,-2.655029058456421,0.2136230319738388,0.1220703050494194,93.33334350585938,67532.0,1.0
12:02:17.701902,202121.015625,196643.59375,230991.96875,216492.21875,228653.171875,177650.0625,-705662.9375,183000.359375,-0.00146484375,0.983154296875,-0.233154296875,-2.624511480331421,0.0610351525247097,0.0610351525247097,93.33334350585938,67533.0,1.0
12:02:17.704169,202136.9375,196656.640625,230997.515625,216491.671875,228680.890625,177667.046875,-705662.875,183003.84375,-0.002685546875,0.983642578125,-0.234375,-2.563476324081421,0.03051757626235485,0.0610351525247097,93.33334350585938,67534.0,1.0
12:02:17.704175,202130.328125,196646.28125,230993.125,216479.15625,228697.875,177660.96875,-705667.5,182996.6875,-0.001708984375,0.984130859375,-0.2314453125,-2.563476324081421,0.0610351525247097,0.1220703050494194,93.33334350585938,67535.0,1.0
12:02:17.712285,202106.625,196620.53125,230979.09375,216472.8125,228663.625,177631.109375,-705671.1875,182987.296875,0.000244140625,0.983154296875,-0.231689453125,-2.471923589706421,0.0610351525247097,0.2136230319738388,93.33334350585938,67536.0,1.0
12:02:17.719169,202093.125,196613.015625,230966.671875,216470.671875,228628.40625,177619.75,-705684.5,182979.796875,-0.001708984375,0.980712890625,-0.231689453125,-2.471923589706421,-0.0610351525247097,0.1831054538488388,93.33334350585938,67537.0,1.0
12:02:17.719181,202108.15625,196625.265625,230971.21875,216471.65625,228647.984375,177633.34375,-705686.375,182979.796875,-0.00146484375,0.982421875,-0.232421875,-2.410888433456421,-0.0915527269244194,0.3356933295726776,93.33334350585938,67538.0,1.0
12:02:17.729184,202123.078125,196633.21875,230983.296875,216475.3125,228682.578125,177643.265625,-705685.75,182988.015625,-0.00244140625,0.982666015625,-0.234375,-2.258300542831421,-0.1831054538488388,0.2746581733226776,93.33334350585938,67539.0,1.0
12:02:17.729193,202115.484375,196622.21875,230983.5625,216478.625,228669.0,177629.859375,-705690.1875,182990.25,-0.003662109375,0.981689453125,-0.23291015625,-2.166747808456421,-0.2441406100988388,0.3662109076976776,93.33334350585938,67540.0,1.0
12:02:17.731062,202110.5625,196620.53125,230978.203125,216484.796875,228636.359375,177624.3125,-705697.6875,182989.625,-0.00390625,0.98095703125,-0.23388671875,-2.136230230331421,-0.3051757514476776,0.4272460639476776,93.33334350585938,67541.0,1.0
12:02:17.737338,202131.21875,196642.4375,230990.8125,216493.640625,228659.15625,177647.296875,-705690.5625,182997.140625,-0.003173828125,0.980224609375,-0.23486328125,-2.105712652206421,-0.3356933295726776,0.3662109076976776,93.33334350585938,67542.0,1.0
12:02:17.739796,202150.796875,196657.71875,231006.625,216498.828125,228700.640625,177665.359375,-705672.875,183006.609375,0.0,0.978759765625,-0.234130859375,-1.8920897245407104,-0.3051757514476776,0.4882812201976776,93.33334350585938,67543.0,1.0
12:02:17.746050,202138.09375,196643.328125,231002.609375,216495.78125,228693.21875,177651.40625,-705669.9375,183005.453125,-0.001220703125,0.98046875,-0.231689453125,-1.6174315214157104,-0.3967284858226776,0.5798339247703552,93.33334350585938,67544.0,1.0
12:02:17.755345,202116.90625,196625.71875,230985.703125,216491.671875,228647.0,177630.484375,-705674.75,182997.578125,0.000244140625,0.979736328125,-0.2333984375,-1.5869139432907104,-0.3662109076976776,0.6713866591453552,93.33334350585938,67545.0,1.0
12:02:17.755354,202122.8125,196634.46875,230983.75,216490.953125,228649.234375,177639.25,-705674.3125,182994.453125,0.000244140625,0.97802734375,-0.23486328125,-1.5258787870407104,-0.3662109076976776,0.7934569716453552,93.33334350585938,67546.0,1.0
12:02:17.756612,202143.203125,196650.484375,230998.046875,216495.078125,228691.609375,177657.390625,-705665.5,183004.828125,0.00146484375,0.978759765625,-0.2333984375,-1.4953612089157104,-0.3356933295726776,0.7629393935203552,93.33334350585938,67547.0,1.0
12:02:17.756616,202137.109375,196644.75,230999.484375,216493.109375,228695.375,177652.921875,-705667.75,183004.5625,0.001953125,0.981201171875,-0.233642578125,-1.2817381620407104,-0.4272460639476776,0.7019042372703552,93.33334350585938,67548.0,1.0
12:02:17.763579,202115.390625,196626.78125,230983.46875,216490.78125,228648.875,177630.125,-705674.1875,182996.953125,0.00146484375,0.98193359375,-0.231201171875,-1.2207030057907104,-0.4577636420726776,0.7324218153953552,93.33334350585938,67549.0,1.0
12:02:17.793025,202118.703125,196636.4375,230981.953125,216490.78125,228644.5,177638.53125,-705669.625,182994.71875,0.0029296875,0.983154296875,-0.235595703125,-1.1291502714157104,-0.3967284858226776,0.8544921278953552,93.33334350585938,67550.0,1.0
12:02:17.793086,202141.671875,196653.25,230996.625,216493.828125,228685.53125,177661.0625,-705659.4375,183003.21875,0.003173828125,0.98193359375,-0.23583984375,-1.0375975370407104,-0.3967284858226776,0.9155272841453552,93.33334350585938,67551.0,1.0
12:02:17.817952,202139.625,196649.859375,230999.5625,216489.703125,228698.328125,177658.828125,-705652.625,183001.25,0.001953125,0.980224609375,-0.236572265625,-0.8850097060203552,-0.3051757514476776,0.9155272841453552,93.33334350585938,67552.0,1.0
12:02:17.817967,202118.15625,196629.109375,230985.53125,216487.46875,228656.65625,177635.484375,-705660.625,182995.171875,0.00390625,0.980224609375,-0.23486328125,-0.8544921278953552,-0.2136230319738388,1.0070799589157104,93.33334350585938,67553.0,1.0
12:02:17.845374,202115.125,196632.15625,230979.625,216485.953125,228641.453125,177638.171875,-705665.5,182989.8125,0.0048828125,0.980224609375,-0.23779296875,-0.7934569716453552,-0.0915527269244194,1.0375975370407104,93.33334350585938,67554.0,1.0
12:02:17.845420,202136.9375,196648.15625,230992.234375,216490.25,228678.390625,177656.5,-705664.4375,182999.015625,0.0068359375,0.98291015625,-0.238525390625,-0.7019042372703552,0.0,1.0070799589157104,93.33334350585938,67555.0,1.0
12:02:17.845423,202142.578125,196649.765625,231000.46875,216490.328125,228703.15625,177662.046875,-705660.9375,183004.015625,0.009765625,0.98388671875,-0.239990234375,-0.6713866591453552,0.1831054538488388,1.0681151151657104,93.33334350585938,67556.0,1.0
12:02:17.845427,202119.140625,196626.34375,230988.125,216489.0,228665.421875,177635.671875,-705663.125,182998.75,0.009521484375,0.982421875,-0.239013671875,-0.5493163466453552,0.2441406100988388,1.1291502714157104,93.33334350585938,67557.0,1.0
12:02:17.851753,202109.9375,196622.21875,230977.75,216487.734375,228636.546875,177629.234375,-705671.9375,182992.046875,0.01123046875,0.98193359375,-0.236083984375,-0.4577636420726776,0.2746581733226776,1.0375975370407104,93.33334350585938,67558.0,1.0
12:02:17.851770,202130.5,196640.734375,230987.234375,216489.796875,228667.203125,177649.796875,-705668.75,182996.6875,0.01220703125,0.98095703125,-0.239013671875,-0.3662109076976776,0.3967284858226776,1.0070799589157104,93.33334350585938,67559.0,1.0
12:02:17.854123,202140.515625,196649.5,230997.78125,216489.4375,228698.671875,177659.546875,-705663.375,183003.84375,0.013427734375,0.980224609375,-0.239013671875,-0.3356933295726776,0.5798339247703552,1.0375975370407104,93.33334350585938,67560.0,1.0
12:02:17.854125,202122.28125,196631.4375,230988.390625,216486.84375,228670.875,177639.875,-705652.5,183000.796875,0.01025390625,0.979248046875,-0.2392578125,-0.2746581733226776,0.7019042372703552,0.8544921278953552,93.33334350585938,67561.0,1.0
12:02:17.856026,202111.28125,196625.890625,230977.03125,216484.34375,228636.546875,177632.1875,-705651.125,182994.546875,0.009033203125,0.977294921875,-0.24169921875,-0.1525878757238388,0.7934569716453552,0.7629393935203552,93.33334350585938,67562.0,1.0
12:02:17.858732,202130.5,196643.765625,230986.15625,216487.921875,228661.484375,177651.046875,-705655.875,182998.75,0.005859375,0.978271484375,-0.23974609375,-0.0610351525247097,0.9460448622703552,0.5493163466453552,93.33334350585938,67563.0,1.0
12:02:17.861092,202147.578125,196655.84375,231000.640625,216491.046875,228699.3125,177665.53125,-705653.875,183004.734375,0.004638671875,0.97998046875,-0.239013671875,-0.0915527269244194,1.0986326932907104,0.4882812201976776,93.33334350585938,67564.0,1.0
12:02:17.863538,202134.875,196641.984375,230997.78125,216490.78125,228682.578125,177648.640625,-705651.375,183002.765625,0.002685546875,0.97998046875,-0.236572265625,0.0,0.9765624403953552,0.2746581733226776,93.33334350585938,67565.0,1.0
12:02:17.866373,202120.046875,196630.71875,230985.4375,216489.625,228641.90625,177633.796875,-705656.75,182995.53125,-0.001220703125,0.981689453125,-0.2373046875,-0.1525878757238388,0.9765624403953552,0.0,93.33334350585938,67566.0,1.0
12:02:17.868548,202134.078125,196646.1875,230991.703125,216493.015625,228658.0,177650.875,-705652.3125,182998.484375,-0.00341796875,0.982666015625,-0.236572265625,-0.2136230319738388,0.9765624403953552,-0.0610351525247097,93.33334350585938,67567.0,1.0
12:02:17.871075,202154.375,196661.46875,231007.34375,216497.75,228700.5625,177668.296875,-705651.6875,183008.84375,-0.002685546875,0.984130859375,-0.2392578125,-0.2441406100988388,0.9155272841453552,-0.2441406100988388,93.33334350585938,67568.0,1.0
12:02:17.876008,202142.03125,196650.484375,231005.203125,216495.34375,228694.03125,177656.046875,-705655.4375,183006.078125,-0.001708984375,0.986083984375,-0.2412109375,-0.3051757514476776,0.8544921278953552,-0.5187987685203552,93.33334350585938,67569.0,1.0
12:02:17.878516,202121.734375,196634.5625,230989.015625,216491.140625,228647.890625,177637.453125,-705653.0,182997.234375,-0.00390625,0.986328125,-0.23974609375,-0.3356933295726776,0.7324218153953552,-0.4577636420726776,93.33334350585938,67570.0,1.0
12:02:17.881073,202128.09375,196645.46875,230987.3125,216489.890625,228651.390625,177649.703125,-705654.5,182994.453125,-0.002197265625,0.987548828125,-0.23779296875,-0.4272460639476776,0.7019042372703552,-0.6408690810203552,93.33334350585938,67571.0,1.0
12:02:17.883538,202148.109375,196661.203125,230999.75,216491.765625,228691.078125,177668.390625,-705658.0,183002.5,0.0009765625,0.98974609375,-0.238037109375,-0.6103515028953552,0.5798339247703552,-0.5798339247703552,93.33334350585938,67572.0,1.0
12:02:17.886002,202143.90625,196655.65625,231001.09375,216488.8125,228695.375,177663.03125,-705663.9375,183001.703125,0.0,0.9912109375,-0.23828125,-0.6408690810203552,0.5493163466453552,-0.4882812201976776,93.33334350585938,67573.0,1.0
12:02:17.889152,202122.453125,196635.71875,230984.640625,216484.796875,228649.78125,177639.421875,-705663.1875,182994.015625,0.00048828125,0.99072265625,-0.242431640625,-0.7019042372703552,0.6103515028953552,-0.4272460639476776,93.33334350585938,67574.0,1.0
12:02:17.889161,202124.15625,196643.421875,230982.40625,216485.234375,228643.875,177647.03125,-705667.5,182990.796875,0.001708984375,0.990234375,-0.24169921875,-0.8850097060203552,0.6408690810203552,-0.3662109076976776,93.33334350585938,67575.0,1.0
12:02:17.891675,202149.359375,196661.203125,230998.671875,216492.21875,228685.71875,177669.015625,-705670.5625,183003.03125,0.003662109375,0.990966796875,-0.23828125,-1.0070799589157104,0.7324218153953552,-0.3356933295726776,93.33334350585938,67576.0,1.0
12:02:17.891685,202155.265625,196663.984375,231008.953125,216496.859375,228706.453125,177673.046875,-705671.8125,183011.890625,0.0029296875,0.991455078125,-0.236328125,-1.1596678495407104,0.7324218153953552,-0.1220703050494194,93.33334350585938,67577.0,1.0
12:02:17.893594,202129.34375,196638.9375,230991.34375,216490.875,228661.390625,177643.890625,-705676.875,183002.40625,0.003173828125,0.9892578125,-0.240478515625,-1.2817381620407104,0.7019042372703552,0.03051757626235485,93.33334350585938,67578.0,1.0
12:02:17.896127,202125.671875,196643.421875,230985.4375,216489.984375,228645.65625,177647.65625,-705671.1875,182998.03125,0.001220703125,0.98876953125,-0.242431640625,-1.3122557401657104,0.7629393935203552,0.0,93.33334350585938,67579.0,1.0
12:02:17.898707,202148.203125,196662.8125,230999.203125,216497.125,228684.640625,177671.703125,-705662.75,183008.40625,-0.003662109375,0.9892578125,-0.240478515625,-1.4343260526657104,0.7324218153953552,0.0,93.33334350585938,67580.0,1.0
12:02:17.901874,202153.390625,196664.96875,231008.0625,216497.046875,228709.671875,177676.625,-705651.9375,183012.34375,-0.006591796875,0.99072265625,-0.2412109375,-1.5563963651657104,0.6713866591453552,0.2441406100988388,93.33334350585938,67581.0,1.0
12:02:17.901890,202130.40625,196644.046875,230995.546875,216491.671875,228674.359375,177654.265625,-705666.4375,183005.90625,-0.0078125,0.989501953125,-0.237548828125,-1.7089842557907104,0.5493163466453552,0.3967284858226776,93.33334350585938,67582.0,1.0
12:02:17.904328,202119.0625,196638.859375,230983.75,216487.03125,228645.296875,177648.8125,-705671.0625,182998.203125,-0.0078125,0.988525390625,-0.235107421875,-1.8615721464157104,0.4272460639476776,0.4577636420726776,93.33334350585938,67583.0,1.0
12:02:17.904348,202134.609375,196652.4375,230988.921875,216487.109375,228670.515625,177665.078125,-705662.125,183000.359375,-0.01123046875,0.989013671875,-0.23486328125,-1.8615721464157104,0.3967284858226776,0.4577636420726776,93.33334350585938,67584.0,1.0
12:02:17.906170,202146.140625,196661.296875,230998.671875,216488.1875,228702.96875,177675.8125,-705657.375,183006.796875,-0.01171875,0.988525390625,-0.234619140625,-1.9836424589157104,0.2136230319738388,0.6103515028953552,93.33334350585938,67585.0,1.0
12:02:17.916776,202126.296875,196641.1875,230988.390625,216484.796875,228675.25,177652.921875,-705660.875,183001.703125,-0.01318359375,0.986328125,-0.232177734375,-1.9836424589157104,0.0,0.7019042372703552,93.33334350585938,67586.0,1.0
12:02:17.916802,202109.9375,196629.5625,230972.921875,216479.25,228636.359375,177639.15625,-705659.6875,182990.4375,-0.012451171875,0.988525390625,-0.233642578125,-2.075195074081421,-0.2136230319738388,0.7019042372703552,93.33334350585938,67587.0,1.0
12:02:17.919169,202126.65625,196646.546875,230979.71875,216479.34375,228657.734375,177656.765625,-705661.5,182993.203125,-0.010986328125,0.986572265625,-0.234375,-2.166747808456421,-0.4272460639476776,0.7019042372703552,93.33334350585938,67588.0,1.0
12:02:17.919206,202146.140625,196662.1875,230996.703125,216484.96875,228697.96875,177673.578125,-705662.375,183003.9375,-0.010986328125,0.9853515625,-0.235595703125,-2.258300542831421,-0.5493163466453552,0.7934569716453552,93.33334350585938,67589.0,1.0
12:02:17.929823,202130.140625,196644.9375,230991.34375,216480.671875,228681.15625,177655.96875,-705660.9375,182998.5625,-0.009765625,0.986572265625,-0.23486328125,-2.349853277206421,-0.7629393935203552,0.9460448622703552,93.33334350585938,67590.0,1.0
12:02:17.934152,202111.546875,196630.1875,230977.75,216478.265625,228641.734375,177639.609375,-705660.25,182991.59375,-0.00732421875,0.985107421875,-0.238037109375,-2.380370855331421,-0.7629393935203552,0.9460448622703552,93.33334350585938,67591.0,1.0
12:02:17.934162,202123.171875,196643.421875,230979.890625,216480.953125,228653.703125,177653.375,-705661.3125,182992.21875,-0.00439453125,0.9853515625,-0.237548828125,-2.380370855331421,-0.9460448622703552,0.9765624403953552,93.33334350585938,67592.0,1.0
12:02:17.941067,202140.875,196655.84375,230991.609375,216484.25,228691.34375,177668.03125,-705658.625,183001.15625,-0.00341796875,0.985107421875,-0.235595703125,-2.441406011581421,-1.0070799589157104,0.9765624403953552,93.33334350585938,67593.0,1.0
12:02:17.945378,202131.21875,196644.3125,230989.734375,216482.46875,228684.828125,177654.265625,-705665.1875,183000.53125,-0.00244140625,0.984130859375,-0.23486328125,-2.471923589706421,-1.0070799589157104,0.9460448622703552,93.33334350585938,67594.0,1.0
12:02:17.945386,202111.71875,196627.5,230974.984375,216480.765625,228640.296875,177634.953125,-705667.3125,182994.90625,-0.000244140625,0.98583984375,-0.235595703125,-2.441406011581421,-0.9765624403953552,0.9765624403953552,93.33334350585938,67595.0,1.0
12:02:17.954832,202116.375,196634.75,230970.59375,216477.546875,228639.671875,177643.984375,-705672.125,182990.25,0.003173828125,0.9853515625,-0.23681640625,-2.441406011581421,-0.8850097060203552,1.0986326932907104,93.33334350585938,67596.0,1.0
