Timestamp,Fz,FC3,FCz,FC4,Cz,C3,C4
12:05:17.503942,202618.9375,197405.78125,225316.140625,212444.9375,225017.4375,179056.609375,-705677.3125,182150.453125,0.015869140625,0.983642578125,-0.253173828125,-1.1596678495407104,-0.7019042372703552,1.6479490995407104,93.33334350585938,112519.0,1.0
12:05:17.512010,202613.75,197409.640625,225311.5,212449.9375,224995.078125,179059.75,-705678.0625,182150.0,0.015869140625,0.9853515625,-0.253662109375,-1.1291502714157104,-0.8850097060203552,1.6174315214157104,93.33334350585938,112520.0,1.0
12:05:17.512026,202630.734375,197415.09375,225318.640625,212449.671875,225022.171875,179070.109375,-705680.25,182151.34375,0.01708984375,0.987060546875,-0.25244140625,-1.3427733182907104,-0.8544921278953552,1.4953612089157104,93.33334350585938,112521.0,1.0
12:05:17.514438,202645.65625,197422.59375,225332.859375,212454.328125,225056.953125,179081.296875,-705682.875,182160.640625,0.01708984375,0.988525390625,-0.24951171875,-1.5258787870407104,-0.9460448622703552,1.4648436307907104,93.33334350585938,112522.0,1.0
12:05:17.514457,202631.984375,197413.828125,225327.046875,212455.390625,225034.15625,179067.25,-705685.625,182158.234375,0.01806640625,0.990234375,-0.250732421875,-1.6174315214157104,-0.9460448622703552,1.3427733182907104,93.33334350585938,112523.0,1.0
12:05:17.526508,202622.78125,197411.59375,225317.484375,212454.5,225000.625,179058.3125,-705689.25,182153.9375,0.01953125,0.988525390625,-0.251220703125,-1.7700194120407104,-1.0986326932907104,1.2817381620407104,93.33334350585938,112524.0,1.0
12:05:17.530747,202637.609375,197425.71875,225323.296875,212455.9375,225020.828125,179076.546875,-705687.4375,182157.703125,0.02001953125,0.98779296875,-0.247802734375,-1.8920897245407104,-1.2207030057907104,1.0986326932907104,93.33334350585938,112525.0,1.0
12:05:17.530776,202653.4375,197433.140625,225333.84375,212457.625,225054.0,179084.328125,-705686.0,182163.421875,0.02001953125,0.9873046875,-0.25,-1.9836424589157104,-1.1901854276657104,0.9765624403953552,93.33334350585938,112526.0,1.0
12:05:17.532685,202642.796875,197424.390625,225331.609375,212456.5625,225040.6875,179073.15625,-705683.75,182159.9375,0.02001953125,0.988037109375,-0.248291015625,-2.105712652206421,-1.2207030057907104,0.9460448622703552,93.33334350585938,112527.0,1.0
12:05:17.543375,202630.640625,197417.140625,225322.671875,212457.8125,225005.546875,179061.4375,-705680.1875,182156.4375,0.02001953125,0.985595703125,-0.24951171875,-2.197265386581421,-1.2817381620407104,0.9460448622703552,93.33334350585938,112528.0,1.0
12:05:17.543403,202641.1875,197426.078125,225325.625,212460.578125,225016.0,179072.703125,-705689.125,182157.421875,0.022216796875,0.98388671875,-0.249267578125,-2.288818120956421,-1.3732908964157104,0.8239745497703552,93.33334350585938,112529.0,1.0
12:05:17.545711,202660.234375,197437.796875,225336.984375,212464.15625,225052.9375,179088.265625,-705688.875,182166.90625,0.020263671875,0.983154296875,-0.24951171875,-2.349853277206421,-1.4038084745407104,0.6408690810203552,93.33334350585938,112530.0,1.0
12:05:17.545738,202654.6875,197432.875,225338.765625,212463.171875,225052.484375,179082.984375,-705689.6875,182167.796875,0.01953125,0.981689453125,-0.248779296875,-2.349853277206421,-1.5258787870407104,0.4882812201976776,93.33334350585938,112531.0,1.0
12:05:17.561621,202639.21875,197421.53125,225327.140625,212465.046875,225012.875,179064.84375,-705694.75,182164.40625,0.017333984375,0.980224609375,-0.2529296875,-2.380370855331421,-1.4953612089157104,0.3051757514476776,93.33334350585938,112532.0,1.0
12:05:17.565357,202644.765625,197432.609375,225323.5625,212460.5,225010.375,179075.03125,-705687.25,182157.609375,0.015869140625,0.978271484375,-0.25146484375,-2.288818120956421,-1.6174315214157104,0.1525878757238388,93.33334350585938,112533.0,1.0
12:05:17.565378,202665.328125,197442.71875,225335.90625,212461.03125,225047.125,179090.234375,-705692.0625,182160.375,0.016357421875,0.9775390625,-0.249267578125,-2.227782964706421,-1.6174315214157104,0.0610351525247097,93.33334350585938,112534.0,1.0
12:05:17.565385,202662.921875,197440.5625,225340.828125,212461.203125,225055.703125,179087.8125,-705695.0625,182162.96875,0.016357421875,0.977783203125,-0.25146484375,-2.258300542831421,-1.7089842557907104,-0.1525878757238388,93.33334350585938,112535.0,1.0
12:05:17.603907,202642.53125,197426.0,225326.875,212458.96875,225015.5625,179069.578125,-705686.375,182157.25,0.016357421875,0.9775390625,-0.248291015625,-2.258300542831421,-1.6479490995407104,-0.2441406100988388,93.33334350585938,112536.0,1.0
12:05:17.615297,202641.28125,197430.90625,225321.0625,212456.734375,225005.1875,179073.515625,-705688.3125,182152.59375,0.015869140625,0.976806640625,-0.24951171875,-2.227782964706421,-1.6479490995407104,-0.3967284858226776,93.33334350585938,112537.0,1.0
12:05:17.620207,202662.203125,197442.890625,225331.4375,212461.203125,225039.875,179088.171875,-705690.375,182159.75,0.017578125,0.97802734375,-0.249267578125,-2.166747808456421,-1.7089842557907104,-0.5187987685203552,93.33334350585938,112538.0,1.0
12:05:17.622714,202664.265625,197441.546875,225335.1875,212457.1875,225053.5625,179089.875,-705684.5625,182159.21875,0.015869140625,0.977294921875,-0.249267578125,-2.105712652206421,-1.8615721464157104,-0.7324218153953552,93.33334350585938,112539.0,1.0
12:05:17.625177,202639.9375,197419.46875,225318.5625,212450.5625,225013.0625,179065.015625,-705683.25,182151.796875,0.016845703125,0.97705078125,-0.25,-2.075195074081421,-1.8310545682907104,-0.7019042372703552,93.33334350585938,112540.0,1.0
12:05:17.627917,202634.75,197426.171875,225311.5,212449.765625,224994.453125,179069.9375,-705682.6875,182146.515625,0.017333984375,0.978271484375,-0.24755859375,-2.014159917831421,-1.8615721464157104,-0.7629393935203552,93.33334350585938,112541.0,1.0
12:05:17.630251,202650.046875,197431.984375,225315.875,212449.859375,225021.109375,179078.78125,-705684.125,182148.21875,0.017578125,0.979248046875,-0.2470703125,-1.9836424589157104,-1.8920897245407104,-0.7934569716453552,93.33334350585938,112542.0,1.0
12:05:17.632648,202665.328125,197441.90625,225331.4375,212453.78125,225051.953125,179091.65625,-705686.8125,182156.71875,0.01806640625,0.98193359375,-0.244873046875,-2.044677495956421,-1.8920897245407104,-0.9155272841453552,93.33334350585938,112543.0,1.0
12:05:17.635173,202648.609375,197426.796875,225324.28125,212453.875,225023.6875,179073.0625,-705683.3125,182154.5625,0.017333984375,0.981201171875,-0.245361328125,-2.014159917831421,-1.8615721464157104,-0.8850097060203552,93.33334350585938,112544.0,1.0
12:05:17.637662,202637.171875,197422.59375,225312.484375,212451.015625,224992.765625,179063.5,-705675.875,182146.34375,0.016357421875,0.982421875,-0.2470703125,-1.9226073026657104,-1.9836424589157104,-0.8544921278953552,93.33334350585938,112545.0,1.0
12:05:17.640160,202658.265625,197440.390625,225323.296875,212455.671875,225020.75,179081.828125,-705679.8125,182150.359375,0.015625,0.98388671875,-0.245849609375,-1.9226073026657104,-1.9531248807907104,-0.8544921278953552,93.33334350585938,112546.0,1.0
12:05:17.642755,202674.71875,197451.203125,225340.734375,212463.0,225058.921875,179096.40625,-705683.875,182162.34375,0.017333984375,0.985595703125,-0.243896484375,-1.9531248807907104,-1.9836424589157104,-0.8850097060203552,93.33334350585938,112547.0,1.0
12:05:17.645192,202656.125,197435.375,225332.328125,212454.234375,225033.890625,179077.625,-705686.8125,182153.140625,0.017578125,0.9853515625,-0.245361328125,-1.9531248807907104,-1.8615721464157104,-0.9765624403953552,93.33334350585938,112548.0,1.0
12:05:17.647707,202640.296875,197426.265625,225319.09375,212448.515625,224996.875,179065.46875,-705692.0625,182142.9375,0.018310546875,0.986083984375,-0.24658203125,-2.044677495956421,-1.8310545682907104,-1.0070799589157104,93.33334350585938,112549.0,1.0
12:05:17.650242,202653.4375,197440.484375,225324.90625,212452.71875,225016.71875,179084.0625,-705693.25,182148.484375,0.0166015625,0.98583984375,-0.24609375,-2.044677495956421,-1.8310545682907104,-0.8850097060203552,93.33334350585938,112550.0,1.0
12:05:17.652657,202666.859375,197444.046875,225334.03125,212455.484375,225051.234375,179092.015625,-705692.375,182155.90625,0.01513671875,0.986572265625,-0.245361328125,-2.075195074081421,-1.7700194120407104,-0.9155272841453552,93.33334350585938,112551.0,1.0
12:05:17.656393,202655.046875,197432.515625,225328.484375,212454.140625,225037.90625,179077.359375,-705691.25,182153.140625,0.01318359375,0.985595703125,-0.244873046875,-2.075195074081421,-1.7395018339157104,-0.9460448622703552,93.33334350585938,112552.0,1.0
12:05:17.656427,202629.65625,197411.78125,225307.921875,212442.96875,224992.484375,179056.53125,-705694.5625,182140.171875,0.01513671875,0.98681640625,-0.244873046875,-2.014159917831421,-1.7700194120407104,-0.9765624403953552,93.33334350585938,112553.0,1.0
12:05:17.656440,202639.21875,197425.640625,225311.765625,212444.3125,225003.046875,179071.90625,-705689.0625,182141.328125,0.015380859375,0.986328125,-0.24462890625,-2.075195074081421,-1.8920897245407104,-1.0070799589157104,93.33334350585938,112554.0,1.0
12:05:17.658886,202660.859375,197440.03125,225326.6875,212450.921875,225042.65625,179089.15625,-705690.625,182151.703125,0.01416015625,0.986328125,-0.245361328125,-2.136230230331421,-1.7700194120407104,-0.9460448622703552,93.33334350585938,112555.0,1.0
12:05:17.661409,202652.28125,197428.59375,225324.28125,212446.90625,225038.53125,179074.765625,-705695.1875,182148.3125,0.01416015625,0.986572265625,-0.24365234375,-2.105712652206421,-1.6784666776657104,-0.8850097060203552,93.33334350585938,112556.0,1.0
12:05:17.664881,202631.453125,197413.484375,225309.265625,212442.078125,224994.375,179056.53125,-705698.4375,182139.546875,0.01416015625,0.9853515625,-0.2431640625,-2.105712652206421,-1.7700194120407104,-1.0375975370407104,93.33334350585938,112557.0,1.0
12:05:17.664984,202638.78125,197423.9375,225311.046875,212445.828125,224996.609375,179067.25,-705695.9375,182140.34375,0.01318359375,0.983642578125,-0.24462890625,-2.197265386581421,-1.6479490995407104,-0.9765624403953552,93.33334350585938,112558.0,1.0
12:05:17.667046,202660.234375,197437.96875,225322.765625,212450.125,225035.671875,179084.515625,-705694.25,182149.65625,0.0126953125,0.982177734375,-0.242431640625,-2.227782964706421,-1.6174315214157104,-1.0070799589157104,93.33334350585938,112559.0,1.0
12:05:17.667057,202659.25,197436.453125,225327.328125,212447.796875,225045.234375,179084.0625,-705684.75,182149.65625,0.01318359375,0.98291015625,-0.243896484375,-2.166747808456421,-1.6784666776657104,-1.0986326932907104,93.33334350585938,112560.0,1.0
12:05:17.673904,202641.640625,197423.84375,225318.109375,212450.03125,225009.03125,179067.515625,-705684.3125,182148.125,0.012939453125,0.982177734375,-0.2431640625,-2.258300542831421,-1.6479490995407104,-1.0375975370407104,93.33334350585938,112561.0,1.0
12:05:17.676490,202645.03125,197433.6875,225316.328125,212451.640625,225000.625,179076.828125,-705683.6875,182146.703125,0.008544921875,0.9814453125,-0.246337890625,-2.288818120956421,-1.5258787870407104,-1.0070799589157104,93.33334350585938,112562.0,1.0
12:05:17.687066,202665.15625,197439.859375,225326.25,212454.5,225034.875,179087.109375,-705683.9375,182154.5625,0.010498046875,0.982177734375,-0.24267578125,-2.197265386581421,-1.6479490995407104,-1.0681151151657104,93.33334350585938,112563.0,1.0
12:05:17.687095,202666.9375,197443.515625,225332.328125,212454.234375,225053.828125,179092.5625,-705683.125,182157.0625,0.011962890625,0.980712890625,-0.2431640625,-2.197265386581421,-1.7089842557907104,-1.0070799589157104,93.33334350585938,112564.0,1.0
12:05:17.689480,202648.25,197427.96875,225322.40625,212456.296875,225018.15625,179071.28125,-705691.0,182156.0,0.01318359375,0.9833984375,-0.242919921875,-2.166747808456421,-1.6479490995407104,-1.0375975370407104,93.33334350585938,112565.0,1.0
12:05:17.689513,202638.328125,197421.078125,225310.953125,212450.21875,224992.765625,179060.640625,-705695.1875,182145.09375,0.013916015625,0.982177734375,-0.240966796875,-2.136230230331421,-1.4953612089157104,-1.0070799589157104,93.33334350585938,112566.0,1.0
12:05:17.691390,202658.1875,197437.890625,225321.328125,212455.578125,225023.34375,179080.3125,-705699.0625,182152.6875,0.010986328125,0.98291015625,-0.241455078125,-2.014159917831421,-1.4648436307907104,-1.0375975370407104,93.33334350585938,112567.0,1.0
12:05:17.708374,202666.234375,197435.828125,225329.015625,212455.21875,225048.8125,179083.703125,-705705.75,182157.703125,0.01171875,0.982421875,-0.2431640625,-2.014159917831421,-1.3732908964157104,-1.0375975370407104,93.33334350585938,112568.0,1.0
12:05:17.708414,202648.796875,197418.484375,225321.78125,212454.5,225022.078125,179064.84375,-705699.0625,182155.453125,0.01123046875,0.984375,-0.2421875,-1.9226073026657104,-1.2207030057907104,-0.9155272841453552,93.33334350585938,112569.0,1.0
12:05:17.715233,202640.5625,197419.109375,225315.078125,212456.109375,224996.96875,179065.640625,-705695.75,182152.953125,0.012939453125,0.981689453125,-0.243896484375,-1.9836424589157104,-1.2207030057907104,-0.9460448622703552,93.33334350585938,112570.0,1.0
12:05:17.715250,202660.5,197434.484375,225326.25,212464.34375,225025.484375,179083.609375,-705693.6875,182160.828125,0.011474609375,0.982177734375,-0.24267578125,-1.9531248807907104,-1.2512205839157104,-0.9155272841453552,93.33334350585938,112571.0,1.0
12:05:17.715253,202669.171875,197437.96875,225333.765625,212463.53125,225054.359375,179090.765625,-705682.1875,182164.9375,0.01025390625,0.98095703125,-0.242431640625,-1.8920897245407104,-1.1291502714157104,-0.7629393935203552,93.33334350585938,112572.0,1.0
12:05:17.720939,202645.65625,197415.625,225320.078125,212454.328125,225026.90625,179067.703125,-705685.1875,182153.578125,0.01220703125,0.982421875,-0.244384765625,-1.9226073026657104,-1.1291502714157104,-0.6713866591453552,93.33334350585938,112573.0,1.0
12:05:17.720960,202630.375,197406.5,225307.03125,212449.59375,224989.625,179056.078125,-705686.0625,182146.15625,0.012451171875,0.98388671875,-0.2431640625,-1.9836424589157104,-1.0681151151657104,-0.6408690810203552,93.33334350585938,112574.0,1.0
12:05:17.727711,202643.875,197421.53125,225311.5,212452.265625,225005.546875,179074.140625,-705684.3125,182148.046875,0.011474609375,0.986328125,-0.2421875,-1.9226073026657104,-1.0375975370407104,-0.6408690810203552,93.33334350585938,112575.0,1.0
12:05:17.735876,202658.0,197429.921875,225322.40625,212453.609375,225040.140625,179085.5,-705686.8125,182154.125,0.010986328125,0.986083984375,-0.243408203125,-1.8615721464157104,-1.0375975370407104,-0.6103515028953552,93.33334350585938,112576.0,1.0
12:05:17.735919,202649.234375,197423.765625,225321.0625,212451.734375,225032.359375,179075.921875,-705687.25,182152.6875,0.008056640625,0.984375,-0.240966796875,-1.9836424589157104,-0.9155272841453552,-0.5798339247703552,93.33334350585938,112577.0,1.0
12:05:17.738236,202631.625,197409.1875,225306.75,212448.953125,224992.484375,179059.203125,-705684.5625,182148.21875,0.007568359375,0.98583984375,-0.24072265625,-2.014159917831421,-0.9460448622703552,-0.4577636420726776,93.33334350585938,112578.0,1.0
12:05:17.738278,202636.453125,197418.03125,225306.84375,212449.59375,224998.84375,179067.96875,-705682.0625,182148.125,0.00732421875,0.98681640625,-0.23779296875,-2.105712652206421,-0.9765624403953552,-0.5187987685203552,93.33334350585938,112579.0,1.0
12:05:17.747712,202648.25,197418.125,225314.359375,212446.09375,225032.71875,179075.296875,-705685.0,182150.359375,0.00634765625,0.98828125,-0.23681640625,-2.105712652206421,-0.8850097060203552,-0.4882812201976776,93.33334350585938,112580.0,1.0
12:05:17.754611,202639.765625,197410.703125,225313.640625,212443.59375,225032.015625,179068.234375,-705694.5625,182148.84375,0.00439453125,0.98828125,-0.242431640625,-2.258300542831421,-0.7324218153953552,-0.3356933295726776,93.33334350585938,112581.0,1.0
12:05:17.754667,202619.203125,197391.390625,225297.1875,212443.59375,224988.015625,179041.859375,-705698.4375,182144.28125,0.0048828125,0.987060546875,-0.24169921875,-2.319335699081421,-0.8239745497703552,-0.3356933295726776,93.33334350585938,112582.0,1.0
12:05:17.762009,202623.3125,197405.515625,225295.046875,212439.75,224983.640625,179054.5625,-705696.4375,182138.5625,0.004150390625,0.98681640625,-0.24169921875,-2.288818120956421,-0.8239745497703552,-0.3356933295726776,93.33334350585938,112583.0,1.0
12:05:17.762043,202641.46875,197419.828125,225307.203125,212440.203125,225020.75,179073.328125,-705682.625,182143.5625,0.0029296875,0.986572265625,-0.241455078125,-2.349853277206421,-0.8850097060203552,-0.3967284858226776,93.33334350585938,112584.0,1.0
12:05:17.768279,202641.90625,197414.109375,225313.546875,212439.296875,225034.328125,179069.40625,-705674.4375,182146.609375,0.000732421875,0.986572265625,-0.239990234375,-2.471923589706421,-0.9155272841453552,-0.2746581733226776,93.33334350585938,112585.0,1.0
12:05:17.768317,202622.15625,197399.703125,225303.0,212438.140625,224996.78125,179051.15625,-705676.1875,182143.21875,0.00341796875,0.9853515625,-0.238525390625,-2.471923589706421,-1.0070799589157104,-0.2441406100988388,93.33334350585938,112586.0,1.0
12:05:17.777793,202620.0,197403.109375,225296.828125,212435.8125,224982.75,179053.21875,-705681.1875,182137.484375,0.004150390625,0.985595703125,-0.239990234375,-2.471923589706421,-0.9155272841453552,-0.2136230319738388,93.33334350585938,112587.0,1.0
12:05:17.780945,202637.703125,197417.953125,225304.96875,212437.25,225015.734375,179072.078125,-705676.0,182142.3125,0.0048828125,0.98486328125,-0.240234375,-2.532958745956421,-0.9765624403953552,-0.0610351525247097,93.33334350585938,112588.0,1.0
12:05:17.781033,202645.3125,197424.03125,225315.96875,212442.078125,225039.875,179080.484375,-705662.875,182149.5625,0.00244140625,0.984130859375,-0.2392578125,-2.502441167831421,-1.0375975370407104,-0.1831054538488388,93.33334350585938,112589.0,1.0
12:05:17.787659,202629.125,197411.328125,225309.265625,212444.046875,225010.28125,179066.359375,-705668.125,182149.375,0.003662109375,0.984375,-0.2392578125,-2.502441167831421,-1.0681151151657104,-0.0610351525247097,93.33334350585938,112590.0,1.0
12:05:17.794528,202619.109375,197405.875,225298.53125,212439.75,224986.859375,179060.375,-705674.9375,182142.5,0.0048828125,0.984619140625,-0.238525390625,-2.471923589706421,-1.0681151151657104,0.0915527269244194,93.33334350585938,112591.0,1.0
12:05:17.794555,202641.1875,197426.078125,225310.78125,212446.90625,225020.65625,179083.96875,-705677.9375,182151.96875,0.008056640625,0.985595703125,-0.238525390625,-2.502441167831421,-1.0070799589157104,0.1220703050494194,93.33334350585938,112592.0,1.0
12:05:17.797039,202647.453125,197427.0625,225317.484375,212441.09375,225045.234375,179089.34375,-705668.5625,182150.359375,0.008056640625,0.987060546875,-0.237060546875,-2.593993902206421,-1.0070799589157104,0.2441406100988388,93.33334350585938,112593.0,1.0
12:05:17.797065,202620.1875,197400.953125,225300.953125,212430.90625,225009.75,179061.890625,-705675.1875,182138.65625,0.008544921875,0.98828125,-0.238525390625,-2.624511480331421,-0.8239745497703552,0.3662109076976776,93.33334350585938,112594.0,1.0
12:05:17.808891,202605.609375,197392.203125,225289.140625,212427.859375,224976.84375,179050.53125,-705683.125,182130.96875,0.00732421875,0.98681640625,-0.237548828125,-2.532958745956421,-0.7934569716453552,0.3967284858226776,93.33334350585938,112595.0,1.0
12:05:17.813262,202622.953125,197407.3125,225296.390625,212429.5625,224998.578125,179062.515625,-705692.0625,182132.390625,0.00927734375,0.9892578125,-0.236328125,-2.655029058456421,-0.7324218153953552,0.5493163466453552,93.33334350585938,112596.0,1.0
12:05:17.813288,202632.703125,197407.75,225302.828125,212427.6875,225027.453125,179064.75,-705697.375,182134.984375,0.0107421875,0.990234375,-0.23779296875,-2.655029058456421,-0.6713866591453552,0.5798339247703552,93.33334350585938,112597.0,1.0
12:05:17.819453,202612.140625,197389.515625,225291.640625,212417.046875,225003.671875,179044.09375,-705691.875,182125.15625,0.009765625,0.989501953125,-0.240478515625,-2.777099370956421,-0.6103515028953552,0.5798339247703552,93.33334350585938,112598.0,1.0
12:05:17.819479,202596.9375,197383.171875,225278.859375,212412.65625,224966.65625,179032.65625,-705693.4375,182118.53125,0.009765625,0.989501953125,-0.239013671875,-2.777099370956421,-0.4272460639476776,0.7324218153953552,93.33334350585938,112599.0,1.0
12:05:17.821352,202611.15625,197393.453125,225284.9375,212418.734375,224983.546875,179046.421875,-705700.5625,182123.1875,0.01220703125,0.98974609375,-0.2373046875,-2.777099370956421,-0.3662109076976776,0.7934569716453552,93.33334350585938,112600.0,1.0
12:05:17.831503,202631.890625,197409.640625,225300.953125,212424.640625,225024.5,179067.515625,-705699.0625,182134.71875,0.012939453125,0.98876953125,-0.23876953125,-2.777099370956421,-0.1525878757238388,0.7934569716453552,93.33334350585938,112601.0,1.0
12:05:17.838222,202624.734375,197401.59375,225301.390625,212426.34375,225018.953125,179056.4375,-705694.125,182137.125,0.01318359375,0.989013671875,-0.239990234375,-2.868652105331421,-0.1220703050494194,0.8544921278953552,93.33334350585938,112602.0,1.0
12:05:17.838263,202605.4375,197387.375,225286.734375,212423.921875,224976.125,179038.015625,-705691.75,182129.359375,0.013916015625,0.99072265625,-0.236083984375,-2.838134527206421,-0.0610351525247097,0.8544921278953552,93.33334350585938,112603.0,1.0
12:05:17.843279,202613.484375,197397.734375,225286.1875,212424.015625,224979.609375,179049.8125,-705685.1875,182127.65625,0.015869140625,0.98876953125,-0.237060546875,-2.807616949081421,0.0915527269244194,0.9765624403953552,93.33334350585938,112604.0,1.0
12:05:17.843329,202637.34375,197416.703125,225302.015625,212431.96875,225020.921875,179070.828125,-705677.3125,182141.609375,0.01513671875,0.988525390625,-0.23779296875,-2.838134527206421,0.1525878757238388,1.0681151151657104,93.33334350585938,112605.0,1.0
12:05:17.848868,202631.625,197409.546875,225304.171875,212430.0,225025.65625,179063.234375,-705677.75,182141.875,0.015625,0.985107421875,-0.23876953125,-2.868652105331421,0.3662109076976776,1.0375975370407104,93.33334350585938,112606.0,1.0
12:05:17.878969,202611.328125,197387.453125,225292.265625,212429.734375,224986.234375,179041.765625,-705684.0625,182138.828125,0.01806640625,0.986328125,-0.239013671875,-2.807616949081421,0.5493163466453552,1.0375975370407104,93.33334350585938,112607.0,1.0
12:05:17.882633,202616.0625,197398.453125,225292.0,212431.25,224983.8125,179051.15625,-705684.5625,182137.578125,0.017822265625,0.9853515625,-0.240234375,-2.838134527206421,0.7324218153953552,0.9765624403953552,93.33334350585938,112608.0,1.0
12:05:17.882663,202640.390625,197416.0625,225306.84375,212438.953125,225024.671875,179074.3125,-705674.375,182149.734375,0.01806640625,0.983154296875,-0.237060546875,-2.777099370956421,0.8544921278953552,0.7324218153953552,93.33334350585938,112609.0,1.0
12:05:17.882673,202643.34375,197419.375,225314.09375,212439.390625,225040.859375,179080.21875,-705677.0625,182153.40625,0.01708984375,0.98193359375,-0.23583984375,-2.716064214706421,0.9765624403953552,0.7629393935203552,93.33334350585938,112610.0,1.0
12:05:17.886828,202622.6875,197401.5,225301.84375,212439.578125,225003.21875,179059.921875,-705685.0,182150.453125,0.0185546875,0.980224609375,-0.23583984375,-2.655029058456421,1.1291502714157104,0.7324218153953552,93.33334350585938,112611.0,1.0
12:05:17.886857,202617.5,197396.671875,225294.0625,212437.78125,224986.234375,179052.140625,-705689.375,182144.828125,0.017333984375,0.974365234375,-0.23681640625,-2.532958745956421,1.3122557401657104,0.6408690810203552,93.33334350585938,112612.0,1.0
12:05:17.886865,202643.078125,197419.203125,225310.15625,212447.0,225023.609375,179077.625,-705678.0625,182156.796875,0.015625,0.972412109375,-0.23583984375,-2.380370855331421,1.5258787870407104,0.5798339247703552,93.33334350585938,112613.0,1.0
12:05:17.888901,202649.78125,197421.4375,225318.828125,212448.25,225045.78125,179080.484375,-705672.5,182162.078125,0.014404296875,0.97314453125,-0.236083984375,-2.197265386581421,1.5869139432907104,0.5187987685203552,93.33334350585938,112614.0,1.0
12:05:17.891466,202629.484375,197401.59375,225307.03125,212445.203125,225010.28125,179057.6875,-705675.5625,182156.53125,0.014892578125,0.973876953125,-0.23583984375,-2.014159917831421,1.7089842557907104,0.4272460639476776,93.33334350585938,112615.0,1.0
12:05:17.893858,202624.203125,197406.0625,225301.75,212445.5625,224990.703125,179059.46875,-705681.4375,182153.046875,0.01806640625,0.97509765625,-0.23486328125,-1.7700194120407104,1.8920897245407104,0.3662109076976776,93.33334350585938,112616.0,1.0
12:05:17.896407,202643.25,197421.796875,225312.203125,212449.859375,225021.640625,179079.765625,-705677.75,182160.5625,0.0166015625,0.975830078125,-0.236328125,-1.4648436307907104,2.044677495956421,0.3356933295726776,93.33334350585938,112617.0,1.0
12:05:17.898869,202649.421875,197421.078125,225318.921875,212445.390625,225048.109375,179084.0625,-705672.5625,182159.84375,0.018310546875,0.9736328125,-0.2412109375,-1.3427733182907104,2.197265386581421,0.3967284858226776,93.33334350585938,112618.0,1.0
12:05:17.901426,202631.0,197405.609375,225308.28125,212442.171875,225020.125,179065.5625,-705674.5625,182153.21875,0.016845703125,0.970703125,-0.239013671875,-1.1291502714157104,2.319335699081421,0.3356933295726776,93.33334350585938,112619.0,1.0
12:05:17.905731,202619.640625,197401.40625,225297.28125,212440.734375,224987.84375,179059.828125,-705676.0625,182148.484375,0.017578125,0.969482421875,-0.23779296875,-0.9155272841453552,2.380370855331421,0.1831054538488388,93.33334350585938,112620.0,1.0
12:05:17.905753,202635.375,197415.71875,225304.796875,212444.046875,225010.28125,179079.140625,-705671.1875,182154.484375,0.014404296875,0.969970703125,-0.23974609375,-0.6408690810203552,2.410888433456421,0.1525878757238388,93.33334350585938,112621.0,1.0
12:05:17.915186,202647.453125,197423.046875,225314.71875,212443.15625,225042.015625,179087.453125,-705665.8125,182159.84375,0.0126953125,0.96826171875,-0.239990234375,-0.3662109076976776,2.624511480331421,0.0,93.33334350585938,112622.0,1.0
12:05:17.918241,202629.125,197405.25,225305.421875,212436.4375,225021.109375,179068.78125,-705670.875,182152.234375,0.009521484375,0.96923828125,-0.2421875,0.03051757626235485,2.624511480331421,-0.1220703050494194,93.33334350585938,112623.0,1.0
12:05:17.918275,202610.265625,197392.015625,225289.859375,212431.4375,224980.25,179052.5,-705671.9375,182143.390625,0.008056640625,0.97216796875,-0.240234375,0.3356933295726776,2.624511480331421,-0.1831054538488388,93.33334350585938,112624.0,1.0
12:05:17.923884,202619.734375,197403.109375,225291.203125,212429.828125,224990.703125,179064.578125,-705663.8125,182141.25,0.00390625,0.9716796875,-0.2392578125,0.6103515028953552,2.624511480331421,-0.4272460639476776,93.33334350585938,112625.0,1.0
12:05:17.953311,202638.953125,197417.671875,225305.859375,212434.75,225030.21875,179082.625,-705654.4375,182150.546875,0.00048828125,0.97607421875,-0.23974609375,0.6713866591453552,2.502441167831421,-0.5798339247703552,93.33334350585938,112626.0,1.0
12:05:17.953363,202626.890625,197405.15625,225302.015625,212430.71875,225022.171875,179066.890625,-705663.75,182145.890625,-0.00146484375,0.97607421875,-0.240234375,0.7934569716453552,2.319335699081421,-0.6713866591453552,93.33334350585938,112627.0,1.0
12:05:17.980735,202608.65625,197390.59375,225288.15625,212428.125,224979.796875,179046.0625,-705663.75,182140.0,-0.0029296875,0.976806640625,-0.23779296875,0.8239745497703552,2.258300542831421,-0.7629393935203552,93.33334350585938,112628.0,1.0
12:05:17.980751,202616.875,197408.921875,225290.75,212430.453125,224986.234375,179062.6875,-705661.75,182140.265625,-0.003662109375,0.97705078125,-0.236083984375,1.0070799589157104,2.044677495956421,-0.9155272841453552,93.33334350585938,112629.0,1.0
12:05:18.002495,202637.34375,197421.25,225303.8125,212434.828125,225024.953125,179080.9375,-705662.3125,182148.3125,-0.005859375,0.9794921875,-0.236328125,1.0986326932907104,1.9226073026657104,-1.0681151151657104,93.33334350585938,112630.0,1.0
12:05:18.002661,202628.234375,197409.640625,225301.390625,212428.390625,225024.765625,179071.8125,-705659.8125,182144.28125,-0.006103515625,0.981201171875,-0.23486328125,1.0986326932907104,1.6174315214157104,-1.0681151151657104,93.33334350585938,112631.0,1.0
12:05:18.002677,202606.59375,197392.5625,225286.640625,212423.21875,224982.296875,179051.609375,-705657.9375,182135.96875,-0.003662109375,0.982666015625,-0.23828125,1.2207030057907104,1.3732908964157104,-1.1901854276657104,93.33334350585938,112632.0,1.0
12:05:18.002682,202614.8125,197408.03125,225289.328125,212427.5,224980.875,179066.8125,-705657.375,182137.125,-0.003662109375,0.983642578125,-0.23828125,1.2207030057907104,1.3122557401657104,-1.0986326932907104,93.33334350585938,112633.0,1.0
12:05:18.002687,202639.765625,197420.984375,225304.25,212438.046875,225020.921875,179082.90625,-705658.0,182152.421875,-0.0009765625,0.98681640625,-0.2431640625,1.1901854276657104,1.1291502714157104,-1.0375975370407104,93.33334350585938,112634.0,1.0
12:05:18.004744,202637.4375,197416.0625,225306.84375,212429.015625,225033.4375,179081.828125,-705666.875,182148.75,-0.001953125,0.986572265625,-0.242919921875,1.1901854276657104,1.0070799589157104,-0.9460448622703552,93.33334350585938,112635.0,1.0
12:05:18.004802,202616.703125,197400.421875,225295.40625,212428.578125,224997.59375,179063.59375,-705670.625,182143.125,-0.003173828125,0.986083984375,-0.2421875,1.0986326932907104,0.8850097060203552,-0.9155272841453552,93.33334350585938,112636.0,1.0
12:05:18.007230,202617.765625,197405.609375,225294.953125,212434.125,224985.78125,179065.015625,-705667.5625,182144.640625,-0.00244140625,0.987548828125,-0.24462890625,1.0375975370407104,0.6713866591453552,-0.6408690810203552,93.33334350585938,112637.0,1.0
12:05:18.007278,202640.125,197423.84375,225309.4375,212441.09375,225021.546875,179088.0,-705662.0625,182153.5,-0.000244140625,0.988037109375,-0.243408203125,0.9460448622703552,0.4882812201976776,-0.4272460639476776,93.33334350585938,112638.0,1.0
12:05:18.008980,202647.625,197426.359375,225319.546875,212441.265625,225047.390625,179094.875,-705666.0,182157.703125,0.000244140625,0.9892578125,-0.24365234375,0.7019042372703552,0.4272460639476776,-0.3662109076976776,93.33334350585938,112639.0,1.0
12:05:18.011491,202628.765625,197407.84375,225308.546875,212440.5625,225015.46875,179072.625,-705672.6875,182154.921875,0.0,0.989990234375,-0.243408203125,0.5493163466453552,0.3356933295726776,-0.2746581733226776,93.33334350585938,112640.0,1.0
12:05:18.013971,202620.453125,197408.734375,225299.15625,212437.15625,224988.296875,179069.75,-705666.875,182148.9375,0.0,0.990478515625,-0.24462890625,0.4272460639476776,0.1220703050494194,-0.0915527269244194,93.33334350585938,112641.0,1.0
12:05:18.016657,202634.046875,197418.125,225302.109375,212437.0625,225010.640625,179079.859375,-705655.0625,182150.71875,-0.0009765625,0.989013671875,-0.2412109375,0.3967284858226776,-0.03051757626235485,-0.0610351525247097,93.33334350585938,112642.0,1.0
12:05:18.018875,202641.015625,197424.109375,225307.5625,212432.328125,225036.75,179087.28125,-705663.9375,182151.609375,-0.002197265625,0.98876953125,-0.2412109375,0.3662109076976776,-0.1525878757238388,0.03051757626235485,93.33334350585938,112643.0,1.0
12:05:18.021473,202619.828125,197401.046875,225294.953125,212426.15625,225008.40625,179063.3125,-705670.25,182144.46875,-0.0029296875,0.99072265625,-0.24462890625,0.1831054538488388,-0.3662109076976776,0.1220703050494194,93.33334350585938,112644.0,1.0
12:05:18.023944,202607.484375,197393.09375,225284.40625,212426.96875,224975.140625,179054.296875,-705675.8125,182139.90625,-0.003173828125,0.9892578125,-0.244384765625,0.03051757626235485,-0.4882812201976776,0.2746581733226776,93.33334350585938,112645.0,1.0
12:05:18.026548,202621.25,197406.140625,225289.859375,212429.296875,224993.828125,179066.625,-705676.0,182141.78125,-0.00390625,0.989501953125,-0.24365234375,0.0,-0.7019042372703552,0.3356933295726776,93.33334350585938,112646.0,1.0
12:05:18.028935,202636.71875,197418.9375,225303.265625,212429.734375,225029.234375,179082.71875,-705670.0,182148.125,-0.00341796875,0.988525390625,-0.242431640625,-0.03051757626235485,-0.8239745497703552,0.3967284858226776,93.33334350585938,112647.0,1.0
12:05:18.032034,202622.0625,197403.28125,225296.296875,212426.703125,225012.703125,179065.015625,-705673.0625,182144.90625,-0.001708984375,0.9892578125,-0.241943359375,-0.2746581733226776,-1.0070799589157104,0.4577636420726776,93.33334350585938,112648.0,1.0
12:05:18.032090,202605.25,197390.59375,225281.90625,212423.03125,224973.53125,179049.015625,-705665.375,182136.234375,-0.0009765625,0.98828125,-0.243408203125,-0.4272460639476776,-1.1901854276657104,0.5798339247703552,93.33334350585938,112649.0,1.0
12:05:18.034053,202612.578125,197401.3125,225282.703125,212422.765625,224982.296875,179061.53125,-705663.3125,182134.625,-0.001220703125,0.988525390625,-0.24462890625,-0.5798339247703552,-1.3122557401657104,0.6408690810203552,93.33334350585938,112650.0,1.0
12:05:18.037332,202629.296875,197411.59375,225294.6875,212423.921875,225017.96875,179076.015625,-705671.0625,182140.890625,-0.00048828125,0.98828125,-0.244873046875,-0.7324218153953552,-1.4343260526657104,0.5798339247703552,93.33334350585938,112651.0,1.0
12:05:18.037406,202620.890625,197403.015625,225293.703125,212421.0625,225013.59375,179066.265625,-705673.75,182137.9375,-0.00048828125,0.987060546875,-0.243408203125,-0.7934569716453552,-1.5869139432907104,0.6103515028953552,93.33334350585938,112652.0,1.0
12:05:18.043237,202599.796875,197385.5,225276.890625,212417.84375,224969.328125,179044.359375,-705676.0,182130.78125,0.002197265625,0.98779296875,-0.243896484375,-0.9155272841453552,-1.6784666776657104,0.6408690810203552,93.33334350585938,112653.0,1.0
12:05:18.043285,202603.640625,197391.65625,225273.765625,212415.25,224966.5625,179049.1875,-705677.9375,182126.40625,0.00439453125,0.98828125,-0.243896484375,-1.0375975370407104,-1.7395018339157104,0.7629393935203552,93.33334350585938,112654.0,1.0
12:05:18.045768,202626.890625,197410.265625,225287.984375,212420.4375,225005.640625,179069.9375,-705673.8125,182134.8125,0.003662109375,0.98583984375,-0.243408203125,-1.2207030057907104,-1.7700194120407104,0.7934569716453552,93.33334350585938,112655.0,1.0
12:05:18.045808,202622.15625,197404.625,225290.21875,212418.734375,225013.59375,179065.28125,-705668.9375,182135.25,0.005126953125,0.986328125,-0.246826171875,-1.3732908964157104,-1.8005369901657104,0.7934569716453552,93.33334350585938,112656.0,1.0
12:05:18.053964,202602.75,197388.078125,225279.84375,212418.734375,224975.59375,179045.96875,-705668.125,182131.046875,0.0078125,0.984619140625,-0.2470703125,-1.4343260526657104,-1.8310545682907104,0.7629393935203552,93.33334350585938,112657.0,1.0
12:05:18.060880,202604.890625,197397.828125,225278.859375,212420.890625,224969.15625,179055.546875,-705668.5,182129.0,0.0087890625,0.9873046875,-0.2490234375,-1.4953612089157104,-1.8005369901657104,0.7629393935203552,93.33334350585938,112658.0,1.0
12:05:18.060921,202627.0625,197416.703125,225292.0,212427.328125,225006.625,179073.0625,-705669.5625,182139.90625,0.01220703125,0.986083984375,-0.24658203125,-1.5258787870407104,-1.7700194120407104,0.7324218153953552,93.33334350585938,112659.0,1.0
12:05:18.071099,202624.203125,197402.65625,225291.734375,212421.421875,225018.859375,179065.90625,-705676.0,182138.109375,0.0126953125,0.986328125,-0.24658203125,-1.5258787870407104,-1.6784666776657104,0.8239745497703552,93.33334350585938,112660.0,1.0
12:05:18.071130,202604.625,197385.9375,225280.203125,212418.828125,224983.375,179047.40625,-705674.9375,182132.65625,0.01318359375,0.98291015625,-0.244873046875,-1.5869139432907104,-1.5563963651657104,0.8239745497703552,93.33334350585938,112661.0,1.0
12:05:18.072803,202601.671875,197392.640625,225277.796875,212420.171875,224968.984375,179052.953125,-705671.625,182131.046875,0.013671875,0.982177734375,-0.2451171875,-1.6479490995407104,-1.3427733182907104,0.8544921278953552,93.33334350585938,112662.0,1.0
12:05:18.075149,202623.671875,197412.21875,225292.265625,212426.78125,225005.546875,179074.765625,-705665.625,182141.875,0.0146484375,0.981689453125,-0.247314453125,-1.6479490995407104,-1.2817381620407104,0.8544921278953552,93.33334350585938,112663.0,1.0
12:05:18.079119,202631.53125,197415.625,225299.25,212426.609375,225028.25,179077.796875,-705669.3125,182145.53125,0.0146484375,0.982177734375,-0.247314453125,-1.6174315214157104,-1.0681151151657104,0.8544921278953552,93.33334350585938,112664.0,1.0
12:05:18.089600,202614.8125,197400.609375,225290.3125,212425.71875,224996.875,179058.578125,-705670.5625,182141.15625,0.014404296875,0.97998046875,-0.248046875,-1.7395018339157104,-0.8850097060203552,0.8544921278953552,93.33334350585938,112665.0,1.0
12:05:18.089643,202605.515625,197396.21875,225279.578125,212422.859375,224967.640625,179052.59375,-705674.625,182134.1875,0.0146484375,0.97900390625,-0.24658203125,-1.5869139432907104,-0.7019042372703552,0.7934569716453552,93.33334350585938,112666.0,1.0
12:05:18.091508,202624.203125,197411.953125,225288.25,212426.96875,224995.625,179071.640625,-705676.0625,182139.71875,0.01416015625,0.978271484375,-0.244140625,-1.6174315214157104,-0.5798339247703552,0.7324218153953552,93.33334350585938,112667.0,1.0
12:05:18.100212,202638.0625,197422.15625,225301.21875,212430.546875,225029.140625,179084.6875,-705672.875,182147.59375,0.012451171875,0.978515625,-0.245849609375,-1.5869139432907104,-0.5187987685203552,0.7934569716453552,93.33334350585938,112668.0,1.0
12:05:18.104710,202618.484375,197402.75,225291.640625,212425.625,225004.03125,179064.578125,-705671.0625,182142.3125,0.013916015625,0.979736328125,-0.247314453125,-1.5869139432907104,-0.3662109076976776,0.7019042372703552,93.33334350585938,112669.0,1.0
12:05:18.104734,202598.8125,197389.515625,225273.765625,212418.46875,224965.21875,179049.90625,-705676.4375,182132.125,0.015380859375,0.98046875,-0.2470703125,-1.4953612089157104,-0.1831054538488388,0.6408690810203552,93.33334350585938,112670.0,1.0
12:05:18.107642,202613.5625,197405.78125,225279.578125,212421.6875,224984.359375,179065.015625,-705671.9375,182136.953125,0.01318359375,0.9794921875,-0.25,-1.4343260526657104,-0.0915527269244194,0.6713866591453552,93.33334350585938,112671.0,1.0
12:05:18.118205,202626.703125,197413.390625,225289.140625,212422.234375,225018.234375,179074.765625,-705671.8125,182142.671875,0.015380859375,0.981201171875,-0.2470703125,-1.4343260526657104,0.03051757626235485,0.6103515028953552,93.33334350585938,112672.0,1.0
12:05:18.118237,202610.890625,197396.578125,225283.328125,212415.609375,225003.21875,179057.6875,-705679.375,182133.90625,0.0146484375,0.981201171875,-0.2470703125,-1.4343260526657104,0.2746581733226776,0.5798339247703552,93.33334350585938,112673.0,1.0
12:05:18.120833,202596.3125,197388.53125,225272.609375,212415.34375,224965.84375,179045.34375,-705681.375,182129.4375,0.013671875,0.98193359375,-0.248779296875,-1.3122557401657104,0.4272460639476776,0.5798339247703552,93.33334350585938,112674.0,1.0
12:05:18.120854,202606.140625,197402.390625,225274.390625,212414.8125,224974.875,179059.828125,-705679.1875,182127.828125,0.01318359375,0.980224609375,-0.24755859375,-1.2817381620407104,0.6408690810203552,0.6408690810203552,93.33334350585938,112675.0,1.0
12:05:18.126452,202623.21875,197411.15625,225284.5,212416.421875,225012.25,179073.328125,-705673.3125,182135.34375,0.01220703125,0.980224609375,-0.246826171875,-1.2512205839157104,0.7629393935203552,0.5798339247703552,93.33334350585938,112676.0,1.0
12:05:18.132758,202613.484375,197401.3125,225282.625,212414.453125,225009.125,179065.015625,-705668.6875,182133.46875,0.010498046875,0.978759765625,-0.24658203125,-1.2512205839157104,0.9155272841453552,0.5187987685203552,93.33334350585938,112677.0,1.0
12:05:18.146331,202596.21875,197385.84375,225271.53125,212413.90625,224969.25,179044.28125,-705663.1875,182129.53125,0.011474609375,0.97998046875,-0.244140625,-1.1901854276657104,0.9460448622703552,0.7019042372703552,93.33334350585938,112678.0,1.0
12:05:18.146343,202605.875,197397.46875,225274.125,212418.65625,224972.828125,179055.453125,-705663.9375,182131.953125,0.012939453125,0.9814453125,-0.241943359375,-1.1291502714157104,1.0375975370407104,0.7324218153953552,93.33334350585938,112679.0,1.0
12:05:18.146347,202631.53125,197416.78125,225292.09375,212428.21875,225015.734375,179078.78125,-705665.4375,182145.359375,0.013671875,0.98046875,-0.2451171875,-1.0681151151657104,1.0681151151657104,0.7019042372703552,93.33334350585938,112680.0,1.0
12:05:18.148849,202628.140625,197411.875,225296.03125,212425.625,225024.765625,179075.390625,-705665.875,182144.28125,0.01123046875,0.98291015625,-0.24462890625,-1.0375975370407104,1.2512205839157104,0.6103515028953552,93.33334350585938,112681.0,1.0
12:05:18.151358,202608.296875,197394.078125,225283.515625,212424.46875,224985.703125,179056.53125,-705663.1875,182139.453125,0.0107421875,0.982421875,-0.242431640625,-1.0375975370407104,1.3122557401657104,0.6713866591453552,93.33334350585938,112682.0,1.0
12:05:18.155139,202609.453125,197400.25,225281.546875,212425.890625,224976.671875,179059.5625,-705666.0,182137.578125,0.0087890625,0.982177734375,-0.245849609375,-1.0375975370407104,1.3427733182907104,0.6103515028953552,93.33334350585938,112683.0,1.0
12:05:18.165790,202635.46875,197422.5,225299.609375,212435.109375,225017.796875,179085.21875,-705672.9375,182149.296875,0.00927734375,0.983642578125,-0.24560546875,-1.0070799589157104,1.4038084745407104,0.6103515028953552,93.33334350585938,112684.0,1.0
12:05:18.165825,202636.0,197421.078125,225304.171875,212430.8125,225034.78125,179087.015625,-705669.125,182146.78125,0.006103515625,0.98193359375,-0.24560546875,-0.9460448622703552,1.4648436307907104,0.6103515028953552,93.33334350585938,112685.0,1.0
12:05:18.168191,202614.015625,197398.8125,225289.234375,212423.21875,224995.4375,179059.5625,-705668.375,182138.390625,0.0068359375,0.9814453125,-0.243896484375,-0.8850097060203552,1.3732908964157104,0.6713866591453552,93.33334350585938,112686.0,1.0
12:05:18.168218,202609.28125,197398.71875,225280.921875,212420.34375,224973.09375,179055.09375,-705678.5,182130.609375,0.00537109375,0.981689453125,-0.24609375,-0.8239745497703552,1.5563963651657104,0.6103515028953552,93.33334350585938,112687.0,1.0
12:05:18.178945,202627.78125,197412.21875,225290.65625,212424.1875,225002.5,179072.625,-705681.5,182136.328125,0.005859375,0.982421875,-0.244873046875,-0.8239745497703552,1.4038084745407104,0.6408690810203552,93.33334350585938,112688.0,1.0
12:05:18.183177,202633.6875,197414.28125,225297.640625,212422.765625,225025.84375,179076.90625,-705682.0625,182139.453125,0.005615234375,0.97998046875,-0.245361328125,-0.7934569716453552,1.4343260526657104,0.7019042372703552,93.33334350585938,112689.0,1.0
12:05:18.183199,202616.25,197398.546875,225288.15625,212422.765625,224995.890625,179056.796875,-705680.75,182137.9375,0.006591796875,0.9794921875,-0.24853515625,-0.7629393935203552,1.4038084745407104,0.5798339247703552,93.33334350585938,112690.0,1.0
12:05:18.192660,202605.078125,197394.609375,225276.0,212420.625,224965.9375,179050.71875,-705673.6875,182132.390625,0.00634765625,0.979248046875,-0.24560546875,-0.6408690810203552,1.3427733182907104,0.7629393935203552,93.33334350585938,112691.0,1.0
12:05:18.195742,202621.171875,197406.953125,225282.265625,212422.859375,224991.515625,179063.3125,-705662.375,182137.3125,0.004638671875,0.98046875,-0.246337890625,-0.6103515028953552,1.3122557401657104,0.7324218153953552,93.33334350585938,112692.0,1.0
12:05:18.195764,202631.0,197413.5625,225291.015625,212419.1875,225021.375,179072.703125,-705666.0,182139.8125,0.00390625,0.980224609375,-0.2470703125,-0.6103515028953552,1.1901854276657104,0.7629393935203552,93.33334350585938,112693.0,1.0
12:05:18.197671,202614.546875,197399.078125,225285.390625,212417.40625,225000.359375,179057.0625,-705674.9375,182135.515625,0.005859375,0.98046875,-0.2470703125,-0.4882812201976776,1.1596678495407104,0.6713866591453552,93.33334350585938,112694.0,1.0
12:05:18.212646,202598.09375,197384.953125,225270.375,212412.296875,224961.734375,179037.84375,-705674.3125,182127.296875,0.00439453125,0.98095703125,-0.2451171875,-0.4882812201976776,1.0986326932907104,0.7629393935203552,93.33334350585938,112695.0,1.0
12:05:18.215801,202612.21875,197399.796875,225274.921875,212413.46875,224978.984375,179054.640625,-705669.125,182128.8125,0.005615234375,0.97998046875,-0.24365234375,-0.4272460639476776,1.1596678495407104,0.7934569716453552,93.33334350585938,112696.0,1.0
12:05:18.215832,202632.96875,197413.484375,225289.859375,212416.6875,225018.421875,179072.171875,-705665.6875,182138.03125,0.00634765625,0.982177734375,-0.244140625,-0.4577636420726776,1.1901854276657104,0.7324218153953552,93.33334350585938,112697.0,1.0
12:05:18.217743,202621.609375,197403.640625,225288.078125,212414.8125,225009.65625,179062.15625,-705669.125,182136.59375,0.006103515625,0.982666015625,-0.24365234375,-0.4882812201976776,1.1596678495407104,0.7934569716453552,93.33334350585938,112698.0,1.0
12:05:18.220122,202602.21875,197390.140625,225273.5,212412.921875,224969.25,179044.90625,-705678.25,182131.046875,0.005615234375,0.982177734375,-0.24609375,-0.5187987685203552,1.1291502714157104,0.7934569716453552,93.33334350585938,112699.0,1.0
12:05:18.231439,202612.84375,197403.375,225278.234375,212417.671875,224979.796875,179058.671875,-705685.625,182133.734375,0.005859375,0.98291015625,-0.24609375,-0.6103515028953552,0.9765624403953552,0.9765624403953552,93.33334350585938,112700.0,1.0
12:05:18.236379,202632.703125,197416.703125,225292.265625,212420.34375,225019.140625,179074.9375,-705680.875,182139.640625,0.004638671875,0.98291015625,-0.247802734375,-0.6103515028953552,0.9155272841453552,0.9460448622703552,93.33334350585938,112701.0,1.0
12:05:18.236420,202626.0,197409.28125,225293.171875,212419.1875,225020.203125,179068.6875,-705678.75,182139.71875,0.00390625,0.984375,-0.246337890625,-0.5187987685203552,0.8544921278953552,1.0070799589157104,93.33334350585938,112702.0,1.0
12:05:18.236433,202606.765625,197394.34375,225279.578125,212416.59375,224978.0,179049.28125,-705686.375,182134.09375,0.0048828125,0.982666015625,-0.245849609375,-0.6103515028953552,0.8544921278953552,1.0681151151657104,93.33334350585938,112703.0,1.0
12:05:18.240164,202613.65625,197402.484375,225280.828125,212419.1875,224976.484375,179055.546875,-705684.75,182133.46875,0.0048828125,0.982421875,-0.245849609375,-0.6103515028953552,0.8544921278953552,1.0681151151657104,93.33334350585938,112704.0,1.0
12:05:18.251379,202639.765625,197421.609375,225298.078125,212427.5,225018.421875,179078.4375,-705678.375,182145.984375,0.0048828125,0.983642578125,-0.246337890625,-0.6408690810203552,0.7324218153953552,1.0070799589157104,93.33334350585938,112705.0,1.0
12:05:18.254565,202638.953125,197418.75,225301.296875,212425.984375,225028.796875,179077.09375,-705675.4375,182145.984375,0.006591796875,0.984619140625,-0.24853515625,-0.7324218153953552,0.6713866591453552,1.0070799589157104,93.33334350585938,112706.0,1.0
12:05:18.254591,202617.671875,197400.25,225286.90625,212420.53125,224987.84375,179056.53125,-705684.5625,182138.109375,0.007080078125,0.98486328125,-0.24658203125,-0.7629393935203552,0.6713866591453552,1.0986326932907104,93.33334350585938,112707.0,1.0
12:05:18.256376,202616.875,197404.0,225283.328125,212421.6875,224975.6875,179056.796875,-705681.875,182134.1875,0.00830078125,0.982666015625,-0.24658203125,-0.7629393935203552,0.5798339247703552,1.0681151151657104,93.33334350585938,112708.0,1.0
12:05:18.262685,202639.3125,197419.734375,225295.140625,212427.234375,225010.734375,179074.9375,-705678.0625,182141.6875,0.008056640625,0.9814453125,-0.24658203125,-0.8850097060203552,0.6408690810203552,1.1291502714157104,93.33334350585938,112709.0,1.0
12:05:18.269530,202643.96875,197423.484375,225302.375,212426.609375,225031.46875,179080.671875,-705686.25,182146.078125,0.0087890625,0.982666015625,-0.24560546875,-0.7934569716453552,0.5798339247703552,1.0986326932907104,93.33334350585938,112710.0,1.0
12:05:18.269574,202622.15625,197401.765625,225290.484375,212425.0,224996.515625,179058.578125,-705686.875,182142.671875,0.009033203125,0.980224609375,-0.246337890625,-0.7629393935203552,0.5187987685203552,1.0070799589157104,93.33334350585938,112711.0,1.0
12:05:18.275805,202614.90625,197402.484375,225283.59375,212423.75,224975.0625,179057.0625,-705687.25,182137.84375,0.009521484375,0.97998046875,-0.24609375,-0.9460448622703552,0.4882812201976776,1.0375975370407104,93.33334350585938,112712.0,1.0
12:05:18.275862,202636.8125,197422.15625,225296.03125,212429.46875,225009.390625,179078.515625,-705678.75,182145.359375,0.00830078125,0.97998046875,-0.24658203125,-0.8850097060203552,0.4272460639476776,0.9460448622703552,93.33334350585938,112713.0,1.0
12:05:18.277717,202644.234375,197424.75,225303.890625,212429.5625,225035.578125,179083.609375,-705683.125,182150.09375,0.010009765625,0.98193359375,-0.2470703125,-0.9460448622703552,0.5493163466453552,0.9460448622703552,93.33334350585938,112714.0,1.0
12:05:18.284116,202623.3125,197404.8125,225292.90625,212423.75,225004.734375,179062.515625,-705688.25,182143.65625,0.0107421875,0.979736328125,-0.25,-0.8544921278953552,0.4577636420726776,1.0070799589157104,93.33334350585938,112715.0,1.0
12:05:18.293894,202610.890625,197397.921875,225281.546875,212423.125,224973.359375,179052.765625,-705681.4375,182139.71875,0.01123046875,0.98095703125,-0.249267578125,-0.9765624403953552,0.3967284858226776,0.9155272841453552,93.33334350585938,112716.0,1.0
12:05:18.297058,202625.546875,197412.671875,225286.90625,212424.46875,224995.265625,179070.296875,-705675.25,182141.25,0.010986328125,0.981689453125,-0.249755859375,-1.0070799589157104,0.3662109076976776,0.7934569716453552,93.33334350585938,112717.0,1.0
12:05:18.297072,202641.109375,197423.671875,225297.734375,212426.25,225029.78125,179081.203125,-705677.5,182146.515625,0.0107421875,0.98193359375,-0.249267578125,-1.0986326932907104,0.3967284858226776,0.9460448622703552,93.33334350585938,112718.0,1.0
12:05:18.298988,202628.3125,197408.203125,225293.4375,212428.21875,225013.328125,179063.765625,-705682.5,182145.8125,0.012451171875,0.981201171875,-0.247314453125,-1.0986326932907104,0.4272460639476776,0.8850097060203552,93.33334350585938,112719.0,1.0
12:05:18.341460,202612.671875,197397.296875,225281.546875,212425.453125,224977.296875,179053.03125,-705685.0,182140.265625,0.009765625,0.983154296875,-0.244873046875,-1.1596678495407104,0.3662109076976776,0.7629393935203552,93.33334350585938,112720.0,1.0
12:05:18.347858,202625.640625,197411.875,225286.28125,212425.359375,224992.40625,179066.8125,-705682.3125,182141.0625,0.011474609375,0.9853515625,-0.247314453125,-1.1901854276657104,0.3051757514476776,0.7629393935203552,93.33334350585938,112721.0,1.0
12:05:18.353987,202642.796875,197423.84375,225299.25,212426.875,225030.484375,179084.15625,-705683.4375,182148.046875,0.01220703125,0.98583984375,-0.24658203125,-1.2512205839157104,0.3662109076976776,0.6408690810203552,93.33334350585938,112722.0,1.0
12:05:18.357036,202632.4375,197412.859375,225297.90625,212423.84375,225022.890625,179072.34375,-705682.8125,182146.078125,0.011474609375,0.986083984375,-0.248779296875,-1.2817381620407104,0.4272460639476776,0.6713866591453552,93.33334350585938,112723.0,1.0
12:05:18.357080,202614.640625,197398.375,225284.578125,212421.15625,224982.390625,179054.375,-705675.625,182138.921875,0.009765625,0.98681640625,-0.25048828125,-1.3427733182907104,0.3356933295726776,0.7324218153953552,93.33334350585938,112724.0,1.0
12:05:18.358950,202623.140625,197409.1875,225286.46875,212423.390625,224987.3125,179064.921875,-705681.1875,182136.421875,0.008544921875,0.984130859375,-0.24755859375,-1.4648436307907104,0.3051757514476776,0.6408690810203552,93.33334350585938,112725.0,1.0
12:05:18.361452,202644.234375,197424.203125,225301.03125,212428.484375,225028.25,179082.546875,-705687.9375,182146.96875,0.00830078125,0.98388671875,-0.2451171875,-1.5869139432907104,0.3356933295726776,0.4272460639476776,93.33334350585938,112726.0,1.0
12:05:18.364105,202635.375,197413.125,225298.53125,212424.1875,225028.078125,179072.171875,-705695.0625,182145.8125,0.00927734375,0.984375,-0.249267578125,-1.6784666776657104,0.2136230319738388,0.4577636420726776,93.33334350585938,112727.0,1.0
12:05:18.366461,202612.578125,197393.265625,225283.0625,212422.140625,224983.90625,179049.015625,-705689.0625,182140.53125,0.009033203125,0.983642578125,-0.246337890625,-1.8005369901657104,0.2441406100988388,0.4577636420726776,93.33334350585938,112728.0,1.0
12:05:18.369015,202613.921875,197400.25,225279.9375,212423.390625,224978.09375,179055.625,-705695.0625,182138.203125,0.007568359375,0.984619140625,-0.249755859375,-1.8310545682907104,0.2136230319738388,0.3356933295726776,93.33334350585938,112729.0,1.0
12:05:18.371406,202635.203125,197415.53125,225292.90625,212426.421875,225015.921875,179075.125,-705696.1875,182145.265625,0.00732421875,0.984130859375,-0.247314453125,-1.9226073026657104,0.1831054538488388,0.2746581733226776,93.33334350585938,112730.0,1.0
12:05:18.373996,202634.84375,197412.671875,225297.015625,212424.46875,225028.796875,179074.765625,-705693.875,182146.703125,0.00732421875,0.9853515625,-0.24853515625,-2.044677495956421,0.03051757626235485,0.1831054538488388,93.33334350585938,112731.0,1.0
12:05:18.376426,202614.8125,197389.875,225284.40625,212425.359375,224990.53125,179047.140625,-705695.3125,182145.0,0.005859375,0.9853515625,-0.24609375,-2.105712652206421,0.0610351525247097,0.2441406100988388,93.33334350585938,112732.0,1.0
12:05:18.378854,202611.421875,197394.171875,225278.765625,212420.96875,224975.5,179051.15625,-705704.3125,182136.59375,0.006103515625,0.984375,-0.244140625,-2.197265386581421,0.0,0.2441406100988388,93.33334350585938,112733.0,1.0
12:05:18.381430,202636.640625,197413.828125,225294.0625,212430.1875,225013.59375,179072.265625,-705706.0,182146.703125,0.0087890625,0.9853515625,-0.244384765625,-2.258300542831421,-0.03051757626235485,0.1831054538488388,93.33334350585938,112734.0,1.0
12:05:18.383983,202640.828125,197415.4375,225301.21875,212427.234375,225035.671875,179078.4375,-705698.875,182149.828125,0.007080078125,0.987060546875,-0.24658203125,-2.258300542831421,-0.1220703050494194,0.0915527269244194,93.33334350585938,112735.0,1.0
12:05:18.387007,202617.40625,197395.15625,225288.34375,212421.515625,225001.25,179055.90625,-705696.125,182144.203125,0.00634765625,0.985595703125,-0.24658203125,-2.410888433456421,-0.1525878757238388,0.2136230319738388,93.33334350585938,112736.0,1.0
12:05:18.387024,202609.0,197393.8125,225278.421875,212420.4375,224977.734375,179051.421875,-705700.125,182138.46875,0.006591796875,0.987060546875,-0.244873046875,-2.532958745956421,-0.3051757514476776,0.1831054538488388,93.33334350585938,112737.0,1.0
12:05:18.388870,202630.015625,197411.78125,225289.859375,212427.953125,225008.671875,179071.546875,-705689.0625,182146.96875,0.005859375,0.98681640625,-0.2451171875,-2.593993902206421,-0.3356933295726776,0.0610351525247097,93.33334350585938,112738.0,1.0
12:05:18.392025,202637.171875,197414.109375,225297.90625,212425.265625,225034.0625,179077.984375,-705683.5625,182148.578125,0.005615234375,0.985107421875,-0.245849609375,-2.685546636581421,-0.3356933295726776,0.1220703050494194,93.33334350585938,112739.0,1.0
12:05:18.392045,202617.765625,197393.890625,225287.359375,212420.4375,225003.671875,179056.609375,-705693.4375,182142.40625,0.004150390625,0.986572265625,-0.244873046875,-2.868652105331421,-0.4577636420726776,0.03051757626235485,93.33334350585938,112740.0,1.0
12:05:18.393993,202604.453125,197387.453125,225275.109375,212418.921875,224970.59375,179047.5,-705695.9375,182136.78125,0.0048828125,0.987548828125,-0.24462890625,-2.990722417831421,-0.5187987685203552,0.0915527269244194,93.33334350585938,112741.0,1.0
12:05:18.397160,202618.9375,197401.5,225279.40625,212420.4375,224990.34375,179062.78125,-705693.0625,182138.03125,0.003662109375,0.986328125,-0.244873046875,-2.868652105331421,-0.5187987685203552,0.1831054538488388,93.33334350585938,112742.0,1.0
12:05:18.397171,202630.546875,197409.453125,225286.734375,212417.125,225020.921875,179072.625,-705690.5625,182140.625,0.00537109375,0.987060546875,-0.244140625,-2.990722417831421,-0.5798339247703552,0.1525878757238388,93.33334350585938,112743.0,1.0
12:05:18.398880,202616.96875,197397.390625,225282.171875,212413.640625,225004.65625,179059.203125,-705690.0,182136.78125,0.007568359375,0.98876953125,-0.2451171875,-3.051757574081421,-0.6713866591453552,0.2136230319738388,93.33334350585938,112744.0,1.0
12:05:18.415772,202606.328125,197390.5,225273.671875,212415.25,224969.25,179049.015625,-705699.25,182133.5625,0.007080078125,0.98681640625,-0.24365234375,-3.112792730331421,-0.7324218153953552,0.2441406100988388,93.33334350585938,112745.0,1.0
12:05:18.415781,202619.109375,197406.234375,225277.609375,212418.203125,224985.25,179069.3125,-705694.125,182134.984375,0.00634765625,0.986572265625,-0.240478515625,-3.173827886581421,-0.8239745497703552,0.2441406100988388,93.33334350585938,112746.0,1.0
12:05:18.422630,202638.0625,197418.03125,225291.640625,212422.859375,225023.609375,179084.515625,-705679.3125,182145.625,0.00537109375,0.985595703125,-0.240234375,-3.173827886581421,-0.8544921278953552,0.3356933295726776,93.33334350585938,112747.0,1.0
12:05:18.422651,202627.875,197407.125,225289.234375,212421.515625,225016.984375,179073.328125,-705672.0625,182144.203125,0.005615234375,0.983642578125,-0.240966796875,-3.143310308456421,-0.9460448622703552,0.3356933295726776,93.33334350585938,112748.0,1.0
12:05:18.422655,202606.140625,197390.40625,225272.0625,212412.578125,224974.4375,179055.0,-705672.4375,182130.515625,0.006591796875,0.982666015625,-0.242431640625,-3.234863042831421,-0.8850097060203552,0.3356933295726776,93.33334350585938,112749.0,1.0
12:05:18.425706,202609.28125,197397.109375,225269.75,212412.03125,224974.25,179060.734375,-705671.9375,182128.546875,0.007568359375,0.984375,-0.240966796875,-3.295898199081421,-0.8544921278953552,0.3967284858226776,93.33334350585938,112750.0,1.0
12:05:18.425714,202616.96875,197399.890625,225271.359375,212407.125,225001.078125,179066.265625,-705677.9375,182129.71875,0.006103515625,0.984375,-0.2392578125,-3.265380620956421,-0.8544921278953552,0.4577636420726776,93.33334350585938,112751.0,1.0
12:05:18.437745,202605.515625,197385.21875,225266.078125,212397.109375,224998.484375,179051.96875,-705687.8125,182123.1875,0.0068359375,0.985107421875,-0.23828125,-3.265380620956421,-0.9155272841453552,0.5493163466453552,93.33334350585938,112752.0,1.0
12:05:18.442617,202585.765625,197365.5625,225251.59375,212394.59375,224953.875,179027.46875,-705685.0,182114.6875,0.00634765625,0.984375,-0.242431640625,-3.265380620956421,-1.0681151151657104,0.6103515028953552,93.33334350585938,112753.0,1.0
12:05:18.442701,202590.234375,197372.625,225250.875,212396.65625,224946.265625,179032.390625,-705694.5625,182112.8125,0.0068359375,0.98193359375,-0.243408203125,-3.265380620956421,-1.1291502714157104,0.6103515028953552,93.33334350585938,112754.0,1.0
12:05:18.449511,202614.1875,197389.6875,225264.921875,212401.03125,224983.8125,179050.265625,-705702.5625,182121.390625,0.006591796875,0.9814453125,-0.239990234375,-3.234863042831421,-1.0375975370407104,0.6713866591453552,93.33334350585938,112755.0,1.0
12:05:18.449582,202626.0,197397.734375,225280.46875,212409.53125,225009.390625,179059.65625,-705706.5,182131.59375,0.0087890625,0.982666015625,-0.240478515625,-3.173827886581421,-1.0681151151657104,0.5187987685203552,93.33334350585938,112756.0,1.0
12:05:18.456019,202611.6875,197386.296875,225275.109375,212410.421875,224978.546875,179044.8125,-705704.75,182130.0625,0.0068359375,0.982421875,-0.2412109375,-3.051757574081421,-1.0681151151657104,0.6103515028953552,93.33334350585938,112757.0,1.0
12:05:18.456099,202611.328125,197391.03125,225272.0625,212412.484375,224965.9375,179050.09375,-705706.625,182129.0,0.0087890625,0.97998046875,-0.23876953125,-3.021239995956421,-1.1291502714157104,0.6713866591453552,93.33334350585938,112758.0,1.0
12:05:18.461500,202633.234375,197408.734375,225285.203125,212419.359375,225002.59375,179073.15625,-705697.6875,182140.171875,0.009521484375,0.981201171875,-0.23828125,-2.990722417831421,-1.0681151151657104,0.5798339247703552,93.33334350585938,112759.0,1.0
12:05:18.477396,202642.359375,197415.0,225295.9375,212422.40625,225029.953125,179080.9375,-705691.375,182147.953125,0.009765625,0.979736328125,-0.24267578125,-2.899169683456421,-1.1596678495407104,0.6408690810203552,93.33334350585938,112760.0,1.0
12:05:18.477481,202624.734375,197399.796875,225287.171875,212424.734375,225000.8125,179061.890625,-705692.5,182148.671875,0.009521484375,0.98046875,-0.24267578125,-2.777099370956421,-1.0986326932907104,0.7934569716453552,93.33334350585938,112761.0,1.0
12:05:18.480149,202612.578125,197393.546875,225273.671875,212418.828125,224969.78125,179054.203125,-705689.25,182140.265625,0.00927734375,0.98046875,-0.2421875,-2.746581792831421,-1.0681151151657104,0.7629393935203552,93.33334350585938,112762.0,1.0
12:05:18.480179,202624.734375,197405.875,225275.90625,212413.5625,224989.984375,179069.3125,-705681.5,182135.515625,0.01220703125,0.982177734375,-0.239501953125,-2.685546636581421,-1.0986326932907104,0.7934569716453552,93.33334350585938,112763.0,1.0
12:05:18.480188,202633.859375,197409.984375,225284.21875,212413.203125,225016.453125,179075.484375,-705675.625,182138.03125,0.01220703125,0.98291015625,-0.2392578125,-2.655029058456421,-0.9765624403953552,0.7019042372703552,93.33334350585938,112764.0,1.0
12:05:18.484017,202616.703125,197394.4375,225277.15625,212413.640625,224993.203125,179057.328125,-705683.25,182134.625,0.010986328125,0.982666015625,-0.237548828125,-2.624511480331421,-0.9765624403953552,0.6408690810203552,93.33334350585938,112765.0,1.0
12:05:18.491472,202607.484375,197389.421875,225267.0625,212413.90625,224962.09375,179048.125,-705690.1875,182131.5,0.01123046875,0.982177734375,-0.235595703125,-2.471923589706421,-0.9460448622703552,0.6713866591453552,93.33334350585938,112766.0,1.0
12:05:18.519500,202625.8125,197405.703125,225276.1875,212417.671875,224984.09375,179066.0,-705685.625,182137.484375,0.012939453125,0.979248046875,-0.24072265625,-2.380370855331421,-0.8850097060203552,0.6103515028953552,93.33334350585938,112767.0,1.0
12:05:18.519518,202639.046875,197412.21875,225288.078125,212419.71875,225019.5,179077.0,-705680.1875,182146.25,0.01220703125,0.977294921875,-0.23974609375,-2.288818120956421,-0.6408690810203552,0.5798339247703552,93.33334350585938,112768.0,1.0
12:05:18.522602,202622.0625,197395.859375,225280.03125,212414.71875,225002.5,179059.296875,-705690.5625,182141.609375,0.01318359375,0.97509765625,-0.23974609375,-2.227782964706421,-0.5187987685203552,0.6103515028953552,93.33334350585938,112769.0,1.0
12:05:18.522631,202604.0,197382.984375,225265.71875,212412.296875,224961.828125,179042.671875,-705689.0625,182133.734375,0.012939453125,0.974853515625,-0.2392578125,-2.075195074081421,-0.5493163466453552,0.6713866591453552,93.33334350585938,112770.0,1.0
12:05:18.522638,202619.375,197398.453125,225272.0625,212415.4375,224975.859375,179058.84375,-705683.4375,182134.984375,0.01318359375,0.97509765625,-0.239990234375,-1.8920897245407104,-0.4882812201976776,0.7019042372703552,93.33334350585938,112771.0,1.0
12:05:18.525764,202641.734375,197413.5625,225288.25,212418.921875,225015.828125,179077.71875,-705677.0,182142.046875,0.013427734375,0.9755859375,-0.240234375,-1.6784666776657104,-0.3356933295726776,0.7019042372703552,93.33334350585938,112772.0,1.0
12:05:18.525789,202635.296875,197408.828125,225289.40625,212419.546875,225013.6875,179073.515625,-705683.5625,182142.3125,0.013671875,0.9755859375,-0.242919921875,-1.4953612089157104,-0.2746581733226776,0.6713866591453552,93.33334350585938,112773.0,1.0
12:05:18.527731,202617.140625,197393.359375,225275.28125,212420.625,224973.265625,179051.515625,-705679.625,182140.984375,0.0166015625,0.973876953125,-0.242919921875,-1.3122557401657104,-0.2136230319738388,0.6713866591453552,93.33334350585938,112774.0,1.0
12:05:18.530241,202618.484375,197398.71875,225271.703125,212418.5625,224971.390625,179056.171875,-705684.8125,182137.3125,0.016845703125,0.9736328125,-0.244140625,-1.1596678495407104,0.0,0.6408690810203552,93.33334350585938,112775.0,1.0
12:05:18.532603,202635.5625,197411.78125,225282.171875,212419.359375,225007.421875,179073.953125,-705685.9375,182143.84375,0.01806640625,0.970458984375,-0.2421875,-1.0070799589157104,0.1525878757238388,0.5493163466453552,93.33334350585938,112776.0,1.0
12:05:18.535142,202630.640625,197407.75,225285.75,212418.203125,225014.84375,179071.90625,-705676.0,182144.203125,0.0166015625,0.97119140625,-0.24072265625,-0.7019042372703552,0.2746581733226776,0.6103515028953552,93.33334350585938,112777.0,1.0
12:05:18.542058,202611.328125,197390.859375,225273.765625,212416.6875,224974.96875,179051.875,-705678.5,182139.8125,0.013427734375,0.971923828125,-0.2431640625,-0.5798339247703552,0.3662109076976776,0.3967284858226776,93.33334350585938,112778.0,1.0
12:05:18.542085,202611.953125,197396.765625,225268.9375,212413.203125,224964.328125,179056.171875,-705688.3125,182133.734375,0.01318359375,0.971923828125,-0.2431640625,-0.3662109076976776,0.4577636420726776,0.3967284858226776,93.33334350585938,112779.0,1.0
12:05:18.544429,202631.0,197407.84375,225278.421875,212415.4375,224999.375,179072.078125,-705689.3125,182139.8125,0.011962890625,0.976806640625,-0.240966796875,-0.1831054538488388,0.6408690810203552,0.1831054538488388,93.33334350585938,112780.0,1.0
12:05:18.544447,202633.234375,197407.3125,225285.296875,212415.875,225018.234375,179072.890625,-705687.1875,182143.296875,0.0087890625,0.977294921875,-0.24267578125,-0.0915527269244194,0.7324218153953552,0.0610351525247097,93.33334350585938,112781.0,1.0
12:05:18.550200,202614.90625,197391.484375,225276.8125,212417.484375,224984.53125,179051.515625,-705691.75,182143.21875,0.00537109375,0.98046875,-0.240966796875,-0.0915527269244194,0.6713866591453552,-0.0915527269244194,93.33334350585938,112782.0,1.0
12:05:18.560259,202611.6875,197394.34375,225271.53125,212417.40625,224967.28125,179052.953125,-705692.0625,182140.078125,0.00390625,0.9814453125,-0.239501953125,-0.0915527269244194,0.5493163466453552,-0.2136230319738388,93.33334350585938,112783.0,1.0
12:05:18.563270,202634.484375,197412.5,225285.296875,212423.03125,225002.0625,179073.609375,-705687.0,182149.109375,0.00244140625,0.984375,-0.241943359375,-0.1220703050494194,0.5798339247703552,-0.2746581733226776,93.33334350585938,112784.0,1.0
12:05:18.563287,202643.96875,197417.40625,225295.671875,212425.71875,225029.5,179080.484375,-705682.25,182155.28125,0.002685546875,0.986083984375,-0.24365234375,-0.0915527269244194,0.4882812201976776,-0.5493163466453552,93.33334350585938,112785.0,1.0
12:05:18.565192,202627.78125,197402.84375,225289.328125,212429.5625,225002.421875,179064.921875,-705680.4375,182156.71875,0.002685546875,0.988037109375,-0.2421875,-0.0915527269244194,0.2746581733226776,-0.6408690810203552,93.33334350585938,112786.0,1.0
12:05:18.578326,202617.953125,197399.984375,225279.578125,212424.546875,224974.25,179059.296875,-705678.25,182146.96875,0.002685546875,0.98779296875,-0.240478515625,-0.1525878757238388,0.2136230319738388,-0.7019042372703552,93.33334350585938,112787.0,1.0
12:05:18.578360,202635.46875,197415.171875,225287.625,212425.09375,225000.09375,179074.765625,-705683.3125,182149.015625,0.003662109375,0.99072265625,-0.23974609375,-0.1831054538488388,0.1220703050494194,-0.7019042372703552,93.33334350585938,112788.0,1.0
12:05:18.580910,202650.21875,197426.796875,225302.28125,212428.84375,225034.6875,179092.375,-705686.0625,182156.984375,0.00537109375,0.990234375,-0.239501953125,-0.3967284858226776,0.0915527269244194,-0.5493163466453552,93.33334350585938,112789.0,1.0
12:05:18.580931,202629.484375,197405.703125,225289.765625,212422.40625,225008.140625,179068.421875,-705687.3125,182148.84375,0.005615234375,0.9912109375,-0.2412109375,-0.3967284858226776,0.1220703050494194,-0.6408690810203552,93.33334350585938,112790.0,1.0
12:05:18.590305,202618.125,197400.6875,225280.03125,212424.640625,224975.59375,179059.03125,-705691.4375,182147.328125,0.006591796875,0.991455078125,-0.2431640625,-0.6408690810203552,0.0915527269244194,-0.4882812201976776,93.33334350585938,112791.0,1.0
12:05:18.597138,202631.453125,197416.0625,225285.296875,212426.609375,224993.03125,179076.1875,-705688.9375,182150.09375,0.006591796875,0.990966796875,-0.243896484375,-0.7324218153953552,0.1831054538488388,-0.1831054538488388,93.33334350585938,112792.0,1.0
12:05:18.597164,202646.5625,197425.71875,225297.09375,212427.234375,225027.71875,179087.640625,-705684.3125,182155.640625,0.006591796875,0.989990234375,-0.242431640625,-0.7934569716453552,0.2136230319738388,-0.0610351525247097,93.33334350585938,112793.0,1.0
12:05:18.607187,202633.859375,197412.765625,225293.34375,212424.734375,225016.453125,179072.796875,-705686.0,182153.671875,0.005615234375,0.99169921875,-0.244384765625,-1.0375975370407104,0.2136230319738388,-0.0915527269244194,93.33334350585938,112794.0,1.0
12:05:18.607214,202616.515625,197401.046875,225279.40625,212419.8125,224976.3125,179057.78125,-705688.25,182146.703125,0.00634765625,0.993408203125,-0.242919921875,-1.1291502714157104,0.1525878757238388,0.0610351525247097,93.33334350585938,112795.0,1.0
12:05:18.609015,202626.265625,197410.96875,225282.890625,212420.4375,224986.5,179070.203125,-705690.3125,182147.328125,0.003662109375,0.99169921875,-0.239501953125,-1.3427733182907104,0.1831054538488388,0.1525878757238388,93.33334350585938,112796.0,1.0
12:05:18.612744,202641.546875,197417.234375,225292.625,212419.90625,225022.078125,179081.5625,-705688.5,182152.328125,0.001953125,0.991943359375,-0.238525390625,-1.4648436307907104,0.2136230319738388,0.2746581733226776,93.33334350585938,112797.0,1.0
12:05:18.628961,202630.46875,197405.515625,225284.859375,212414.09375,225012.609375,179068.140625,-705689.5,182144.90625,0.000244140625,0.9912109375,-0.238525390625,-1.4648436307907104,0.1831054538488388,0.4882812201976776,93.33334350585938,112798.0,1.0
12:05:18.628993,202612.21875,197392.109375,225271.0,212412.484375,224971.75,179053.671875,-705686.375,182139.546875,0.000244140625,0.9912109375,-0.239013671875,-1.6479490995407104,0.1525878757238388,0.6103515028953552,93.33334350585938,112799.0,1.0
12:05:18.629001,202616.78125,197400.609375,225271.4375,212414.1875,224973.71875,179060.734375,-705686.25,182141.515625,0.000244140625,0.991943359375,-0.24169921875,-1.7395018339157104,0.1525878757238388,0.7324218153953552,93.33334350585938,112800.0,1.0
12:05:18.631421,202642.625,197420.09375,225288.96875,212423.84375,225015.5625,179081.828125,-705688.125,182154.828125,-0.002685546875,0.98974609375,-0.239501953125,-1.9531248807907104,0.03051757626235485,0.8239745497703552,93.33334350585938,112801.0,1.0
12:05:18.637662,202637.703125,197412.9375,225289.953125,212418.109375,225021.375,179075.484375,-705689.9375,182148.3125,-0.00341796875,0.989990234375,-0.23974609375,-2.044677495956421,-0.03051757626235485,0.9155272841453552,93.33334350585938,112802.0,1.0
12:05:18.640103,202617.59375,197394.171875,225277.15625,212416.59375,224980.15625,179051.421875,-705687.1875,182142.671875,-0.002197265625,0.98779296875,-0.241943359375,-2.075195074081421,-0.1831054538488388,0.9460448622703552,93.33334350585938,112803.0,1.0
12:05:18.642662,202620.453125,197402.296875,225275.46875,212416.859375,224971.03125,179057.421875,-705683.125,182139.453125,-0.000732421875,0.986572265625,-0.244140625,-2.136230230331421,-0.3051757514476776,0.9460448622703552,93.33334350585938,112804.0,1.0
12:05:18.645118,202640.828125,197418.390625,225285.828125,212419.8125,225005.546875,179074.3125,-705685.9375,182144.734375,-0.001220703125,0.9873046875,-0.244873046875,-2.319335699081421,-0.4577636420726776,0.9765624403953552,93.33334350585938,112805.0,1.0
12:05:18.652061,202646.109375,197421.171875,225294.515625,212420.078125,225026.375,179077.890625,-705687.6875,182148.390625,0.00048828125,0.986083984375,-0.24267578125,-2.380370855331421,-0.5493163466453552,1.1291502714157104,93.33334350585938,112806.0,1.0
12:05:18.652090,202624.296875,197399.625,225281.8125,212417.84375,224989.90625,179052.859375,-705688.75,182143.5625,0.001708984375,0.986328125,-0.241455078125,-2.471923589706421,-0.6103515028953552,1.1291502714157104,93.33334350585938,112807.0,1.0
12:05:18.658910,202618.65625,197399.34375,225274.578125,212416.78125,224969.0625,179052.0625,-705696.75,182139.09375,0.002685546875,0.986328125,-0.242431640625,-2.593993902206421,-0.7934569716453552,1.1291502714157104,93.33334350585938,112808.0,1.0
12:05:18.665208,202641.46875,197417.59375,225288.25,212423.125,225004.65625,179075.390625,-705694.875,182147.859375,0.0029296875,0.984619140625,-0.242919921875,-2.563476324081421,-0.7629393935203552,1.0681151151657104,93.33334350585938,112809.0,1.0
12:05:18.665238,202654.6875,197424.03125,225301.296875,212428.125,225033.625,179083.34375,-705685.9375,182156.359375,0.004638671875,0.982421875,-0.2431640625,-2.593993902206421,-0.7934569716453552,1.1901854276657104,93.33334350585938,112810.0,1.0
12:05:18.703989,202633.59375,197404.625,225289.765625,212424.546875,225001.515625,179059.921875,-705682.8125,182151.4375,0.0068359375,0.9833984375,-0.242919921875,-2.563476324081421,-0.7324218153953552,1.1901854276657104,93.33334350585938,112811.0,1.0
12:05:18.718344,202619.015625,197395.421875,225275.46875,212417.84375,224969.78125,179049.1875,-705680.875,182142.859375,0.00830078125,0.98193359375,-0.23876953125,-2.563476324081421,-0.6713866591453552,1.0986326932907104,93.33334350585938,112812.0,1.0
12:05:18.718399,202638.515625,197414.453125,225285.5625,212423.03125,224997.765625,179070.296875,-705677.0,182150.453125,0.01025390625,0.980712890625,-0.240478515625,-2.655029058456421,-0.5187987685203552,1.2817381620407104,93.33334350585938,112813.0,1.0
12:05:18.720231,202654.609375,197429.03125,225299.421875,212423.84375,225033.171875,179086.921875,-705676.25,182155.453125,0.010986328125,0.98095703125,-0.241455078125,-2.624511480331421,-0.4577636420726776,1.2512205839157104,93.33334350585938,112814.0,1.0
12:05:18.722673,202637.171875,197412.3125,225291.640625,212419.015625,225010.8125,179068.140625,-705680.875,182147.59375,0.01318359375,0.982421875,-0.244384765625,-2.593993902206421,-0.4272460639476776,1.3732908964157104,93.33334350585938,112815.0,1.0
12:05:18.725205,202619.28125,197399.0,225277.078125,212416.59375,224972.546875,179052.765625,-705686.8125,182141.421875,0.013427734375,0.9814453125,-0.242919921875,-2.685546636581421,-0.3356933295726776,1.3732908964157104,93.33334350585938,112816.0,1.0
12:05:18.727662,202633.6875,197413.65625,225282.703125,212419.546875,224989.1875,179069.125,-705689.75,182145.265625,0.01513671875,0.979736328125,-0.24267578125,-2.593993902206421,-0.3051757514476776,1.2512205839157104,93.33334350585938,112817.0,1.0
12:05:18.730137,202649.0625,197421.25,225292.546875,212420.078125,225023.34375,179080.578125,-705689.3125,182152.328125,0.0146484375,0.98046875,-0.241943359375,-2.502441167831421,-0.1220703050494194,1.2817381620407104,93.33334350585938,112818.0,1.0
12:05:18.732667,202635.828125,197407.21875,225288.078125,212416.953125,225012.15625,179065.28125,-705693.875,182147.953125,0.01416015625,0.97998046875,-0.23876953125,-2.532958745956421,-0.03051757626235485,1.4038084745407104,93.33334350585938,112819.0,1.0
12:05:18.736507,202618.84375,197394.171875,225276.1875,212418.109375,224973.09375,179049.640625,-705693.0625,182143.84375,0.01416015625,0.978759765625,-0.23974609375,-2.502441167831421,0.03051757626235485,1.4343260526657104,93.33334350585938,112820.0,1.0
12:05:18.736552,202627.875,197405.78125,225279.3125,212421.15625,224981.765625,179061.078125,-705686.6875,182145.265625,0.011474609375,0.980712890625,-0.240234375,-2.502441167831421,0.2136230319738388,1.3122557401657104,93.33334350585938,112821.0,1.0
12:05:18.736569,202646.921875,197418.390625,225291.734375,212424.1875,225020.296875,179076.90625,-705682.625,182153.40625,0.0107421875,0.98046875,-0.24072265625,-2.532958745956421,0.3051757514476776,1.3122557401657104,93.33334350585938,112822.0,1.0
12:05:18.739497,202639.578125,197412.578125,225291.640625,212421.875,225020.75,179070.65625,-705683.125,182151.796875,0.010498046875,0.980224609375,-0.24169921875,-2.441406011581421,0.4577636420726776,1.0986326932907104,93.33334350585938,112823.0,1.0
12:05:18.739532,202620.453125,197395.328125,225277.34375,212420.171875,224977.5625,179049.90625,-705691.125,182146.875,0.01123046875,0.9794921875,-0.240234375,-2.441406011581421,0.4577636420726776,1.0375975370407104,93.33334350585938,112824.0,1.0
12:05:18.742003,202623.140625,197402.65625,225274.75,212418.65625,224973.09375,179056.25,-705691.625,182144.015625,0.011474609375,0.97998046875,-0.240966796875,-2.441406011581421,0.6103515028953552,1.0070799589157104,93.33334350585938,112825.0,1.0
12:05:18.742016,202645.03125,197419.203125,225289.40625,212423.21875,225012.34375,179074.578125,-705683.6875,182151.96875,0.009765625,0.97998046875,-0.239501953125,-2.319335699081421,0.6103515028953552,1.0375975370407104,93.33334350585938,112826.0,1.0
12:05:18.743902,202643.875,197417.046875,225294.78125,212421.515625,225022.796875,179072.890625,-705681.4375,182152.953125,0.0087890625,0.97998046875,-0.2373046875,-2.227782964706421,0.6103515028953552,0.8850097060203552,93.33334350585938,112827.0,1.0
12:05:18.746395,202621.53125,197396.484375,225279.046875,212416.78125,224980.328125,179048.84375,-705688.125,182141.78125,0.0107421875,0.980712890625,-0.240966796875,-2.136230230331421,0.6713866591453552,0.8850097060203552,93.33334350585938,112828.0,1.0
12:05:18.749443,202618.65625,197396.9375,225271.703125,212413.5625,224965.3125,179048.390625,-705687.5,182135.96875,0.00830078125,0.98193359375,-0.23828125,-2.044677495956421,0.7629393935203552,0.8239745497703552,93.33334350585938,112829.0,1.0
12:05:18.749470,202636.71875,197409.1875,225279.484375,212414.890625,224997.59375,179062.34375,-705682.6875,182142.5,0.009521484375,0.98193359375,-0.240234375,-2.105712652206421,0.7629393935203552,0.7324218153953552,93.33334350585938,112830.0,1.0
12:05:18.751460,202639.5,197411.78125,225285.296875,212413.46875,225016.8125,179066.359375,-705688.125,182144.28125,0.0087890625,0.97802734375,-0.2412109375,-2.075195074081421,0.7629393935203552,0.7019042372703552,93.33334350585938,112831.0,1.0
12:05:18.754515,202621.53125,197396.21875,225275.203125,212411.765625,224983.1875,179047.5,-705696.375,182139.453125,0.007568359375,0.9775390625,-0.24169921875,-1.9226073026657104,0.7324218153953552,0.7019042372703552,93.33334350585938,112832.0,1.0
12:05:18.754559,202614.1875,197394.875,225266.703125,212409.4375,224959.5,179045.171875,-705704.25,182132.65625,0.01025390625,0.978759765625,-0.24365234375,-1.8005369901657104,0.7629393935203552,0.6408690810203552,93.33334350585938,112833.0,1.0
12:05:18.760255,202636.90625,197413.484375,225278.421875,212416.5,224991.234375,179063.859375,-705704.3125,182140.890625,0.01123046875,0.97900390625,-0.2392578125,-1.7089842557907104,0.9155272841453552,0.5187987685203552,93.33334350585938,112834.0,1.0
12:05:18.767713,202648.875,197421.4375,225289.5,212418.921875,225019.765625,179072.4375,-705701.3125,182148.046875,0.00732421875,0.979736328125,-0.240234375,-1.5258787870407104,0.9155272841453552,0.4882812201976776,93.33334350585938,112835.0,1.0
12:05:18.767765,202629.84375,197402.21875,225279.75,212415.875,224991.59375,179051.78125,-705700.125,182144.734375,0.008056640625,0.981201171875,-0.23974609375,-1.4648436307907104,0.8544921278953552,0.4577636420726776,93.33334350585938,112836.0,1.0
12:05:18.777813,202616.421875,197393.71875,225269.5625,212415.078125,224962.625,179042.484375,-705698.625,182140.171875,0.008544921875,0.980224609375,-0.23828125,-1.2817381620407104,0.9460448622703552,0.4882812201976776,93.33334350585938,112837.0,1.0
12:05:18.788836,202635.109375,197409.640625,225281.90625,212424.1875,224993.125,179063.5,-705704.5,182149.5625,0.008544921875,0.980712890625,-0.23828125,-1.2207030057907104,0.9765624403953552,0.4272460639476776,93.33334350585938,112838.0,1.0
12:05:18.788864,202649.6875,197422.0625,225292.90625,212424.109375,225025.578125,179077.09375,-705703.8125,182154.125,0.008544921875,0.9814453125,-0.239501953125,-1.1291502714157104,1.0375975370407104,0.5187987685203552,93.33334350585938,112839.0,1.0
12:05:18.788868,202642.890625,197418.75,225290.65625,212424.8125,225008.140625,179067.796875,-705700.3125,182151.703125,0.006591796875,0.98193359375,-0.239013671875,-1.0986326932907104,0.9460448622703552,0.4272460639476776,93.33334350585938,112840.0,1.0
12:05:18.792024,202629.5625,197407.21875,225280.65625,212421.0625,224973.53125,179056.078125,-705704.4375,182143.125,0.006103515625,0.98193359375,-0.2392578125,-0.9155272841453552,0.8850097060203552,0.3967284858226776,93.33334350585938,112841.0,1.0
12:05:18.792064,202646.203125,197422.59375,225291.46875,212429.296875,224993.46875,179074.140625,-705699.75,182151.34375,0.006591796875,0.98095703125,-0.237548828125,-0.8544921278953552,0.9155272841453552,0.3967284858226776,93.33334350585938,112842.0,1.0
12:05:18.793927,202665.421875,197437.078125,225306.40625,212433.578125,225034.0625,179091.65625,-705701.125,182162.53125,0.005615234375,0.97998046875,-0.242431640625,-0.8850097060203552,0.9155272841453552,0.3356933295726776,93.33334350585938,112843.0,1.0
12:05:18.800160,202653.4375,197425.8125,225301.65625,212428.578125,225024.046875,179079.5,-705705.9375,182158.59375,0.00439453125,0.983154296875,-0.24267578125,-0.7324218153953552,0.7934569716453552,0.2746581733226776,93.33334350585938,112844.0,1.0
12:05:18.810743,202636.8125,197414.90625,225289.59375,212427.328125,224985.34375,179065.5625,-705708.5625,182154.484375,0.004150390625,0.97998046875,-0.23876953125,-0.6713866591453552,0.7629393935203552,0.3356933295726776,93.33334350585938,112845.0,1.0
12:05:18.810756,202645.578125,197425.015625,225292.1875,212430.09375,224993.03125,179074.859375,-705699.0625,182156.625,0.003662109375,0.978271484375,-0.24072265625,-0.5798339247703552,0.6408690810203552,0.3051757514476776,93.33334350585938,112846.0,1.0
12:05:18.813397,202666.9375,197440.484375,225305.234375,212432.6875,225031.203125,179094.078125,-705693.625,182162.171875,0.0029296875,0.977783203125,-0.242919921875,-0.4882812201976776,0.6713866591453552,0.2746581733226776,93.33334350585938,112847.0,1.0
12:05:18.813406,202659.4375,197432.796875,225305.953125,212430.625,225033.265625,179089.421875,-705698.3125,182160.921875,0.0009765625,0.977294921875,-0.241943359375,-0.4577636420726776,0.5798339247703552,0.1831054538488388,93.33334350585938,112848.0,1.0
12:05:18.822648,202635.375,197409.359375,225287.984375,212423.296875,224986.40625,179061.171875,-705696.5625,182151.96875,0.00146484375,0.980224609375,-0.240478515625,-0.3356933295726776,0.4577636420726776,0.2441406100988388,93.33334350585938,112849.0,1.0
12:05:18.829465,202636.71875,197415.171875,225282.625,212421.609375,224979.171875,179067.34375,-705694.125,182148.21875,0.001220703125,0.980224609375,-0.2421875,-0.2441406100988388,0.3051757514476776,0.2441406100988388,93.33334350585938,112850.0,1.0
12:05:18.829476,202655.9375,197427.609375,225292.546875,212424.375,225015.828125,179084.78125,-705691.4375,182156.265625,0.000244140625,0.979736328125,-0.2421875,-0.2136230319738388,0.0915527269244194,0.2136230319738388,93.33334350585938,112851.0,1.0
12:05:18.839586,202651.296875,197420.546875,225293.796875,212421.78125,225025.484375,179079.953125,-705685.75,182155.640625,0.001953125,0.982421875,-0.240234375,-0.2441406100988388,0.0915527269244194,0.1220703050494194,93.33334350585938,112852.0,1.0
12:05:18.839614,202628.765625,197401.59375,225279.75,212420.0,224985.34375,179055.90625,-705686.5625,182150.546875,0.00439453125,0.9833984375,-0.242431640625,-0.03051757626235485,0.0,0.1220703050494194,93.33334350585938,112853.0,1.0
12:05:18.842133,202626.0,197404.0,225273.5,212417.9375,224969.328125,179057.0625,-705687.6875,182144.640625,0.0048828125,0.981201171875,-0.24169921875,-0.0610351525247097,-0.1831054538488388,0.2136230319738388,93.33334350585938,112854.0,1.0
12:05:18.842154,202645.84375,197417.859375,225284.40625,212421.515625,225002.140625,179074.3125,-705689.6875,182150.546875,0.0029296875,0.983642578125,-0.241455078125,-0.0915527269244194,-0.1220703050494194,0.2136230319738388,93.33334350585938,112855.0,1.0
12:05:18.851434,202648.609375,197418.21875,225289.953125,212418.296875,225022.890625,179076.828125,-705699.3125,182151.4375,0.004638671875,0.982177734375,-0.242431640625,-0.1525878757238388,-0.2136230319738388,0.2746581733226776,93.33334350585938,112856.0,1.0
12:05:18.855700,202630.375,197401.671875,225280.46875,212415.171875,224989.8125,179056.609375,-705699.125,182145.359375,0.004150390625,0.98046875,-0.24560546875,-0.1525878757238388,-0.2441406100988388,0.3051757514476776,93.33334350585938,112857.0,1.0
12:05:18.855708,202624.46875,197401.046875,225273.671875,212413.375,224965.84375,179052.953125,-705698.0,182138.46875,0.003662109375,0.981201171875,-0.2431640625,-0.1525878757238388,-0.3051757514476776,0.3662109076976776,93.33334350585938,112858.0,1.0
12:05:18.865220,202644.59375,197417.328125,225284.21875,212420.171875,224994.734375,179070.5625,-705693.9375,182146.15625,0.004150390625,0.9814453125,-0.244384765625,-0.1220703050494194,-0.3051757514476776,0.2746581733226776,93.33334350585938,112859.0,1.0
12:05:18.868439,202654.515625,197424.296875,225293.34375,212417.671875,225022.625,179079.40625,-705688.4375,182149.375,0.00537109375,0.980712890625,-0.24560546875,-0.1525878757238388,-0.4272460639476776,0.2746581733226776,93.33334350585938,112860.0,1.0
12:05:18.868490,202633.59375,197403.734375,225280.203125,212411.671875,224993.03125,179056.796875,-705693.125,182141.78125,0.003662109375,0.982177734375,-0.2470703125,-0.0915527269244194,-0.4577636420726776,0.4272460639476776,93.33334350585938,112861.0,1.0
12:05:18.870341,202616.875,197395.421875,225264.5625,212405.59375,224957.4375,179048.03125,-705695.5,182131.59375,0.00390625,0.9833984375,-0.247314453125,-0.1831054538488388,-0.4577636420726776,0.4577636420726776,93.33334350585938,112862.0,1.0
12:05:18.879753,202630.28125,197408.921875,225269.65625,212408.90625,224978.640625,179065.640625,-705692.375,182133.90625,0.00244140625,0.98486328125,-0.24365234375,-0.1831054538488388,-0.4577636420726776,0.4882812201976776,93.33334350585938,112863.0,1.0
12:05:18.879764,202644.765625,197418.578125,225281.984375,212413.28125,225014.390625,179076.640625,-705681.1875,182145.171875,0.00390625,0.982177734375,-0.24365234375,-0.2746581733226776,-0.4882812201976776,0.5187987685203552,93.33334350585938,112864.0,1.0
12:05:18.883886,202629.03125,197403.546875,225275.203125,212410.515625,224998.125,179060.640625,-705687.0,182142.859375,0.0048828125,0.986083984375,-0.244873046875,-0.3967284858226776,-0.5493163466453552,0.5493163466453552,93.33334350585938,112865.0,1.0
12:05:18.890229,202610.171875,197390.328125,225258.296875,212404.796875,224957.09375,179045.171875,-705687.4375,182133.90625,0.005615234375,0.98583984375,-0.2451171875,-0.4882812201976776,-0.4577636420726776,0.4882812201976776,93.33334350585938,112866.0,1.0
12:05:18.897091,202621.4375,197403.734375,225261.515625,212407.5625,224969.0625,179059.75,-705691.4375,182135.4375,0.0048828125,0.986572265625,-0.24365234375,-0.5187987685203552,-0.5187987685203552,0.5493163466453552,93.33334350585938,112867.0,1.0
12:05:18.897165,202638.78125,197415.625,225274.390625,212408.734375,225006.625,179072.265625,-705695.6875,182141.78125,0.00732421875,0.984619140625,-0.244873046875,-0.5187987685203552,-0.5493163466453552,0.4882812201976776,93.33334350585938,112868.0,1.0
12:05:18.899087,202624.921875,197403.375,225270.015625,212404.875,224998.75,179061.359375,-705694.3125,182138.296875,0.00732421875,0.98583984375,-0.2451171875,-0.5798339247703552,-0.4882812201976776,0.6408690810203552,93.33334350585938,112869.0,1.0
12:05:18.910777,202602.5625,197385.046875,225252.671875,212399.875,224956.453125,179040.875,-705692.1875,182130.609375,0.00732421875,0.9873046875,-0.24755859375,-0.7019042372703552,-0.4882812201976776,0.5798339247703552,93.33334350585938,112870.0,1.0
12:05:18.910965,202608.5625,197394.796875,225252.671875,212400.859375,224958.96875,179051.703125,-705690.625,182130.609375,0.007568359375,0.98828125,-0.2470703125,-0.7324218153953552,-0.4882812201976776,0.5798339247703552,93.33334350585938,112871.0,1.0
12:05:18.913193,202631.71875,197410.34375,225268.3125,212407.75,225000.09375,179071.640625,-705695.1875,182143.390625,0.0087890625,0.98828125,-0.24560546875,-0.8239745497703552,-0.2746581733226776,0.6713866591453552,93.33334350585938,112872.0,1.0
12:05:18.913206,202628.046875,197406.328125,225272.0625,212409.0,225007.59375,179067.875,-705689.9375,182147.234375,0.00927734375,0.98583984375,-0.2451171875,-1.0070799589157104,-0.3051757514476776,0.7934569716453552,93.33334350585938,112873.0,1.0
12:05:18.922698,202604.265625,197387.453125,225254.546875,212399.96875,224963.4375,179046.0625,-705686.625,182134.0,0.009765625,0.98681640625,-0.24658203125,-1.0375975370407104,-0.2746581733226776,0.6713866591453552,93.33334350585938,112874.0,1.0
12:05:18.925338,202605.515625,197392.5625,225250.609375,212397.28125,224954.765625,179051.609375,-705684.5,182128.640625,0.00927734375,0.987548828125,-0.244873046875,-1.1596678495407104,-0.2441406100988388,0.6103515028953552,93.33334350585938,112875.0,1.0
12:05:18.929016,202630.546875,197410.703125,225266.34375,212405.78125,224994.734375,179073.0625,-705684.8125,182139.375,0.010498046875,0.989013671875,-0.247314453125,-1.2207030057907104,-0.2441406100988388,0.6713866591453552,93.33334350585938,112876.0,1.0
12:05:18.939625,202633.5,197412.9375,225274.578125,212405.421875,225011.984375,179076.734375,-705689.5,182141.15625,0.0107421875,0.989501953125,-0.246826171875,-1.3122557401657104,-0.03051757626235485,0.7019042372703552,93.33334350585938,112877.0,1.0
12:05:18.939699,202612.84375,197393.0,225261.703125,212400.5,224972.90625,179049.375,-705695.75,182134.546875,0.01025390625,0.989013671875,-0.248046875,-1.5258787870407104,0.03051757626235485,0.7629393935203552,93.33334350585938,112878.0,1.0
12:05:18.942363,202608.65625,197394.796875,225254.71875,212399.34375,224955.125,179046.59375,-705686.8125,182129.71875,0.01025390625,0.989501953125,-0.246337890625,-1.6174315214157104,0.0915527269244194,0.7629393935203552,93.33334350585938,112879.0,1.0
12:05:18.942449,202631.359375,197414.28125,225268.84375,212405.15625,224990.875,179069.046875,-705680.125,182137.484375,0.00830078125,0.98779296875,-0.243408203125,-1.6784666776657104,0.1525878757238388,0.7019042372703552,93.33334350585938,112880.0,1.0
12:05:18.950198,202639.5,197420.09375,225280.921875,212409.171875,225017.96875,179077.359375,-705681.8125,182144.46875,0.0107421875,0.98681640625,-0.249267578125,-1.8005369901657104,0.1525878757238388,0.7629393935203552,93.33334350585938,112881.0,1.0
12:05:18.957143,202619.828125,197399.625,225272.328125,212407.46875,224986.5,179053.84375,-705680.4375,182141.15625,0.010986328125,0.984619140625,-0.246337890625,-1.8615721464157104,0.2441406100988388,0.7324218153953552,93.33334350585938,112882.0,1.0
12:05:18.957405,202613.484375,197398.1875,225264.109375,212407.203125,224960.578125,179049.375,-705685.9375,182135.875,0.0107421875,0.983642578125,-0.247314453125,-1.8920897245407104,0.2136230319738388,0.7629393935203552,93.33334350585938,112883.0,1.0
12:05:18.963315,202637.078125,197416.703125,225275.109375,212412.296875,224989.984375,179069.75,-705686.625,182142.859375,0.00927734375,0.985107421875,-0.246826171875,-1.9531248807907104,0.3051757514476776,0.7019042372703552,93.33334350585938,112884.0,1.0
12:05:18.963387,202649.0625,197423.765625,225287.09375,212414.09375,225021.8125,179081.46875,-705683.25,182149.109375,0.0087890625,0.985107421875,-0.24560546875,-1.9531248807907104,0.3356933295726776,0.7019042372703552,93.33334350585938,112885.0,1.0
12:05:18.965206,202629.390625,197406.0625,225276.984375,212410.78125,224995.4375,179063.671875,-705683.125,182143.5625,0.008056640625,0.986083984375,-0.2451171875,-2.014159917831421,0.3356933295726776,0.7324218153953552,93.33334350585938,112886.0,1.0
12:05:18.995744,202616.25,197398.09375,225262.953125,212407.65625,224959.953125,179053.21875,-705687.0,182136.15625,0.010498046875,0.983642578125,-0.2451171875,-2.105712652206421,0.4272460639476776,0.7019042372703552,93.33334350585938,112887.0,1.0
12:05:18.995756,202632.25,197412.21875,225268.765625,212409.53125,224980.0625,179068.6875,-705687.4375,182138.734375,0.00927734375,0.982666015625,-0.242919921875,-2.227782964706421,0.4882812201976776,0.6713866591453552,93.33334350585938,112888.0,1.0
12:05:18.995757,202646.375,197421.703125,225280.734375,212408.015625,225015.828125,179083.078125,-705684.75,182144.46875,0.010009765625,0.98095703125,-0.242919921875,-2.349853277206421,0.5187987685203552,0.6408690810203552,93.33334350585938,112889.0,1.0
12:05:18.995759,202631.453125,197405.34375,225275.28125,212403.984375,225001.4375,179066.8125,-705684.375,182140.890625,0.008544921875,0.98193359375,-0.245849609375,-2.258300542831421,0.5493163466453552,0.5798339247703552,93.33334350585938,112890.0,1.0
12:05:19.000310,202611.234375,197391.390625,225259.015625,212398.71875,224958.78125,179047.578125,-705681.625,182131.765625,0.00927734375,0.982177734375,-0.243408203125,-2.288818120956421,0.5187987685203552,0.6408690810203552,93.33334350585938,112891.0,1.0
12:05:19.002682,202621.96875,197405.078125,225261.703125,212398.984375,224968.359375,179061.890625,-705681.1875,182128.90625,0.00732421875,0.982177734375,-0.243408203125,-2.319335699081421,0.5187987685203552,0.7019042372703552,93.33334350585938,112892.0,1.0
12:05:19.005775,202644.140625,197421.796875,225279.3125,212406.671875,225010.8125,179081.65625,-705688.9375,182142.59375,0.00732421875,0.98193359375,-0.24169921875,-2.319335699081421,0.6103515028953552,0.7629393935203552,93.33334350585938,112893.0,1.0
12:05:19.005782,202635.203125,197410.4375,225278.234375,212403.984375,225007.78125,179071.546875,-705686.625,182141.609375,0.0048828125,0.98291015625,-0.240966796875,-2.410888433456421,0.6408690810203552,0.6713866591453552,93.33334350585938,112894.0,1.0
12:05:19.007746,202614.453125,197392.5625,225262.5,212400.046875,224964.953125,179051.25,-705680.0,182134.1875,0.0068359375,0.983154296875,-0.24169921875,-2.410888433456421,0.5798339247703552,0.7324218153953552,93.33334350585938,112895.0,1.0
12:05:19.010357,202619.109375,197402.65625,225260.796875,212400.046875,224965.484375,179061.890625,-705684.9375,182131.046875,0.0048828125,0.98193359375,-0.2412109375,-2.410888433456421,0.5187987685203552,0.7019042372703552,93.33334350585938,112896.0,1.0
12:05:19.012681,202639.046875,197413.828125,225272.15625,212405.234375,225001.96875,179074.046875,-705683.6875,182139.71875,0.004638671875,0.98046875,-0.241455078125,-2.349853277206421,0.5187987685203552,0.7934569716453552,93.33334350585938,112897.0,1.0
12:05:19.020197,202633.421875,197407.75,225272.25,212402.921875,225006.4375,179069.40625,-705681.375,182139.375,0.00390625,0.982177734375,-0.24267578125,-2.380370855331421,0.5493163466453552,0.7934569716453552,93.33334350585938,112898.0,1.0
12:05:19.024582,202610.4375,197388.625,225256.0625,212396.484375,224962.453125,179047.40625,-705684.5625,182130.609375,0.005859375,0.981689453125,-0.2431640625,-2.349853277206421,0.4882812201976776,0.8544921278953552,93.33334350585938,112899.0,1.0
12:05:19.024604,202615.796875,197400.15625,225257.21875,212398.265625,224958.0625,179057.6875,-705678.3125,182131.5,0.00537109375,0.982666015625,-0.241943359375,-2.288818120956421,0.4272460639476776,0.8850097060203552,93.33334350585938,112900.0,1.0
12:05:19.030226,202639.9375,197419.203125,225272.609375,212404.4375,224998.390625,179079.140625,-705681.8125,182142.046875,0.00390625,0.98193359375,-0.2392578125,-2.349853277206421,0.3967284858226776,0.8544921278953552,93.33334350585938,112901.0,1.0
12:05:19.062456,202643.875,197421.25,225281.09375,212404.96875,225016.0,179082.0,-705684.0625,182145.09375,0.00439453125,0.97998046875,-0.23779296875,-2.349853277206421,0.4272460639476776,0.8544921278953552,93.33334350585938,112902.0,1.0
12:05:19.062480,202621.078125,197400.25,225267.421875,212401.484375,224976.84375,179058.21875,-705690.5625,182138.65625,0.005126953125,0.9814453125,-0.2392578125,-2.380370855331421,0.4577636420726776,0.8544921278953552,93.33334350585938,112903.0,1.0
12:05:19.082042,202616.25,197401.40625,225260.984375,212400.5,224958.875,179058.140625,-705685.5625,182133.015625,0.003662109375,0.981201171875,-0.241943359375,-2.258300542831421,0.2441406100988388,0.8850097060203552,93.33334350585938,112904.0,1.0
12:05:19.082061,202635.734375,197416.78125,225270.640625,212403.8125,224990.609375,179077.171875,-705680.5625,182138.46875,0.005126953125,0.98095703125,-0.240966796875,-2.258300542831421,0.2136230319738388,0.8544921278953552,93.33334350585938,112905.0,1.0
12:05:19.083955,202646.5625,197421.609375,225282.4375,212408.375,225018.515625,179082.625,-705675.1875,182147.40625,0.006103515625,0.982177734375,-0.2421875,-2.258300542831421,0.2136230319738388,0.9460448622703552,93.33334350585938,112906.0,1.0
12:05:19.090676,202634.21875,197409.359375,225278.140625,212409.625,224994.1875,179067.515625,-705680.25,182146.609375,0.008056640625,0.984375,-0.239990234375,-2.258300542831421,0.1831054538488388,0.9765624403953552,93.33334350585938,112907.0,1.0
12:05:19.097044,202628.765625,197411.59375,225273.234375,212411.40625,224971.390625,179066.890625,-705686.8125,182145.984375,0.006591796875,0.984130859375,-0.23974609375,-2.288818120956421,0.1831054538488388,1.0681151151657104,93.33334350585938,112908.0,1.0
12:05:19.098871,202646.203125,197429.484375,225283.59375,212413.640625,225001.875,179088.53125,-705678.5,182152.59375,0.006591796875,0.983642578125,-0.24072265625,-2.319335699081421,0.2136230319738388,1.0986326932907104,93.33334350585938,112909.0,1.0
12:05:19.101509,202654.609375,197435.296875,225290.484375,212412.484375,225030.484375,179099.078125,-705670.4375,182155.90625,0.006103515625,0.98388671875,-0.239501953125,-2.166747808456421,0.1831054538488388,1.1291502714157104,93.33334350585938,112910.0,1.0
12:05:19.103905,202632.703125,197414.109375,225273.5,212404.171875,224996.875,179078.609375,-705672.9375,182145.09375,0.00390625,0.98583984375,-0.240478515625,-2.105712652206421,0.1831054538488388,1.0986326932907104,93.33334350585938,112911.0,1.0
12:05:19.106355,202610.171875,197398.09375,225252.21875,212395.859375,224953.421875,179058.3125,-705677.9375,182132.21875,0.005615234375,0.9833984375,-0.24267578125,-2.166747808456421,0.1220703050494194,1.2512205839157104,93.33334350585938,112912.0,1.0
12:05:19.108858,202611.953125,197399.796875,225247.75,212389.421875,224962.8125,179059.921875,-705681.6875,182126.140625,0.0068359375,0.984375,-0.24560546875,-2.197265386581421,0.1220703050494194,1.3122557401657104,93.33334350585938,112913.0,1.0
12:05:19.111675,202622.859375,197400.6875,225255.796875,212387.265625,224995.0,179065.375,-705680.375,182129.53125,0.0078125,0.983642578125,-0.2421875,-2.105712652206421,0.2136230319738388,1.3427733182907104,93.33334350585938,112914.0,1.0
12:05:19.114014,202608.46875,197383.078125,225249.171875,212384.140625,224977.921875,179045.171875,-705689.875,182124.171875,0.007568359375,0.983642578125,-0.2412109375,-2.014159917831421,0.1220703050494194,1.2512205839157104,93.33334350585938,112915.0,1.0
12:05:19.116553,202588.890625,197367.875,225232.109375,212379.671875,224933.125,179026.65625,-705704.25,182114.78125,0.007080078125,0.982177734375,-0.24267578125,-2.075195074081421,0.1525878757238388,1.3122557401657104,93.33334350585938,112916.0,1.0
12:05:19.119116,202597.65625,197378.4375,225233.890625,212379.84375,224941.625,179036.3125,-705707.125,182113.4375,0.00634765625,0.98193359375,-0.242919921875,-2.075195074081421,0.0915527269244194,1.1291502714157104,93.33334350585938,112917.0,1.0
12:05:19.121655,202623.046875,197397.65625,225254.28125,212390.21875,224986.953125,179059.828125,-705697.5625,182128.375,0.00830078125,0.982421875,-0.240234375,-2.014159917831421,0.1220703050494194,1.2207030057907104,93.33334350585938,112918.0,1.0
12:05:19.124591,202624.296875,197398.8125,225263.65625,212398.265625,224994.546875,179060.375,-705694.6875,182137.125,0.009033203125,0.98193359375,-0.240234375,-1.9836424589157104,0.1831054538488388,1.1901854276657104,93.33334350585938,112919.0,1.0
12:05:19.124598,202612.765625,197390.234375,225257.84375,212402.109375,224960.125,179046.515625,-705694.5625,182137.40625,0.00927734375,0.980712890625,-0.241455078125,-1.9531248807907104,0.2441406100988388,1.1901854276657104,93.33334350585938,112920.0,1.0
12:05:19.126444,202622.15625,197402.21875,225261.78125,212405.234375,224963.078125,179057.15625,-705695.1875,182137.765625,0.01123046875,0.98291015625,-0.2431640625,-1.9226073026657104,0.2746581733226776,1.2512205839157104,93.33334350585938,112921.0,1.0
12:05:19.129534,202644.046875,197418.390625,225275.640625,212410.6875,225002.859375,179076.90625,-705688.75,182147.859375,0.01318359375,0.9833984375,-0.245361328125,-1.8005369901657104,0.3051757514476776,1.1596678495407104,93.33334350585938,112922.0,1.0
12:05:19.129544,202642.4375,197415.53125,225277.703125,212412.921875,225011.625,179074.859375,-705690.1875,182152.328125,0.01318359375,0.98388671875,-0.242431640625,-1.7700194120407104,0.4272460639476776,1.3732908964157104,93.33334350585938,112923.0,1.0
12:05:19.131423,202618.390625,197394.171875,225259.546875,212407.390625,224968.0,179050.796875,-705689.125,182144.28125,0.01611328125,0.983154296875,-0.2412109375,-1.6784666776657104,0.4272460639476776,1.2817381620407104,93.33334350585938,112924.0,1.0
12:05:19.159458,202614.734375,197395.953125,225252.671875,212400.765625,224955.203125,179053.671875,-705688.25,182136.15625,0.01416015625,0.9833984375,-0.240234375,-1.7089842557907104,0.4577636420726776,1.3732908964157104,93.33334350585938,112925.0,1.0
12:05:19.159469,202635.5625,197410.890625,225265.453125,212404.796875,224991.59375,179071.546875,-705685.1875,182144.90625,0.01416015625,0.9833984375,-0.23974609375,-1.7700194120407104,0.5493163466453552,1.3427733182907104,93.33334350585938,112926.0,1.0
12:05:19.162001,202637.703125,197411.328125,225270.90625,212403.8125,225009.921875,179073.515625,-705688.5,182146.96875,0.01318359375,0.980712890625,-0.241455078125,-1.6479490995407104,0.6408690810203552,1.3732908964157104,93.33334350585938,112927.0,1.0
12:05:19.162011,202618.03125,197393.265625,225260.09375,212403.1875,224974.15625,179053.84375,-705690.375,182142.765625,0.010498046875,0.980224609375,-0.2421875,-1.6784666776657104,0.6713866591453552,1.3122557401657104,93.33334350585938,112928.0,1.0
12:05:19.163838,202609.90625,197391.578125,225252.125,212400.40625,224953.234375,179052.765625,-705684.9375,182136.421875,0.0107421875,0.9794921875,-0.241943359375,-1.5869139432907104,0.8544921278953552,1.2207030057907104,93.33334350585938,112929.0,1.0
12:05:19.166385,202629.921875,197405.875,225263.3125,212404.875,224985.34375,179068.859375,-705678.75,182144.640625,0.0126953125,0.979248046875,-0.242431640625,-1.4648436307907104,0.8544921278953552,1.2207030057907104,93.33334350585938,112930.0,1.0
12:05:19.168866,202637.703125,197409.90625,225272.421875,212401.390625,225011.53125,179076.640625,-705681.25,182147.40625,0.01318359375,0.976318359375,-0.23876953125,-1.4343260526657104,0.8544921278953552,1.1901854276657104,93.33334350585938,112931.0,1.0
12:05:19.171340,202619.828125,197390.140625,225262.59375,212399.78125,224981.859375,179055.1875,-705687.3125,182142.40625,0.013427734375,0.975341796875,-0.241455078125,-1.3122557401657104,0.8544921278953552,1.1596678495407104,93.33334350585938,112932.0,1.0
12:05:19.173855,202614.90625,197390.859375,225257.5,212402.828125,224956.546875,179053.390625,-705690.75,182140.703125,0.01416015625,0.974853515625,-0.2451171875,-1.2207030057907104,1.0375975370407104,1.0986326932907104,93.33334350585938,112933.0,1.0
12:05:19.176355,202636.28125,197409.90625,225269.65625,212409.625,224984.71875,179070.390625,-705691.4375,182147.953125,0.0146484375,0.97705078125,-0.244384765625,-1.1291502714157104,1.0375975370407104,1.0986326932907104,93.33334350585938,112934.0,1.0
12:05:19.178834,202648.53125,197416.609375,225278.859375,212408.734375,225016.453125,179080.21875,-705682.8125,182151.890625,0.0146484375,0.977783203125,-0.244384765625,-0.9460448622703552,1.1291502714157104,1.1291502714157104,93.33334350585938,112935.0,1.0
12:05:19.182122,202628.046875,197395.0625,225268.3125,212402.203125,224990.609375,179057.0625,-705686.5625,182144.015625,0.01708984375,0.97900390625,-0.24853515625,-0.8544921278953552,1.2207030057907104,1.2207030057907104,93.33334350585938,112936.0,1.0
12:05:19.182136,202610.796875,197381.921875,225252.9375,212397.1875,224950.734375,179039.71875,-705692.375,182134.890625,0.01611328125,0.978515625,-0.2451171875,-0.8239745497703552,1.3732908964157104,1.0986326932907104,93.33334350585938,112937.0,1.0
12:05:19.183863,202626.53125,197397.03125,225258.921875,212402.203125,224968.796875,179057.953125,-705687.8125,182138.03125,0.018798828125,0.97607421875,-0.243896484375,-0.6103515028953552,1.4038084745407104,1.0681151151657104,93.33334350585938,112938.0,1.0
12:05:19.187018,202642.796875,197408.921875,225270.1875,212404.96875,225005.984375,179074.046875,-705682.8125,182146.703125,0.01708984375,0.97705078125,-0.244873046875,-0.4882812201976776,1.4038084745407104,0.9765624403953552,93.33334350585938,112939.0,1.0
12:05:19.187031,202630.015625,197398.546875,225268.3125,212405.515625,224997.59375,179064.84375,-705687.4375,182147.140625,0.017333984375,0.978271484375,-0.244873046875,-0.3967284858226776,1.5563963651657104,0.9460448622703552,93.33334350585938,112940.0,1.0
12:05:19.188858,202612.671875,197384.0625,225255.796875,212401.578125,224960.03125,179049.1875,-705692.625,182138.46875,0.0146484375,0.977294921875,-0.244384765625,-0.2746581733226776,1.6784666776657104,0.7629393935203552,93.33334350585938,112941.0,1.0
12:05:19.196447,202622.5,197394.171875,225257.765625,212400.953125,224966.296875,179060.09375,-705687.6875,182135.875,0.01171875,0.977783203125,-0.243408203125,-0.1831054538488388,1.7089842557907104,0.6408690810203552,93.33334350585938,112942.0,1.0
12:05:19.199593,202643.078125,197409.359375,225273.046875,212404.34375,225005.640625,179079.6875,-705684.375,182144.28125,0.00830078125,0.980224609375,-0.242919921875,-0.2441406100988388,1.6174315214157104,0.5493163466453552,93.33334350585938,112943.0,1.0
12:05:19.199606,202639.21875,197407.21875,225277.796875,212405.6875,225009.125,179076.375,-705682.5,182146.78125,0.005859375,0.980712890625,-0.24267578125,-0.1831054538488388,1.6174315214157104,0.3051757514476776,93.33334350585938,112944.0,1.0
12:05:19.207680,202620.890625,197393.0,225265.453125,212404.796875,224969.25,179056.609375,-705685.1875,182142.5,0.00439453125,0.982666015625,-0.2421875,-0.3662109076976776,1.4953612089157104,0.1220703050494194,93.33334350585938,112945.0,1.0
12:05:19.212055,202625.546875,197403.109375,225264.203125,212404.875,224966.5625,179066.53125,-705687.25,182140.171875,0.0029296875,0.98583984375,-0.244873046875,-0.4577636420726776,1.3427733182907104,-0.1220703050494194,93.33334350585938,112946.0,1.0
12:05:19.212066,202648.171875,197419.5625,225278.234375,212410.515625,225005.640625,179082.90625,-705682.6875,182150.984375,0.00146484375,0.986328125,-0.24267578125,-0.5187987685203552,1.1901854276657104,-0.2441406100988388,93.33334350585938,112947.0,1.0
12:05:19.217642,202645.3125,197414.453125,225279.046875,212407.828125,225014.125,179078.25,-705682.0625,182151.4375,0.003662109375,0.988525390625,-0.241943359375,-0.4882812201976776,1.0986326932907104,-0.2746581733226776,93.33334350585938,112948.0,1.0
12:05:19.224449,202623.3125,197394.34375,225263.75,212403.09375,224970.3125,179052.5,-705686.375,182144.203125,0.0029296875,0.98876953125,-0.241943359375,-0.6408690810203552,0.8850097060203552,-0.3051757514476776,93.33334350585938,112949.0,1.0
12:05:19.224456,202623.84375,197400.6875,225260.359375,212402.015625,224957.890625,179057.59375,-705687.625,182141.515625,0.001953125,0.989990234375,-0.245849609375,-0.8239745497703552,0.7934569716453552,-0.3662109076976776,93.33334350585938,112950.0,1.0
12:05:19.226392,202645.9375,197417.671875,225272.875,212407.125,224993.296875,179077.359375,-705680.125,182150.546875,0.00537109375,0.9912109375,-0.243896484375,-1.0070799589157104,0.6103515028953552,-0.3967284858226776,93.33334350585938,112951.0,1.0
12:05:19.232691,202647.71875,197416.25,225275.734375,212403.984375,225009.390625,179076.46875,-705681.375,182151.34375,0.007080078125,0.991943359375,-0.24462890625,-1.1291502714157104,0.5187987685203552,-0.1831054538488388,93.33334350585938,112952.0,1.0
12:05:19.240757,202626.890625,197395.5,225262.234375,212401.84375,224971.03125,179053.671875,-705686.6875,182145.890625,0.0078125,0.994140625,-0.242431640625,-1.3122557401657104,0.4882812201976776,-0.0915527269244194,93.33334350585938,112953.0,1.0
12:05:19.240766,202618.125,197395.953125,225251.59375,212400.40625,224948.5,179054.46875,-705690.375,182141.15625,0.006591796875,0.9931640625,-0.2421875,-1.5869139432907104,0.3662109076976776,-0.03051757626235485,93.33334350585938,112954.0,1.0
12:05:19.242720,202634.9375,197410.34375,225258.03125,212403.984375,224978.28125,179074.140625,-705685.3125,182148.9375,0.005615234375,0.9921875,-0.2431640625,-1.7089842557907104,0.3662109076976776,0.1831054538488388,93.33334350585938,112955.0,1.0
12:05:19.248883,202642.625,197417.671875,225268.3125,212404.796875,225008.765625,179085.578125,-705687.0,182155.109375,0.005615234375,0.99365234375,-0.24072265625,-1.8005369901657104,0.3356933295726776,0.1525878757238388,93.33334350585938,112956.0,1.0
12:05:19.254545,202626.265625,197403.828125,225262.328125,212403.359375,224985.609375,179072.265625,-705689.9375,182152.421875,0.00537109375,0.990966796875,-0.24267578125,-1.9531248807907104,0.3662109076976776,0.3051757514476776,93.33334350585938,112957.0,1.0
12:05:19.254705,202612.84375,197396.484375,225251.0625,212398.625,224953.6875,179063.40625,-705692.5,182143.125,0.00439453125,0.990966796875,-0.24267578125,-2.075195074081421,0.2746581733226776,0.5493163466453552,93.33334350585938,112958.0,1.0
12:05:19.260168,202631.53125,197412.671875,225263.484375,212403.90625,224982.75,179083.796875,-705688.0625,182150.453125,0.004150390625,0.990966796875,-0.241455078125,-2.288818120956421,0.1525878757238388,0.7019042372703552,93.33334350585938,112959.0,1.0
12:05:19.268262,202647.625,197425.453125,225278.859375,212409.625,225022.265625,179099.53125,-705683.5,182161.0,0.002197265625,0.991455078125,-0.239990234375,-2.502441167831421,0.0610351525247097,0.7934569716453552,93.33334350585938,112960.0,1.0
12:05:19.268281,202629.390625,197404.71875,225265.625,212401.390625,224995.796875,179072.34375,-705685.1875,182150.453125,0.0009765625,0.9921875,-0.24169921875,-2.593993902206421,-0.0610351525247097,0.8544921278953552,93.33334350585938,112961.0,1.0
12:05:19.270164,202613.03125,197393.09375,225249.984375,212397.546875,224955.125,179057.15625,-705690.125,182141.328125,0.00244140625,0.989501953125,-0.24169921875,-2.685546636581421,-0.0915527269244194,1.0070799589157104,93.33334350585938,112962.0,1.0
12:05:19.282096,202624.109375,197405.34375,225254.984375,212399.078125,224969.515625,179070.390625,-705685.0,182142.765625,0.003662109375,0.990234375,-0.24072265625,-2.777099370956421,-0.2441406100988388,1.0375975370407104,93.33334350585938,112963.0,1.0
12:05:19.282118,202642.359375,197418.65625,225269.828125,212402.640625,225007.0625,179086.5625,-705683.125,182150.28125,0.00244140625,0.989990234375,-0.238525390625,-3.051757574081421,-0.3356933295726776,1.0070799589157104,93.33334350585938,112964.0,1.0
12:05:19.289603,202635.203125,197410.609375,225271.703125,212404.53125,225002.421875,179078.4375,-705690.5625,182152.515625,-0.000244140625,0.98974609375,-0.2392578125,-3.173827886581421,-0.4272460639476776,1.1901854276657104,93.33334350585938,112965.0,1.0
12:05:19.289621,202618.578125,197395.59375,225259.109375,212402.46875,224961.640625,179058.84375,-705688.75,182145.8125,0.00048828125,0.990478515625,-0.24072265625,-3.234863042831421,-0.6713866591453552,1.2512205839157104,93.33334350585938,112966.0,1.0
12:05:19.291986,202629.03125,197406.421875,225259.8125,212403.359375,224965.3125,179068.59375,-705688.75,182143.21875,0.001708984375,0.987548828125,-0.236083984375,-3.295898199081421,-0.8239745497703552,1.1901854276657104,93.33334350585938,112967.0,1.0
12:05:19.291996,202651.65625,197420.8125,225274.21875,212409.625,225005.71875,179085.9375,-705686.625,182154.5625,0.00048828125,0.9853515625,-0.237060546875,-3.417968511581421,-0.9460448622703552,1.1901854276657104,93.33334350585938,112968.0,1.0
12:05:19.305146,202643.875,197410.4375,225273.046875,212406.9375,225008.234375,179075.296875,-705692.5,182154.296875,0.002197265625,0.983642578125,-0.239990234375,-3.479003667831421,-1.0681151151657104,1.3122557401657104,93.33334350585938,112969.0,1.0
12:05:19.311537,202622.421875,197390.140625,225258.03125,212404.703125,224966.109375,179052.0625,-705700.5625,182148.390625,0.006591796875,0.981689453125,-0.240478515625,-3.570556402206421,-1.1291502714157104,1.2512205839157104,93.33334350585938,112970.0,1.0
12:05:19.311610,202619.921875,197393.0,225250.4375,212402.296875,224957.4375,179054.734375,-705695.8125,182142.671875,0.00927734375,0.98291015625,-0.24072265625,-3.509521245956421,-1.2512205839157104,1.2817381620407104,93.33334350585938,112971.0,1.0
12:05:19.311636,202637.796875,197404.265625,225259.1875,212401.125,224992.140625,179072.0,-705690.125,182148.21875,0.011474609375,0.982666015625,-0.239990234375,-3.570556402206421,-1.2817381620407104,1.2207030057907104,93.33334350585938,112972.0,1.0
12:05:19.313971,202634.578125,197400.6875,225261.15625,212396.484375,225004.203125,179072.890625,-705694.5625,182146.515625,0.012939453125,0.982177734375,-0.240478515625,-3.570556402206421,-1.2207030057907104,1.2207030057907104,93.33334350585938,112973.0,1.0
12:05:19.320233,202611.0625,197380.75,225246.046875,212393.890625,224964.78125,179048.203125,-705698.0,182140.265625,0.01513671875,0.98193359375,-0.23876953125,-3.570556402206421,-1.2207030057907104,1.3122557401657104,93.33334350585938,112974.0,1.0
12:05:19.327112,202607.3125,197384.15625,225238.359375,212391.03125,224947.078125,179050.796875,-705696.8125,182133.203125,0.0146484375,0.981201171875,-0.240966796875,-3.570556402206421,-1.1596678495407104,1.4038084745407104,93.33334350585938,112975.0,1.0
12:05:19.327131,202624.734375,197397.03125,225247.125,212392.453125,224978.359375,179067.609375,-705695.5,182138.828125,0.0185546875,0.979248046875,-0.23828125,-3.570556402206421,-1.0375975370407104,1.3732908964157104,93.33334350585938,112976.0,1.0
12:05:19.342054,202626.34375,197396.40625,225251.859375,212389.5,224998.125,179070.65625,-705683.6875,182140.703125,0.016357421875,0.980224609375,-0.240234375,-3.417968511581421,-0.9155272841453552,1.4648436307907104,93.33334350585938,112977.0,1.0
12:05:19.342069,202600.15625,197372.4375,225234.875,212384.140625,224958.609375,179045.796875,-705683.6875,182132.390625,0.01806640625,0.97802734375,-0.2392578125,-3.295898199081421,-0.7324218153953552,1.4038084745407104,93.33334350585938,112978.0,1.0
12:05:19.344501,202591.125,197368.59375,225224.140625,212383.6875,224932.59375,179041.234375,-705692.0625,182127.75,0.01953125,0.977783203125,-0.24072265625,-3.265380620956421,-0.6408690810203552,1.4953612089157104,93.33334350585938,112979.0,1.0
12:05:19.344513,202609.1875,197383.171875,225231.46875,212387.890625,224959.859375,179058.046875,-705688.5,182134.453125,0.02099609375,0.978759765625,-0.241455078125,-3.173827886581421,-0.4577636420726776,1.4953612089157104,93.33334350585938,112980.0,1.0
12:05:19.350170,202617.859375,197388.71875,225240.59375,212384.859375,224986.234375,179067.25,-705686.875,182135.34375,0.022216796875,0.9775390625,-0.24072265625,-3.051757574081421,-0.3356933295726776,1.5563963651657104,93.33334350585938,112981.0,1.0
12:05:19.357070,202598.28125,197367.25,225231.03125,212380.390625,224957.625,179040.515625,-705688.4375,182129.71875,0.01904296875,0.978515625,-0.237548828125,-3.021239995956421,-0.1525878757238388,1.4953612089157104,93.33334350585938,112982.0,1.0
12:05:19.357103,202591.578125,197366.71875,225225.84375,212382.078125,224930.4375,179035.0625,-705686.6875,182127.203125,0.017822265625,0.977783203125,-0.2373046875,-2.960204839706421,0.0,1.4038084745407104,93.33334350585938,112983.0,1.0
12:05:19.363204,202610.796875,197385.3125,225237.28125,212385.296875,224955.75,179055.625,-705685.8125,182132.296875,0.019775390625,0.977783203125,-0.23876953125,-2.777099370956421,0.0610351525247097,1.2817381620407104,93.33334350585938,112984.0,1.0
12:05:19.363229,202625.546875,197397.734375,225251.140625,212384.59375,224992.84375,179068.59375,-705684.9375,182138.203125,0.01904296875,0.979248046875,-0.2392578125,-2.685546636581421,0.1525878757238388,1.1901854276657104,93.33334350585938,112985.0,1.0
12:05:19.370237,202614.640625,197388.71875,225249.8125,212385.75,224980.6875,179058.046875,-705683.3125,182137.9375,0.017822265625,0.977783203125,-0.23974609375,-2.624511480331421,0.3051757514476776,1.1291502714157104,93.33334350585938,112986.0,1.0
12:05:19.374525,202596.578125,197376.109375,225236.03125,212383.78125,224942.0625,179042.578125,-705684.8125,182131.328125,0.017578125,0.9765625,-0.23828125,-2.532958745956421,0.3967284858226776,1.0986326932907104,93.33334350585938,112987.0,1.0
12:05:19.374557,202608.015625,197388.625,225238.453125,212384.3125,224955.296875,179054.375,-705689.25,182131.234375,0.017333984375,0.9765625,-0.24169921875,-2.441406011581421,0.4882812201976776,0.9155272841453552,93.33334350585938,112988.0,1.0
12:05:19.381386,202626.171875,197400.25,225250.96875,212389.140625,224993.03125,179070.109375,-705686.875,182139.71875,0.015869140625,0.978271484375,-0.239013671875,-2.319335699081421,0.5798339247703552,0.9155272841453552,93.33334350585938,112989.0,1.0
12:05:19.392013,202615.625,197389.6875,225247.484375,212385.21875,224984.890625,179057.859375,-705681.625,182136.421875,0.01806640625,0.980224609375,-0.23876953125,-2.166747808456421,0.7019042372703552,0.7934569716453552,93.33334350585938,112990.0,1.0
12:05:19.392022,202593.0,197370.109375,225229.421875,212376.71875,224938.578125,179034.265625,-705684.0625,182124.703125,0.01708984375,0.982666015625,-0.2392578125,-1.9836424589157104,0.7934569716453552,0.6408690810203552,93.33334350585938,112991.0,1.0
12:05:19.394497,202601.9375,197382.984375,225233.078125,212379.484375,224944.484375,179047.765625,-705681.4375,182125.234375,0.0166015625,0.9833984375,-0.23828125,-1.9836424589157104,0.8239745497703552,0.6713866591453552,93.33334350585938,112992.0,1.0
12:05:19.394513,202622.234375,197397.734375,225247.296875,212384.59375,224985.34375,179067.703125,-705680.875,182135.875,0.01708984375,0.981201171875,-0.23876953125,-1.9531248807907104,0.8544921278953552,0.6103515028953552,93.33334350585938,112993.0,1.0
12:05:19.420265,202609.625,197384.953125,225242.390625,212376.71875,224985.421875,179056.171875,-705687.9375,182131.765625,0.016357421875,0.98046875,-0.237548828125,-1.9226073026657104,0.9765624403953552,0.6713866591453552,93.33334350585938,112994.0,1.0
12:05:19.446422,202582.546875,197361.265625,225223.515625,212370.375,224941.34375,179030.59375,-705689.25,182123.546875,0.014404296875,0.981201171875,-0.239013671875,-1.8920897245407104,1.0986326932907104,0.7019042372703552,93.33334350585938,112995.0,1.0
