Timestamp,Fz,FC3,FCz,FC4,Cz,C3,C4
12:00:37.367768,201702.953125,197219.46875,235240.140625,219274.921875,230821.828125,176399.265625,-705705.0625,182962.265625,-0.04150390625,0.958984375,-0.28369140625,-1.8310545682907104,0.03051757626235485,0.9460448622703552,93.33334350585938,42426.0,1.0
12:00:37.367832,201711.625,197213.65625,235238.984375,219273.3125,230839.53125,176391.484375,-705702.25,182961.203125,-0.04248046875,0.953857421875,-0.2822265625,-1.4953612089157104,-0.1220703050494194,1.0375975370407104,93.33334350585938,42427.0,1.0
12:00:37.369151,201722.359375,197227.59375,235251.5,219276.171875,230869.296875,176406.140625,-705698.5,182966.828125,-0.04638671875,0.947509765625,-0.283935546875,-1.3427733182907104,-0.3051757514476776,1.0681151151657104,93.33334350585938,42428.0,1.0
12:00:37.371485,201714.484375,197220.09375,235252.125,219281.265625,230854.453125,176399.078125,-705698.8125,182968.96875,-0.0458984375,0.941162109375,-0.286865234375,-0.9460448622703552,-0.4272460639476776,1.0070799589157104,93.33334350585938,42429.0,1.0
12:00:37.383250,201702.78125,197205.0625,235239.96875,219275.8125,230822.28125,176380.21875,-705704.4375,182962.265625,-0.043212890625,0.940673828125,-0.288330078125,-0.5187987685203552,-0.5798339247703552,1.0681151151657104,93.33334350585938,42430.0,1.0
12:00:37.383260,201718.0625,197227.25,235246.578125,219279.75,230841.046875,176400.6875,-705704.5,182964.328125,-0.0439453125,0.94287109375,-0.2890625,-0.0915527269244194,-0.7019042372703552,1.0375975370407104,93.33334350585938,42431.0,1.0
12:00:37.385799,201734.15625,197247.265625,235260.34375,219283.40625,230873.328125,176420.453125,-705692.8125,182971.390625,-0.042236328125,0.947509765625,-0.28662109375,0.0915527269244194,-0.8239745497703552,1.0375975370407104,93.33334350585938,42432.0,1.0
12:00:37.385809,201726.46875,197236.09375,235260.53125,219285.90625,230863.484375,176414.109375,-705697.375,182972.1875,-0.039794921875,0.952392578125,-0.285888671875,0.3356933295726776,-0.8239745497703552,1.0375975370407104,93.33334350585938,42433.0,1.0
12:00:37.395272,201717.34375,197221.609375,235250.515625,219284.75,230830.046875,176389.609375,-705699.5,182968.796875,-0.0390625,0.95703125,-0.2841796875,0.3662109076976776,-0.9460448622703552,0.9460448622703552,93.33334350585938,42434.0,1.0
12:00:37.399523,201729.234375,197238.328125,235254.453125,219285.015625,230842.125,176409.28125,-705692.1875,182969.515625,-0.036865234375,0.960205078125,-0.282470703125,0.5187987685203552,-1.0070799589157104,0.8850097060203552,93.33334350585938,42435.0,1.0
12:00:37.399536,201740.953125,197245.390625,235262.765625,219287.796875,230874.578125,176421.796875,-705690.375,182975.5,-0.0341796875,0.962890625,-0.283447265625,0.6713866591453552,-1.0375975370407104,1.0070799589157104,93.33334350585938,42436.0,1.0
12:00:37.409519,201717.265625,197218.296875,235246.484375,219279.203125,230855.796875,176398.640625,-705687.25,182965.125,-0.0361328125,0.9677734375,-0.28466796875,0.6713866591453552,-1.0681151151657104,0.9460448622703552,93.33334350585938,42437.0,1.0
12:00:37.409528,201686.59375,197194.4375,235219.75,219253.546875,230804.390625,176371.28125,-705697.625,182943.5,-0.035888671875,0.970458984375,-0.285400390625,0.5187987685203552,-1.0375975370407104,0.9460448622703552,93.33334350585938,42438.0,1.0
12:00:37.412063,201684.890625,197200.6875,235212.96875,219248.1875,230799.203125,176376.28125,-705703.5,182936.609375,-0.0341796875,0.974853515625,-0.286865234375,0.4272460639476776,-1.0070799589157104,0.7324218153953552,93.33334350585938,42439.0,1.0
12:00:37.412072,201694.640625,197192.546875,235216.53125,219244.421875,230826.75,176368.859375,-705705.6875,182939.109375,-0.032958984375,0.97802734375,-0.284423828125,0.2136230319738388,-0.9765624403953552,0.7934569716453552,93.33334350585938,42440.0,1.0
12:00:37.417659,201695.71875,197207.65625,235224.046875,219243.0,230837.5625,176378.609375,-705703.0625,182939.5625,-0.03271484375,0.9814453125,-0.284423828125,0.03051757626235485,-0.9460448622703552,0.7629393935203552,93.33334350585938,42441.0,1.0
12:00:37.423918,201679.078125,197179.59375,235212.515625,219245.953125,230802.609375,176356.171875,-705700.5,182938.390625,-0.0322265625,0.98388671875,-0.286376953125,-0.1220703050494194,-0.9155272841453552,0.8544921278953552,93.33334350585938,42442.0,1.0
12:00:37.485045,201686.140625,197185.84375,235216.265625,219253.453125,230798.578125,176364.578125,-705698.875,182941.34375,-0.02978515625,0.98486328125,-0.2861328125,-0.3356933295726776,-0.7934569716453552,0.9460448622703552,93.33334350585938,42443.0,1.0
12:00:37.485089,201709.296875,197204.984375,235231.46875,219260.15625,230833.546875,176380.578125,-705699.75,182949.75,-0.02880859375,0.98486328125,-0.28515625,-0.6408690810203552,-0.6713866591453552,0.9460448622703552,93.33334350585938,42444.0,1.0
12:00:37.505194,201710.203125,197204.359375,235237.375,219261.953125,230849.0,176378.96875,-705700.1875,182952.96875,-0.029541015625,0.982177734375,-0.283203125,-0.9155272841453552,-0.6408690810203552,1.0070799589157104,93.33334350585938,42445.0,1.0
12:00:37.507854,201699.734375,197200.15625,235234.78125,219266.421875,230824.328125,176372.796875,-705700.5625,182954.671875,-0.0302734375,0.98193359375,-0.283447265625,-1.0070799589157104,-0.4882812201976776,0.9765624403953552,93.33334350585938,42446.0,1.0
12:00:37.510185,201701.171875,197209.71875,235233.703125,219264.28125,230812.078125,176380.65625,-705692.875,182951.71875,-0.0302734375,0.979736328125,-0.287841796875,-1.0681151151657104,-0.3356933295726776,0.9155272841453552,93.33334350585938,42447.0,1.0
12:00:37.512745,201720.84375,197218.921875,235247.828125,219278.3125,230847.484375,176397.5625,-705683.3125,182966.109375,-0.031982421875,0.9765625,-0.2890625,-1.1596678495407104,-0.2746581733226776,0.9155272841453552,93.33334350585938,42448.0,1.0
12:00:37.518975,201728.703125,197245.484375,235263.125,219287.875,230879.21875,176425.71875,-705691.5625,182977.640625,-0.031494140625,0.97705078125,-0.2880859375,-1.1901854276657104,-0.1220703050494194,0.9460448622703552,93.33334350585938,42449.0,1.0
12:00:37.521480,201703.765625,197218.03125,235239.96875,219265.796875,230836.75,176388.359375,-705707.0,182957.890625,-0.030029296875,0.980224609375,-0.287841796875,-1.2207030057907104,-0.0915527269244194,0.8544921278953552,93.33334350585938,42450.0,1.0
12:00:37.523948,201697.140625,197195.328125,235228.96875,219273.21875,230808.953125,176370.109375,-705701.9375,182955.5625,-0.030029296875,0.983642578125,-0.28759765625,-1.4648436307907104,0.1220703050494194,1.0070799589157104,93.33334350585938,42451.0,1.0
12:00:37.526504,201719.5,197210.078125,235243.984375,219303.96875,230840.78125,176386.203125,-705692.6875,182974.96875,-0.029541015625,0.98681640625,-0.2890625,-1.6174315214157104,0.2746581733226776,1.0375975370407104,93.33334350585938,42452.0,1.0
12:00:37.530099,201730.140625,197225.359375,235254.09375,219279.203125,230871.0,176406.40625,-705698.0,182973.984375,-0.028564453125,0.989501953125,-0.290283203125,-1.8005369901657104,0.5187987685203552,1.0375975370407104,93.33334350585938,42453.0,1.0
12:00:37.544035,201713.15625,197208.203125,235243.890625,219267.140625,230846.765625,176388.703125,-705708.8125,182961.46875,-0.02978515625,0.992431640625,-0.28564453125,-2.014159917831421,0.6103515028953552,1.0070799589157104,93.33334350585938,42454.0,1.0
12:00:37.564144,201706.359375,197196.84375,235236.46875,219274.828125,230815.84375,176372.53125,-705710.875,182962.09375,-0.02978515625,0.99169921875,-0.28466796875,-2.349853277206421,0.7629393935203552,1.2817381620407104,93.33334350585938,42455.0,1.0
12:00:37.564173,201721.109375,197212.484375,235243.984375,219281.984375,230836.046875,176391.390625,-705706.375,182966.5625,-0.030029296875,0.989501953125,-0.284423828125,-2.563476324081421,0.7934569716453552,1.4038084745407104,93.33334350585938,42456.0,1.0
12:00:37.564180,201732.734375,197222.328125,235256.859375,219289.75,230871.359375,176402.75,-705701.0,182977.375,-0.031982421875,0.986328125,-0.286865234375,-2.716064214706421,0.8850097060203552,1.4953612089157104,93.33334350585938,42457.0,1.0
12:00:37.566544,201717.53125,197217.140625,235253.375,219274.828125,230860.8125,176402.125,-705707.0,182966.375,-0.03125,0.98193359375,-0.284912109375,-2.807616949081421,0.9765624403953552,1.5258787870407104,93.33334350585938,42458.0,1.0
12:00:37.569045,201700.546875,197195.953125,235238.984375,219270.4375,230822.8125,176379.328125,-705709.4375,182960.484375,-0.030517578125,0.978515625,-0.286865234375,-2.777099370956421,0.9765624403953552,1.5258787870407104,93.33334350585938,42459.0,1.0
12:00:37.571870,201704.921875,197195.5,235235.21875,219273.21875,230823.703125,176374.40625,-705710.5,182960.03125,-0.030029296875,0.978759765625,-0.28466796875,-2.838134527206421,1.1291502714157104,1.4648436307907104,93.33334350585938,42460.0,1.0
12:00:37.574119,201725.3125,197218.5625,235251.5,219285.015625,230862.953125,176402.921875,-705709.3125,182973.09375,-0.02734375,0.977783203125,-0.286376953125,-2.899169683456421,1.2817381620407104,1.7089842557907104,93.33334350585938,42461.0,1.0
12:00:37.577319,201720.75,197215.078125,235253.546875,219291.640625,230863.84375,176395.421875,-705703.375,182977.296875,-0.02783203125,0.97705078125,-0.283447265625,-2.868652105331421,1.4648436307907104,1.6784666776657104,93.33334350585938,42462.0,1.0
12:00:37.579117,201703.5,197198.1875,235237.640625,219275.09375,230823.4375,176378.609375,-705709.9375,182964.328125,-0.028076171875,0.977294921875,-0.2802734375,-2.868652105331421,1.4953612089157104,1.8310545682907104,93.33334350585938,42463.0,1.0
12:00:37.581470,201714.3125,197208.375,235242.828125,219283.859375,230827.453125,176391.65625,-705715.0,182969.0625,-0.02783203125,0.9755859375,-0.27880859375,-2.899169683456421,1.5869139432907104,1.8615721464157104,93.33334350585938,42464.0,1.0
12:00:37.584009,201725.75,197213.203125,235248.546875,219281.265625,230857.140625,176400.515625,-705708.375,182971.921875,-0.028564453125,0.97607421875,-0.278076171875,-2.929687261581421,1.7700194120407104,1.8920897245407104,93.33334350585938,42465.0,1.0
12:00:37.587182,201722.71875,197209.359375,235251.765625,219284.578125,230866.625,176395.140625,-705705.5,182973.890625,-0.028564453125,0.9765625,-0.2783203125,-3.021239995956421,1.8615721464157104,1.9531248807907104,93.33334350585938,42466.0,1.0
12:00:37.587250,201713.15625,197208.5625,235246.671875,219310.3125,230837.03125,176382.359375,-705706.625,182980.953125,-0.030029296875,0.97509765625,-0.27685546875,-3.082275152206421,2.014159917831421,1.9836424589157104,93.33334350585938,42467.0,1.0
12:00:37.590279,201709.9375,197209.625,235236.921875,219277.6875,230821.828125,176384.234375,-705708.875,182965.3125,-0.032470703125,0.970458984375,-0.275390625,-3.051757574081421,1.9836424589157104,1.9531248807907104,93.33334350585938,42468.0,1.0
12:00:37.590348,201727.90625,197213.5625,235247.734375,219279.390625,230852.765625,176398.984375,-705716.9375,182971.203125,-0.0341796875,0.96630859375,-0.27685546875,-2.990722417831421,1.9226073026657104,1.9226073026657104,93.33334350585938,42469.0,1.0
12:00:37.590369,201727.625,197218.921875,235252.03125,219276.609375,230867.328125,176405.078125,-705717.125,182968.34375,-0.03662109375,0.9638671875,-0.27490234375,-2.868652105331421,1.9226073026657104,1.9836424589157104,93.33334350585938,42470.0,1.0
12:00:37.594317,201712.609375,197205.96875,235243.0,219275.625,230838.28125,176389.96875,-705715.4375,182966.921875,-0.037109375,0.964111328125,-0.275390625,-2.807616949081421,1.8615721464157104,1.8615721464157104,93.33334350585938,42471.0,1.0
12:00:37.594387,201712.4375,197214.546875,235241.296875,219277.421875,230824.15625,176393.984375,-705717.0,182965.21875,-0.039794921875,0.961669921875,-0.275146484375,-2.746581792831421,1.7395018339157104,1.8005369901657104,93.33334350585938,42472.0,1.0
12:00:37.594408,201734.875,197228.9375,235255.15625,219291.546875,230856.703125,176412.671875,-705710.875,182978.71875,-0.0390625,0.963134765625,-0.2724609375,-2.593993902206421,1.4953612089157104,1.8005369901657104,93.33334350585938,42473.0,1.0
12:00:37.598520,201733.53125,197217.671875,235256.0625,219282.96875,230872.34375,176403.46875,-705708.875,182974.875,-0.037841796875,0.9658203125,-0.27099609375,-2.532958745956421,1.4038084745407104,1.7700194120407104,93.33334350585938,42474.0,1.0
12:00:37.598595,201723.515625,197211.6875,235254.796875,219291.90625,230853.296875,176398.1875,-705712.4375,182978.265625,-0.03466796875,0.968505859375,-0.270751953125,-2.380370855331421,1.4038084745407104,1.8005369901657104,93.33334350585938,42475.0,1.0
12:00:37.598613,201713.234375,197209.625,235243.09375,219286.09375,230824.515625,176393.359375,-705717.125,182970.40625,-0.03125,0.971435546875,-0.26904296875,-2.380370855331421,1.2817381620407104,1.8615721464157104,93.33334350585938,42476.0,1.0
12:00:37.598630,201719.765625,197211.5,235240.5,219272.046875,230839.703125,176397.734375,-705714.25,182963.34375,-0.02685546875,0.969970703125,-0.269775390625,-2.319335699081421,1.2207030057907104,1.8920897245407104,93.33334350585938,42477.0,1.0
12:00:37.602154,201736.03125,197227.953125,235257.390625,219286.984375,230875.65625,176410.078125,-705703.4375,182979.25,-0.026123046875,0.968505859375,-0.270751953125,-2.197265386581421,1.1901854276657104,2.014159917831421,93.33334350585938,42478.0,1.0
12:00:37.602226,201718.953125,197212.9375,235249.265625,219275.90625,230855.171875,176393.53125,-705706.0,182972.1875,-0.02587890625,0.967529296875,-0.270751953125,-2.044677495956421,1.2512205839157104,2.044677495956421,93.33334350585938,42479.0,1.0
12:00:37.602245,201708.5,197203.28125,235238.359375,219274.375,230824.0625,176383.875,-705708.0625,182970.859375,-0.02587890625,0.963623046875,-0.27392578125,-1.9531248807907104,1.2207030057907104,1.9836424589157104,93.33334350585938,42480.0,1.0
12:00:37.602261,201719.671875,197211.78125,235242.203125,219275.984375,230838.546875,176397.375,-705699.6875,182971.65625,-0.026611328125,0.96142578125,-0.27294921875,-1.7700194120407104,1.1596678495407104,2.014159917831421,93.33334350585938,42481.0,1.0
12:00:37.605191,201735.953125,197224.828125,235257.75,219305.84375,230874.84375,176410.96875,-705696.375,182987.75,-0.028076171875,0.961669921875,-0.271240234375,-1.6174315214157104,1.0681151151657104,1.9531248807907104,93.33334350585938,42482.0,1.0
12:00:37.605256,201723.078125,197217.3125,235252.03125,219279.65625,230864.734375,176404.890625,-705698.0,182977.5625,-0.02978515625,0.9609375,-0.272216796875,-1.4343260526657104,1.0681151151657104,1.8920897245407104,93.33334350585938,42483.0,1.0
12:00:37.610975,201709.390625,197204.171875,235239.25,219271.078125,230827.546875,176390.59375,-705697.875,182971.03125,-0.03173828125,0.9599609375,-0.275146484375,-1.2512205839157104,1.0070799589157104,1.8920897245407104,93.33334350585938,42484.0,1.0
12:00:37.611041,201713.953125,197198.546875,235236.296875,219274.015625,230829.0625,176383.875,-705691.4375,182969.328125,-0.033447265625,0.959228515625,-0.271728515625,-0.9460448622703552,0.9765624403953552,1.7700194120407104,93.33334350585938,42485.0,1.0
12:00:37.612682,201728.078125,197210.609375,235247.5625,219282.515625,230862.59375,176400.15625,-705684.5,182979.34375,-0.034423828125,0.96142578125,-0.270263671875,-0.7629393935203552,0.9460448622703552,1.6784666776657104,93.33334350585938,42486.0,1.0
12:00:37.615318,201718.25,197205.96875,235245.78125,219272.6875,230860.984375,176396.484375,-705696.125,182969.78125,-0.03271484375,0.95947265625,-0.269775390625,-0.6408690810203552,0.7324218153953552,1.5869139432907104,93.33334350585938,42487.0,1.0
12:00:37.617817,201705.90625,197198.546875,235236.828125,219275.71875,230828.078125,176383.796875,-705700.75,182969.25,-0.03271484375,0.9560546875,-0.273681640625,-0.4577636420726776,0.5493163466453552,1.5869139432907104,93.33334350585938,42488.0,1.0
12:00:37.622812,201709.21875,197206.671875,235234.59375,219271.34375,230824.0625,176390.953125,-705703.375,182964.765625,-0.0322265625,0.94775390625,-0.27734375,0.0,0.4882812201976776,1.6174315214157104,93.33334350585938,42489.0,1.0
12:00:37.625283,201722.453125,197205.0625,235240.5,219272.234375,230853.5625,176390.59375,-705698.8125,182970.5,-0.0341796875,0.946533203125,-0.27783203125,0.4272460639476776,0.4272460639476776,1.5869139432907104,93.33334350585938,42490.0,1.0
12:00:37.628272,201726.375,197213.390625,235251.578125,219281.171875,230870.46875,176398.28125,-705706.3125,182978.546875,-0.035888671875,0.954833984375,-0.277099609375,0.7324218153953552,0.2746581733226776,1.4038084745407104,93.33334350585938,42491.0,1.0
12:00:37.628294,201704.65625,197183.875,235233.609375,219273.484375,230829.15625,176372.796875,-705707.125,182967.546875,-0.03515625,0.96923828125,-0.275146484375,0.9155272841453552,0.0915527269244194,1.1901854276657104,93.33334350585938,42492.0,1.0
12:00:37.630807,201700.71875,197188.625,235225.828125,219271.515625,230815.484375,176377.09375,-705702.75,182962.1875,-0.03466796875,0.97998046875,-0.272705078125,1.0375975370407104,0.03051757626235485,0.9155272841453552,93.33334350585938,42493.0,1.0
12:00:37.630855,201720.296875,197206.953125,235236.828125,219273.84375,230848.203125,176394.078125,-705703.625,182967.90625,-0.03125,0.988525390625,-0.273193359375,0.8544921278953552,-0.2441406100988388,0.8544921278953552,93.33334350585938,42494.0,1.0
12:00:37.641536,201722.53125,197209.359375,235243.625,219272.046875,230868.140625,176400.953125,-705698.6875,182969.875,-0.029052734375,0.991455078125,-0.2705078125,0.7324218153953552,-0.3051757514476776,0.8850097060203552,93.33334350585938,42495.0,1.0
12:00:37.650200,201709.65625,197194.078125,235236.125,219278.484375,230838.640625,176382.0,-705699.25,182970.765625,-0.025634765625,0.98828125,-0.273193359375,0.5187987685203552,-0.3356933295726776,0.8239745497703552,93.33334350585938,42496.0,1.0
12:00:37.650254,201699.375,197194.4375,235225.390625,219276.96875,230815.84375,176386.46875,-705705.875,182965.484375,-0.0263671875,0.984375,-0.277587890625,0.2746581733226776,-0.3662109076976776,0.9155272841453552,93.33334350585938,42497.0,1.0
12:00:37.650275,201718.875,197218.296875,235235.9375,219286.8125,230845.609375,176400.875,-705705.125,182973.625,-0.02783203125,0.981201171875,-0.279541015625,0.0915527269244194,-0.4577636420726776,0.9765624403953552,93.33334350585938,42498.0,1.0
12:00:37.654003,201717.171875,197200.875,235237.375,219274.921875,230864.921875,176395.0625,-705704.0,182970.9375,-0.02978515625,0.978515625,-0.279052734375,-0.03051757626235485,-0.5187987685203552,0.9155272841453552,93.33334350585938,42499.0,1.0
12:00:37.654041,201710.5625,197186.5625,235239.421875,219303.34375,230848.015625,176383.078125,-705689.0625,182978.09375,-0.02880859375,0.979736328125,-0.28076171875,-0.1525878757238388,-0.6103515028953552,0.8239745497703552,93.33334350585938,42500.0,1.0
12:00:37.655232,201696.875,197191.390625,235224.3125,219262.21875,230814.765625,176382.984375,-705689.0625,182956.71875,-0.031494140625,0.980224609375,-0.281494140625,-0.1525878757238388,-0.5493163466453552,0.8850097060203552,93.33334350585938,42501.0,1.0
12:00:37.662659,201696.96875,197182.453125,235215.640625,219240.765625,230821.015625,176369.9375,-705697.0625,182939.46875,-0.031494140625,0.981201171875,-0.28076171875,-0.1525878757238388,-0.6408690810203552,0.8544921278953552,93.33334350585938,42502.0,1.0
12:00:37.670211,201712.875,197204.53125,235232.625,219255.6875,230857.859375,176394.875,-705703.0625,182951.546875,-0.02978515625,0.98193359375,-0.27734375,-0.3356933295726776,-0.7019042372703552,0.7324218153953552,93.33334350585938,42503.0,1.0
12:00:37.675455,201694.015625,197172.4375,235220.5625,219257.296875,230833.8125,176362.515625,-705702.375,182951.09375,-0.031005859375,0.97998046875,-0.281005859375,-0.4272460639476776,-0.8239745497703552,0.7629393935203552,93.33334350585938,42504.0,1.0
12:00:37.675479,201680.96875,197162.59375,235207.5,219257.296875,230798.84375,176349.109375,-705705.9375,182946.53125,-0.030517578125,0.979736328125,-0.279052734375,-0.6408690810203552,-0.9155272841453552,0.7934569716453552,93.33334350585938,42505.0,1.0
12:00:37.682753,201702.234375,197194.078125,235220.46875,219264.28125,230821.828125,176383.078125,-705708.6875,182954.765625,-0.0302734375,0.977783203125,-0.278564453125,-0.7629393935203552,-0.8850097060203552,0.7629393935203552,93.33334350585938,42506.0,1.0
12:00:37.698933,201733.796875,197219.109375,235248.453125,219283.046875,230871.453125,176411.6875,-705708.625,182975.953125,-0.02978515625,0.97607421875,-0.283935546875,-0.7934569716453552,-1.0375975370407104,0.7629393935203552,93.33334350585938,42507.0,1.0
12:00:37.698955,201711.359375,197194.078125,235233.609375,219268.5625,230850.53125,176380.390625,-705706.1875,182958.15625,-0.03076171875,0.974609375,-0.283447265625,-0.8850097060203552,-0.9765624403953552,0.8239745497703552,93.33334350585938,42508.0,1.0
12:00:37.698960,201688.03125,197164.203125,235214.125,219264.71875,230806.8125,176354.015625,-705706.9375,182951.0,-0.03125,0.972412109375,-0.2841796875,-0.9460448622703552,-1.1291502714157104,0.8850097060203552,93.33334350585938,42509.0,1.0
12:00:37.702007,201690.078125,197165.109375,235209.75,219256.40625,230807.703125,176361.796875,-705706.0,182946.71875,-0.031005859375,0.97119140625,-0.284423828125,-0.9155272841453552,-1.0986326932907104,0.8850097060203552,93.33334350585938,42510.0,1.0
12:00:37.702026,201711.09375,197188.171875,235224.9375,219270.53125,230845.15625,176382.1875,-705697.5625,182957.890625,-0.030517578125,0.973876953125,-0.284912109375,-0.9460448622703552,-1.0375975370407104,0.9155272841453552,93.33334350585938,42511.0,1.0
12:00:37.703925,201698.390625,197167.078125,235219.125,219285.28125,230839.53125,176367.4375,-705701.125,182962.265625,-0.029541015625,0.973876953125,-0.286376953125,-0.9460448622703552,-1.0986326932907104,0.9460448622703552,93.33334350585938,42512.0,1.0
12:00:37.706413,201666.921875,197145.796875,235190.609375,219219.03125,230787.671875,176340.25,-705703.375,182924.09375,-0.028564453125,0.973388671875,-0.282958984375,-0.9765624403953552,-1.1596678495407104,0.8544921278953552,93.33334350585938,42513.0,1.0
12:00:37.710303,201677.75,197163.9375,235195.890625,219241.65625,230790.71875,176356.703125,-705701.8125,182935.171875,-0.030029296875,0.973388671875,-0.282958984375,-0.8544921278953552,-1.0681151151657104,0.8544921278953552,93.33334350585938,42514.0,1.0
12:00:37.720785,201699.640625,197177.53125,235209.75,219255.421875,230828.078125,176377.0,-705712.9375,182951.1875,-0.027587890625,0.9736328125,-0.285888671875,-0.8239745497703552,-1.0681151151657104,0.8544921278953552,93.33334350585938,42515.0,1.0
12:00:37.720803,201689.09375,197169.578125,235204.640625,219240.046875,230831.125,176372.171875,-705717.8125,182940.8125,-0.024658203125,0.974365234375,-0.28564453125,-0.8544921278953552,-1.0070799589157104,0.8544921278953552,93.33334350585938,42516.0,1.0
12:00:37.722684,201655.921875,197130.421875,235177.46875,219225.734375,230780.515625,176336.59375,-705717.8125,182924.359375,-0.02490234375,0.972412109375,-0.285400390625,-0.8850097060203552,-1.0070799589157104,0.8850097060203552,93.33334350585938,42517.0,1.0
12:00:37.727674,201676.3125,197165.015625,235193.65625,219246.65625,230785.34375,176358.84375,-705712.3125,182937.234375,-0.025146484375,0.97412109375,-0.283935546875,-1.0070799589157104,-0.9155272841453552,0.8544921278953552,93.33334350585938,42518.0,1.0
12:00:37.737880,201712.96875,197201.3125,235221.640625,219294.234375,230833.1875,176396.671875,-705708.8125,182970.578125,-0.02392578125,0.973876953125,-0.286865234375,-0.9155272841453552,-0.9155272841453552,0.7324218153953552,93.33334350585938,42519.0,1.0
12:00:37.741362,201693.125,197170.828125,235206.875,219237.09375,230834.515625,176382.359375,-705709.4375,182934.640625,-0.025390625,0.97216796875,-0.2861328125,-0.9460448622703552,-0.8544921278953552,0.7934569716453552,93.33334350585938,42520.0,1.0
12:00:37.741382,201675.6875,197153.296875,235196.59375,219226.28125,230803.5,176359.75,-705710.3125,182931.515625,-0.02490234375,0.971435546875,-0.286865234375,-0.9460448622703552,-0.8239745497703552,0.7324218153953552,93.33334350585938,42521.0,1.0
12:00:37.741389,201670.953125,197137.75,235188.734375,219249.4375,230779.984375,176341.5,-705710.875,182940.0,-0.0244140625,0.972412109375,-0.2861328125,-0.8850097060203552,-0.7019042372703552,0.9155272841453552,93.33334350585938,42522.0,1.0
12:00:37.744104,201696.703125,197177.796875,235207.6875,219258.46875,230816.546875,176381.015625,-705701.3125,182951.1875,-0.0244140625,0.9677734375,-0.284423828125,-0.8850097060203552,-0.7019042372703552,0.7934569716453552,93.33334350585938,42523.0,1.0
12:00:37.754038,201698.03125,197185.765625,235211.890625,219248.359375,230839.078125,176394.875,-705706.8125,182945.375,-0.02685546875,0.97021484375,-0.286865234375,-0.8239745497703552,-0.6408690810203552,0.6103515028953552,93.33334350585938,42524.0,1.0
12:00:37.758375,201680.15625,197155.265625,235200.09375,219254.0,230812.171875,176361.890625,-705709.625,182943.765625,-0.028076171875,0.970458984375,-0.287353515625,-0.8850097060203552,-0.6103515028953552,0.5798339247703552,93.33334350585938,42525.0,1.0
12:00:37.758404,201674.796875,197159.46875,235192.75,219235.390625,230787.3125,176364.65625,-705710.125,182935.71875,-0.027587890625,0.970458984375,-0.287353515625,-0.9460448622703552,-0.5187987685203552,0.5798339247703552,93.33334350585938,42526.0,1.0
12:00:37.765286,201688.03125,197160.71875,235197.140625,219248.71875,230804.390625,176365.734375,-705709.1875,182944.125,-0.02685546875,0.970703125,-0.287353515625,-0.9765624403953552,-0.4577636420726776,0.5798339247703552,93.33334350585938,42527.0,1.0
12:00:37.773282,201689.90625,197167.34375,235199.640625,219231.375,230828.4375,176383.25,-705707.4375,182935.09375,-0.027099609375,0.968017578125,-0.285400390625,-1.0070799589157104,-0.4577636420726776,0.4882812201976776,93.33334350585938,42528.0,1.0
12:00:37.773310,201678.375,197151.609375,235194.359375,219225.296875,230811.8125,176353.9375,-705708.25,182928.828125,-0.030029296875,0.9658203125,-0.286376953125,-0.8239745497703552,-0.3967284858226776,0.3356933295726776,93.33334350585938,42529.0,1.0
12:00:37.779533,201675.515625,197144.265625,235193.03125,219243.359375,230788.828125,176356.703125,-705711.0625,182938.578125,-0.031494140625,0.965576171875,-0.287841796875,-0.7629393935203552,-0.4272460639476776,0.2136230319738388,93.33334350585938,42530.0,1.0
12:00:37.779553,201697.0625,197185.40625,235210.28125,219255.953125,230816.015625,176405.515625,-705711.8125,182948.859375,-0.0322265625,0.9638671875,-0.28564453125,-0.7629393935203552,-0.4272460639476776,0.0610351525247097,93.33334350585938,42531.0,1.0
12:00:37.785853,201694.1875,197177.796875,235200.53125,219228.78125,230827.109375,176381.734375,-705704.0,182931.609375,-0.0302734375,0.96435546875,-0.286376953125,-0.7019042372703552,-0.4272460639476776,-0.0610351525247097,93.33334350585938,42532.0,1.0
12:00:37.785876,201689.546875,197162.421875,235203.75,219257.125,230824.328125,176370.828125,-705703.1875,182948.859375,-0.031005859375,0.96435546875,-0.283935546875,-0.6103515028953552,-0.3662109076976776,-0.0915527269244194,93.33334350585938,42533.0,1.0
12:00:37.787756,201679.078125,197145.609375,235193.03125,219246.125,230788.75,176348.828125,-705706.5,182937.0625,-0.03173828125,0.964599609375,-0.284423828125,-0.5798339247703552,-0.3967284858226776,-0.1220703050494194,93.33334350585938,42534.0,1.0
12:00:37.836527,201677.03125,197147.3125,235185.421875,219218.140625,230786.59375,176356.796875,-705702.1875,182924.453125,-0.029541015625,0.964599609375,-0.2880859375,-0.5493163466453552,-0.3662109076976776,0.0,93.33334350585938,42535.0,1.0
12:00:37.848281,201704.03125,197176.546875,235206.4375,219244.609375,230828.625,176384.6875,-705703.5,182946.265625,-0.02783203125,0.96728515625,-0.28759765625,-0.4882812201976776,-0.3967284858226776,-0.1220703050494194,93.33334350585938,42536.0,1.0
12:00:37.848300,201692.3125,197163.9375,235202.234375,219251.84375,230827.453125,176372.890625,-705713.6875,182946.53125,-0.02734375,0.967529296875,-0.288818359375,-0.4272460639476776,-0.3662109076976776,-0.1220703050494194,93.33334350585938,42537.0,1.0
12:00:37.850175,201683.109375,197169.03125,235197.84375,219272.046875,230799.921875,176362.6875,-705722.125,182950.828125,-0.02978515625,0.97021484375,-0.29052734375,-0.4272460639476776,-0.2746581733226776,-0.2136230319738388,93.33334350585938,42538.0,1.0
12:00:37.853276,201673.1875,197151.6875,235181.9375,219219.03125,230781.140625,176357.859375,-705719.0,182921.40625,-0.029052734375,0.969482421875,-0.28955078125,-0.4272460639476776,-0.1525878757238388,-0.2136230319738388,93.33334350585938,42539.0,1.0
12:00:37.853303,201702.0625,197174.140625,235203.65625,219237.546875,230823.703125,176383.4375,-705708.875,182939.109375,-0.032470703125,0.97021484375,-0.289306640625,-0.4882812201976776,-0.1525878757238388,-0.1220703050494194,93.33334350585938,42540.0,1.0
12:00:37.855225,201701.53125,197165.109375,235208.9375,219251.21875,230835.953125,176379.328125,-705714.0625,182948.046875,-0.03173828125,0.9697265625,-0.288818359375,-0.5187987685203552,-0.1220703050494194,-0.0610351525247097,93.33334350585938,42541.0,1.0
12:00:37.857838,201682.390625,197167.15625,235198.03125,219240.5,230800.90625,176365.828125,-705721.4375,182937.765625,-0.031982421875,0.969970703125,-0.2919921875,-0.5187987685203552,-0.0610351525247097,0.03051757626235485,93.33334350585938,42542.0,1.0
12:00:37.860184,201680.34375,197153.75,235192.75,219244.609375,230788.03125,176355.8125,-705716.75,182939.296875,-0.0322265625,0.970947265625,-0.2890625,-0.4882812201976776,-0.1220703050494194,-0.0610351525247097,93.33334350585938,42543.0,1.0
12:00:37.862704,201705.1875,197174.671875,235209.03125,219243.4375,230825.21875,176383.53125,-705706.0,182940.359375,-0.031005859375,0.968994140625,-0.2900390625,-0.5493163466453552,-0.0915527269244194,0.0610351525247097,93.33334350585938,42544.0,1.0
12:00:37.865201,201726.203125,197220.53125,235237.015625,219273.84375,230864.109375,176437.171875,-705710.25,182963.96875,-0.031494140625,0.97021484375,-0.29150390625,-0.6103515028953552,-0.1525878757238388,0.0610351525247097,93.33334350585938,42545.0,1.0
12:00:37.867781,201719.859375,197195.40625,235235.84375,219304.421875,230841.765625,176400.328125,-705711.6875,182977.203125,-0.033203125,0.970458984375,-0.29052734375,-0.6103515028953552,-0.1831054538488388,0.1220703050494194,93.33334350585938,42546.0,1.0
12:00:37.870152,201692.671875,197156.4375,235204.46875,219260.703125,230795.546875,176353.578125,-705710.5,182950.734375,-0.033447265625,0.969482421875,-0.293701171875,-0.7324218153953552,-0.2746581733226776,0.0915527269244194,93.33334350585938,42547.0,1.0
12:00:37.872707,201708.328125,197200.15625,235212.609375,219228.609375,230822.71875,176402.5625,-705720.25,182935.984375,-0.034423828125,0.973388671875,-0.293701171875,-0.7019042372703552,-0.2136230319738388,0.1525878757238388,93.33334350585938,42548.0,1.0
12:00:37.875251,201713.6875,197196.75,235219.125,219248.8125,230846.40625,176396.484375,-705718.125,182952.171875,-0.037109375,0.974609375,-0.29345703125,-0.8544921278953552,-0.3051757514476776,0.2136230319738388,93.33334350585938,42549.0,1.0
12:00:37.877716,201715.828125,197178.25,235228.96875,219286.1875,230839.796875,176381.109375,-705710.875,182979.796875,-0.0380859375,0.975830078125,-0.2919921875,-0.9460448622703552,-0.2441406100988388,0.2441406100988388,93.33334350585938,42550.0,1.0
12:00:37.880767,201691.78125,197188.53125,235207.78125,219264.8125,230798.671875,176381.46875,-705720.4375,182958.328125,-0.038330078125,0.97607421875,-0.290771484375,-1.0375975370407104,-0.3051757514476776,0.1831054538488388,93.33334350585938,42551.0,1.0
12:00:37.880795,201705.8125,197203.375,235209.5625,219248.265625,230812.53125,176400.515625,-705722.5625,182939.46875,-0.0390625,0.977294921875,-0.2900390625,-1.2512205839157104,-0.4882812201976776,0.3051757514476776,93.33334350585938,42552.0,1.0
12:00:37.882917,201705.1875,197181.203125,235211.890625,219240.9375,230841.234375,176409.09375,-705722.3125,182944.203125,-0.0390625,0.978271484375,-0.28857421875,-1.4648436307907104,-0.6408690810203552,0.4272460639476776,93.33334350585938,42553.0,1.0
12:00:37.885804,201686.328125,197152.59375,235200.265625,219256.859375,230820.75,176361.0,-705709.625,182947.703125,-0.038818359375,0.97998046875,-0.2900390625,-1.5869139432907104,-0.7019042372703552,0.5493163466453552,93.33334350585938,42554.0,1.0
12:00:37.885817,201677.203125,197188.96875,235196.6875,219271.15625,230794.109375,176383.25,-705711.375,182955.46875,-0.039794921875,0.981201171875,-0.291259765625,-1.8310545682907104,-0.8239745497703552,0.5798339247703552,93.33334350585938,42555.0,1.0
12:00:37.888256,201691.78125,197177.984375,235199.640625,219250.15625,230804.84375,176368.6875,-705713.625,182943.671875,-0.03759765625,0.9814453125,-0.29150390625,-1.9836424589157104,-1.0070799589157104,0.6713866591453552,93.33334350585938,42556.0,1.0
12:00:37.888284,201714.40625,197220.71875,235223.421875,219253.71875,230852.9375,176417.328125,-705705.5625,182955.390625,-0.038330078125,0.981201171875,-0.28955078125,-2.258300542831421,-1.0986326932907104,0.5493163466453552,93.33334350585938,42557.0,1.0
12:00:37.890161,201691.953125,197161.703125,235207.59375,219228.953125,230835.0625,176372.796875,-705710.9375,182941.796875,-0.0390625,0.977294921875,-0.28955078125,-2.441406011581421,-1.2207030057907104,0.4882812201976776,93.33334350585938,42558.0,1.0
12:00:37.892737,201679.265625,197129.796875,235192.578125,219269.8125,230794.015625,176349.90625,-705713.375,182960.84375,-0.038818359375,0.97705078125,-0.2900390625,-2.593993902206421,-1.1901854276657104,0.5493163466453552,93.33334350585938,42559.0,1.0
12:00:37.900192,201676.84375,197179.671875,235187.125,219224.9375,230791.515625,176384.59375,-705703.6875,182931.78125,-0.03662109375,0.979248046875,-0.29052734375,-2.777099370956421,-1.3122557401657104,0.5493163466453552,93.33334350585938,42560.0,1.0
12:00:37.904533,201679.796875,197137.296875,235182.203125,219202.671875,230812.796875,176365.828125,-705699.0625,182919.359375,-0.035400390625,0.9794921875,-0.289306640625,-2.838134527206421,-1.3427733182907104,0.4577636420726776,93.33334350585938,42561.0,1.0
12:00:37.904550,201680.96875,197122.1875,235186.859375,219225.5625,230818.34375,176335.515625,-705703.375,182933.296875,-0.033935546875,0.978271484375,-0.288330078125,-2.990722417831421,-1.4038084745407104,0.4272460639476776,93.33334350585938,42562.0,1.0
12:00:37.910174,201670.765625,197138.1875,235181.9375,219227.4375,230790.171875,176356.078125,-705708.5625,182933.84375,-0.031005859375,0.97607421875,-0.2890625,-3.143310308456421,-1.4343260526657104,0.6103515028953552,93.33334350585938,42563.0,1.0
12:00:37.916998,201658.4375,197116.203125,235164.140625,219209.296875,230768.625,176324.0625,-705715.0,182913.984375,-0.029541015625,0.976318359375,-0.290283203125,-3.234863042831421,-1.3122557401657104,0.6408690810203552,93.33334350585938,42564.0,1.0
12:00:37.917010,201698.9375,197169.125,235200.09375,219258.734375,230822.71875,176370.296875,-705712.9375,182949.578125,-0.0302734375,0.978271484375,-0.287841796875,-3.417968511581421,-1.2512205839157104,0.6713866591453552,93.33334350585938,42565.0,1.0
12:00:37.923316,201720.296875,197245.65625,235225.390625,219269.546875,230852.140625,176424.921875,-705724.0625,182961.203125,-0.0283203125,0.9794921875,-0.287109375,-3.601073980331421,-1.1901854276657104,0.6713866591453552,93.33334350585938,42566.0,1.0
12:00:37.923329,201696.875,197193.171875,235205.71875,219235.84375,230811.8125,176387.734375,-705719.4375,182943.3125,-0.029541015625,0.9775390625,-0.28662109375,-3.692626714706421,-1.1596678495407104,0.7324218153953552,93.33334350585938,42567.0,1.0
12:00:37.925192,201664.953125,197135.59375,235173.984375,219202.3125,230775.609375,176381.109375,-705714.5,182913.90625,-0.029296875,0.97705078125,-0.2861328125,-3.784179449081421,-1.0375975370407104,0.7629393935203552,93.33334350585938,42568.0,1.0
12:00:37.936508,201683.015625,197144.71875,235182.03125,219216.984375,230800.8125,176358.3125,-705705.875,182925.34375,-0.028076171875,0.97607421875,-0.2841796875,-3.906249761581421,-1.0070799589157104,0.7324218153953552,93.33334350585938,42569.0,1.0
12:00:37.945347,201687.046875,197149.015625,235187.84375,219217.6875,230817.890625,176340.96875,-705708.1875,182927.21875,-0.028076171875,0.97802734375,-0.28564453125,-4.058837413787842,-1.0681151151657104,0.7629393935203552,93.33334350585938,42570.0,1.0
12:00:37.945379,201705.734375,197204.359375,235217.96875,219278.9375,230827.015625,176399.171875,-705709.5,182966.46875,-0.027587890625,0.978759765625,-0.28369140625,-4.089354991912842,-0.9460448622703552,0.7934569716453552,93.33334350585938,42571.0,1.0
12:00:37.945391,201722.890625,197343.296875,235240.59375,219275.984375,230831.484375,176444.59375,-705708.25,182966.375,-0.0263671875,0.980712890625,-0.282470703125,-4.211425304412842,-0.8544921278953552,0.9155272841453552,93.33334350585938,42572.0,1.0
12:00:37.947841,201671.578125,197090.890625,235172.453125,219202.140625,230790.171875,176318.609375,-705701.125,182916.765625,-0.027587890625,0.979736328125,-0.28173828125,-4.302978038787842,-0.7324218153953552,0.9460448622703552,93.33334350585938,42573.0,1.0
12:00:37.950215,201691.0625,197127.734375,235189.453125,219242.28125,230823.703125,176348.828125,-705700.6875,182945.28125,-0.0283203125,0.97705078125,-0.27978515625,-4.333495616912842,-0.6713866591453552,0.9765624403953552,93.33334350585938,42574.0,1.0
12:00:37.954009,201679.53125,197154.28125,235192.578125,219242.546875,230814.234375,176357.78125,-705710.25,182944.125,-0.02880859375,0.977294921875,-0.2802734375,-4.455565929412842,-0.6103515028953552,1.0375975370407104,93.33334350585938,42575.0,1.0
12:00:37.964630,201657.09375,197099.296875,235165.578125,219200.078125,230768.453125,176328.453125,-705722.6875,182917.921875,-0.0283203125,0.97607421875,-0.278076171875,-4.486083507537842,-0.7019042372703552,0.9765624403953552,93.33334350585938,42576.0,1.0
12:00:37.964665,201660.3125,197110.296875,235162.984375,219216.71875,230777.390625,176328.359375,-705717.5,182924.453125,-0.030029296875,0.97412109375,-0.27880859375,-4.638671398162842,-0.5187987685203552,0.8850097060203552,93.33334350585938,42577.0,1.0
12:00:37.967099,201671.03125,197157.5,235175.140625,219218.140625,230810.203125,176364.03125,-705713.5625,182924.71875,-0.031494140625,0.9716796875,-0.27880859375,-4.699706554412842,-0.5798339247703552,0.8239745497703552,93.33334350585938,42578.0,1.0
12:00:37.967124,201672.734375,197145.171875,235182.203125,219230.21875,230809.75,176362.25,-705715.0,182935.625,-0.03271484375,0.9716796875,-0.278564453125,-4.730224132537842,-0.5798339247703552,0.7324218153953552,93.33334350585938,42579.0,1.0
12:00:37.972787,201644.21875,197099.125,235151.8125,219208.84375,230755.484375,176305.390625,-705719.625,182914.34375,-0.03125,0.97314453125,-0.277587890625,-4.791259288787842,-0.5493163466453552,0.7019042372703552,93.33334350585938,42580.0,1.0
12:00:37.980237,201647.53125,197103.140625,235148.3125,219204.109375,230758.96875,176325.765625,-705721.875,182908.796875,-0.032470703125,0.971435546875,-0.277099609375,-4.699706554412842,-0.5493163466453552,0.5798339247703552,93.33334350585938,42581.0,1.0
12:00:37.984628,201672.203125,197131.671875,235167.984375,219213.5,230798.3125,176335.953125,-705723.9375,182919.796875,-0.03271484375,0.967529296875,-0.2744140625,-4.608153820037842,-0.5187987685203552,0.5798339247703552,93.33334350585938,42582.0,1.0
12:00:37.984658,201664.875,197127.375,235169.328125,219207.859375,230796.796875,176333.28125,-705718.5625,182913.984375,-0.02978515625,0.9658203125,-0.27490234375,-4.547118663787842,-0.5798339247703552,0.4882812201976776,93.33334350585938,42583.0,1.0
12:00:37.994087,201660.671875,197141.328125,235168.34375,219235.9375,230770.6875,176335.6875,-705723.1875,182924.984375,-0.03271484375,0.965087890625,-0.27490234375,-4.394530773162842,-0.4882812201976776,0.4882812201976776,93.33334350585938,42584.0,1.0
12:00:38.001219,201660.84375,197127.546875,235159.40625,219199.8125,230762.546875,176340.34375,-705721.9375,182907.640625,-0.030029296875,0.961669921875,-0.276611328125,-4.180907726287842,-0.3051757514476776,0.5187987685203552,93.33334350585938,42585.0,1.0
12:00:38.001252,201685.515625,197153.390625,235177.109375,219210.8125,230802.78125,176366.09375,-705711.375,182920.0625,-0.028076171875,0.958984375,-0.275146484375,-3.936767339706421,-0.3356933295726776,0.5187987685203552,93.33334350585938,42586.0,1.0
12:00:38.018357,201672.46875,197130.234375,235172.375,219207.40625,230804.65625,176343.296875,-705717.0,182916.765625,-0.029296875,0.9580078125,-0.274658203125,-3.662109136581421,-0.1525878757238388,0.4577636420726776,93.33334350585938,42587.0,1.0
12:00:38.018386,201658.609375,197112.09375,235158.25,219211.078125,230764.15625,176315.03125,-705720.4375,182915.15625,-0.0283203125,0.956298828125,-0.2734375,-3.417968511581421,-0.1525878757238388,0.3662109076976776,93.33334350585938,42588.0,1.0
12:00:38.020985,201664.78125,197131.484375,235162.265625,219220.5625,230761.75,176334.171875,-705717.5625,182919.625,-0.02880859375,0.95556640625,-0.275634765625,-3.082275152206421,-0.1220703050494194,0.3967284858226776,93.33334350585938,42589.0,1.0
12:00:38.020999,201691.515625,197173.515625,235184.53125,219229.765625,230806.265625,176381.921875,-705708.0,182932.765625,-0.030029296875,0.956787109375,-0.2763671875,-2.807616949081421,-0.0610351525247097,0.3051757514476776,93.33334350585938,42590.0,1.0
12:00:38.025208,201693.203125,197158.75,235186.046875,219232.890625,230818.515625,176366.359375,-705704.5,182930.984375,-0.028564453125,0.960693359375,-0.2744140625,-2.563476324081421,0.0610351525247097,0.3356933295726776,93.33334350585938,42591.0,1.0
12:00:38.025223,201674.53125,197144.453125,235175.140625,219216.984375,230786.6875,176352.953125,-705711.3125,182922.9375,-0.029541015625,0.9619140625,-0.2734375,-2.319335699081421,0.2136230319738388,0.3662109076976776,93.33334350585938,42592.0,1.0
12:00:38.025227,201662.90625,197126.578125,235160.21875,219208.390625,230759.15625,176328.890625,-705721.5625,182914.703125,-0.0302734375,0.96484375,-0.271728515625,-2.136230230331421,0.2746581733226776,0.2136230319738388,93.33334350585938,42593.0,1.0
12:00:38.027746,201701.078125,197171.71875,235189.71875,219234.40625,230806.71875,176377.265625,-705715.625,182934.546875,-0.02685546875,0.967041015625,-0.270263671875,-1.9836424589157104,0.2746581733226776,0.1525878757238388,93.33334350585938,42594.0,1.0
12:00:38.031483,201708.671875,197176.640625,235201.875,219239.15625,230833.890625,176385.84375,-705707.375,182943.3125,-0.025634765625,0.9677734375,-0.27392578125,-1.8005369901657104,0.3662109076976776,0.2441406100988388,93.33334350585938,42595.0,1.0
12:00:38.045257,201686.140625,197141.328125,235187.125,219254.796875,230801.625,176346.515625,-705704.6875,182945.375,-0.023193359375,0.969482421875,-0.27099609375,-1.7089842557907104,0.4882812201976776,0.3051757514476776,93.33334350585938,42596.0,1.0
12:00:38.049538,201674.4375,197147.84375,235174.25,219218.671875,230772.46875,176347.9375,-705710.25,182925.609375,-0.0263671875,0.970458984375,-0.273193359375,-1.6479490995407104,0.5493163466453552,0.3662109076976776,93.33334350585938,42597.0,1.0
12:00:38.049559,201691.0625,197168.234375,235183.8125,219221.71875,230799.296875,176374.5,-705706.625,182929.015625,-0.025390625,0.97265625,-0.2724609375,-1.5563963651657104,0.6408690810203552,0.3967284858226776,93.33334350585938,42598.0,1.0
12:00:38.053323,201701.34375,197182.8125,235195.265625,219233.875,230830.5,176393.53125,-705708.25,182939.03125,-0.0263671875,0.975830078125,-0.27392578125,-1.4953612089157104,0.7934569716453552,0.4882812201976776,93.33334350585938,42599.0,1.0
12:00:38.053354,201680.609375,197148.296875,235181.9375,219221.09375,230806.09375,176366.265625,-705710.25,182929.8125,-0.024169921875,0.9765625,-0.27294921875,-1.4038084745407104,0.8544921278953552,0.5187987685203552,93.33334350585938,42600.0,1.0
12:00:38.067718,201682.578125,197153.578125,235182.46875,219227.34375,230785.078125,176359.921875,-705705.75,182934.546875,-0.024169921875,0.9775390625,-0.27734375,-1.4038084745407104,0.9765624403953552,0.6103515028953552,93.33334350585938,42601.0,1.0
12:00:38.072504,201696.875,197167.421875,235187.5625,219234.59375,230800.1875,176381.46875,-705705.5625,182937.765625,-0.025390625,0.97607421875,-0.272705078125,-1.4343260526657104,0.9460448622703552,0.6103515028953552,93.33334350585938,42602.0,1.0
12:00:38.072531,201714.765625,197191.921875,235205.09375,219243.71875,230838.8125,176400.6875,-705698.625,182949.578125,-0.0263671875,0.97705078125,-0.2734375,-1.3732908964157104,1.0681151151657104,0.4882812201976776,93.33334350585938,42603.0,1.0
12:00:38.074509,201693.203125,197155.0,235191.6875,219236.46875,230820.578125,176376.640625,-705702.25,182942.6875,-0.027099609375,0.97802734375,-0.277099609375,-1.4343260526657104,1.0986326932907104,0.4882812201976776,93.33334350585938,42604.0,1.0
12:00:38.074520,201678.734375,197159.03125,235179.25,219226.1875,230786.15625,176384.59375,-705707.375,182931.609375,-0.02783203125,0.98046875,-0.278076171875,-1.4648436307907104,1.0681151151657104,0.5187987685203552,93.33334350585938,42605.0,1.0
12:00:38.086122,201683.734375,197158.484375,235175.765625,219222.875,230788.296875,176365.375,-705696.0,182928.203125,-0.0322265625,0.9814453125,-0.27587890625,-1.5258787870407104,1.1596678495407104,0.5493163466453552,93.33334350585938,42606.0,1.0
12:00:38.090897,201700.28125,197173.0625,235191.328125,219236.921875,230827.1875,176383.875,-705694.125,182942.59375,-0.0322265625,0.981201171875,-0.2734375,-1.6479490995407104,1.1901854276657104,0.5798339247703552,93.33334350585938,42607.0,1.0
12:00:38.090941,201698.671875,197196.671875,235202.671875,219255.78125,230837.65625,176401.046875,-705699.875,182956.09375,-0.034912109375,0.98095703125,-0.27197265625,-1.7395018339157104,1.0986326932907104,0.5493163466453552,93.33334350585938,42608.0,1.0
12:00:38.106681,201668.4375,197124.609375,235171.65625,219220.015625,230784.359375,176349.015625,-705711.125,182933.65625,-0.03759765625,0.981201171875,-0.2705078125,-1.9531248807907104,1.0070799589157104,0.4882812201976776,93.33334350585938,42609.0,1.0
12:00:38.106718,201686.78125,197177.078125,235182.65625,219227.796875,230793.21875,176398.640625,-705702.375,182933.84375,-0.044189453125,0.98193359375,-0.271484375,-2.105712652206421,0.8544921278953552,0.4577636420726776,93.33334350585938,42610.0,1.0
12:00:38.108368,201694.8125,197169.390625,235182.921875,219220.90625,230814.765625,176374.859375,-705694.5625,182933.03125,-0.04443359375,0.98291015625,-0.2734375,-2.349853277206421,0.5798339247703552,0.3967284858226776,93.33334350585938,42611.0,1.0
12:00:38.108392,201687.671875,197159.109375,235184.53125,219222.609375,230823.796875,176378.25,-705697.25,182935.359375,-0.044677734375,0.9814453125,-0.274658203125,-2.380370855331421,0.3967284858226776,0.3967284858226776,93.33334350585938,42612.0,1.0
12:00:38.114802,201673.453125,197138.015625,235173.359375,219223.859375,230789.46875,176357.15625,-705704.0625,182934.375,-0.045654296875,0.982666015625,-0.27392578125,-2.502441167831421,0.0610351525247097,0.3051757514476776,93.33334350585938,42613.0,1.0
12:00:38.114812,201671.9375,197144.984375,235166.109375,219217.609375,230775.78125,176361.53125,-705705.875,182926.5,-0.04296875,0.981689453125,-0.275634765625,-2.655029058456421,-0.0915527269244194,0.3356933295726776,93.33334350585938,42614.0,1.0
12:00:38.122087,201701.890625,197187.015625,235189.8125,219229.140625,230820.21875,176414.453125,-705692.0625,182940.984375,-0.04150390625,0.978515625,-0.274658203125,-2.746581792831421,-0.3662109076976776,0.4272460639476776,93.33334350585938,42615.0,1.0
12:00:38.122110,201705.375,197192.28125,235199.734375,219234.328125,230841.671875,176430.46875,-705702.875,182947.15625,-0.037109375,0.9775390625,-0.274658203125,-2.746581792831421,-0.4577636420726776,0.3967284858226776,93.33334350585938,42616.0,1.0
12:00:38.128249,201674.96875,197136.21875,235171.65625,219218.859375,230792.5,176345.53125,-705704.75,182933.03125,-0.033935546875,0.9755859375,-0.275634765625,-2.807616949081421,-0.5798339247703552,0.4577636420726776,93.33334350585938,42617.0,1.0
12:00:38.128262,201685.703125,197166.890625,235180.78125,219235.046875,230788.03125,176375.203125,-705700.125,182942.421875,-0.03271484375,0.9775390625,-0.271484375,-2.929687261581421,-0.7324218153953552,0.5187987685203552,93.33334350585938,42618.0,1.0
12:00:38.134510,201706.796875,197188.703125,235194.09375,219258.375,230819.40625,176399.34375,-705696.5625,182956.453125,-0.031982421875,0.97802734375,-0.27392578125,-2.990722417831421,-0.7934569716453552,0.7019042372703552,93.33334350585938,42619.0,1.0
12:00:38.134602,201700.1875,197170.5625,235188.46875,219210.1875,230831.03125,176387.8125,-705691.625,182935.8125,-0.0322265625,0.97802734375,-0.2744140625,-3.112792730331421,-0.7324218153953552,0.8239745497703552,93.33334350585938,42620.0,1.0
12:00:38.136451,201685.875,197159.46875,235181.484375,219217.0625,230806.71875,176378.15625,-705695.5,182935.53125,-0.03271484375,0.978515625,-0.275390625,-3.234863042831421,-0.6713866591453552,0.9155272841453552,93.33334350585938,42621.0,1.0
12:00:38.153026,201683.640625,197154.828125,235177.640625,219221.8125,230784.1875,176373.875,-705694.25,182936.078125,-0.03271484375,0.9775390625,-0.27734375,-3.234863042831421,-0.6103515028953552,0.9765624403953552,93.33334350585938,42622.0,1.0
12:00:38.156318,201704.65625,197185.671875,235190.703125,219231.46875,230811.546875,176399.96875,-705696.4375,182945.546875,-0.033935546875,0.976318359375,-0.27587890625,-3.204345464706421,-0.5493163466453552,1.0681151151657104,93.33334350585938,42623.0,1.0
12:00:38.156331,201708.953125,197181.5625,235193.46875,219229.578125,230834.078125,176398.015625,-705704.0,182946.359375,-0.037353515625,0.972412109375,-0.27197265625,-3.387450933456421,-0.6408690810203552,1.0986326932907104,93.33334350585938,42624.0,1.0
12:00:38.156335,201694.28125,197153.125,235184.984375,219227.34375,230814.046875,176371.8125,-705702.4375,182931.15625,-0.0390625,0.97265625,-0.27392578125,-3.234863042831421,-0.6713866591453552,1.0375975370407104,93.33334350585938,42625.0,1.0
12:00:38.158976,201682.578125,197154.28125,235174.421875,219221.71875,230782.9375,176370.203125,-705713.8125,182906.125,-0.036865234375,0.97119140625,-0.272705078125,-3.204345464706421,-0.7934569716453552,0.9460448622703552,93.33334350585938,42626.0,1.0
12:00:38.162338,201690.796875,197169.125,235176.125,219221.8125,230795.546875,176381.5625,-705718.75,182900.3125,-0.03564453125,0.970458984375,-0.275146484375,-3.204345464706421,-0.7629393935203552,1.0070799589157104,93.33334350585938,42627.0,1.0
12:00:38.196585,201713.59375,197192.828125,235197.9375,219234.140625,230839.078125,176403.46875,-705703.875,182913.625,-0.035888671875,0.969482421875,-0.274169921875,-3.112792730331421,-0.9155272841453552,0.9765624403953552,93.33334350585938,42628.0,1.0
12:00:38.224525,201712.796875,197195.0625,235207.421875,219262.9375,230843.109375,176410.796875,-705704.875,182928.03125,-0.033935546875,0.9677734375,-0.275146484375,-3.021239995956421,-1.0070799589157104,0.9155272841453552,93.33334350585938,42629.0,1.0
12:00:38.224575,201694.109375,197164.84375,235187.84375,219227.53125,230801.265625,176390.140625,-705710.5625,182910.40625,-0.03515625,0.966796875,-0.274169921875,-2.868652105331421,-1.0375975370407104,0.9155272841453552,93.33334350585938,42630.0,1.0
12:00:38.240226,201701.171875,197177.4375,235188.734375,219229.140625,230808.859375,176422.78125,-705702.125,182909.15625,-0.033203125,0.96826171875,-0.27001953125,-2.807616949081421,-1.0070799589157104,0.8850097060203552,93.33334350585938,42631.0,1.0
12:00:38.243481,201709.03125,197177.171875,235188.109375,219227.796875,230827.640625,176379.765625,-705696.0,182910.328125,-0.03369140625,0.9697265625,-0.27294921875,-2.716064214706421,-1.0070799589157104,0.9155272841453552,93.33334350585938,42632.0,1.0
12:00:38.243520,201700.71875,197184.953125,235190.78125,219222.515625,230830.671875,176394.515625,-705704.0,182906.484375,-0.033935546875,0.97265625,-0.268798828125,-2.655029058456421,-1.0375975370407104,0.8850097060203552,93.33334350585938,42633.0,1.0
12:00:38.245295,201688.390625,197155.0,235181.9375,219228.25,230798.140625,176366.984375,-705700.9375,182909.4375,-0.033935546875,0.9775390625,-0.266845703125,-2.685546636581421,-0.9765624403953552,0.8544921278953552,93.33334350585938,42634.0,1.0
12:00:38.247819,201694.8125,197171.8125,235185.875,219231.90625,230800.09375,176383.796875,-705706.3125,182914.4375,-0.031494140625,0.98388671875,-0.271484375,-2.746581792831421,-0.9765624403953552,0.8239745497703552,93.33334350585938,42635.0,1.0
12:00:38.251186,201717.984375,197210.703125,235202.671875,219233.875,230837.734375,176409.625,-705714.5,182920.78125,-0.02978515625,0.98583984375,-0.27294921875,-2.868652105331421,-0.9155272841453552,0.8850097060203552,93.33334350585938,42636.0,1.0
12:00:38.251212,201707.25,197176.015625,235197.5,219226.1875,230840.15625,176398.546875,-705720.75,182916.046875,-0.02685546875,0.987548828125,-0.269287109375,-3.021239995956421,-0.8850097060203552,0.9765624403953552,93.33334350585938,42637.0,1.0
12:00:38.256428,201679.0,197147.671875,235175.859375,219213.9375,230795.1875,176365.203125,-705720.6875,182902.8125,-0.026123046875,0.98681640625,-0.2685546875,-3.204345464706421,-0.7629393935203552,0.9460448622703552,93.33334350585938,42638.0,1.0
12:00:38.258992,201698.671875,197174.84375,235189.8125,219232.53125,230800.015625,176388.0,-705710.5625,182916.5,-0.024658203125,0.984375,-0.2685546875,-3.295898199081421,-0.7324218153953552,1.0681151151657104,93.33334350585938,42639.0,1.0
12:00:38.263167,201728.4375,197206.328125,235211.078125,219262.75,230841.578125,176419.5625,-705710.75,182935.984375,-0.024169921875,0.9794921875,-0.270263671875,-3.417968511581421,-0.5798339247703552,1.2207030057907104,93.33334350585938,42640.0,1.0
12:00:38.264224,201712.96875,197188.078125,235200.625,219228.328125,230843.90625,176407.484375,-705715.0625,182917.75,-0.02685546875,0.972900390625,-0.2734375,-3.448486089706421,-0.5187987685203552,1.2817381620407104,93.33334350585938,42641.0,1.0
12:00:38.266669,201684.359375,197152.671875,235177.28125,219210.546875,230800.90625,176365.828125,-705716.375,182901.203125,-0.0283203125,0.968017578125,-0.2763671875,-3.479003667831421,-0.4272460639476776,1.3122557401657104,93.33334350585938,42642.0,1.0
12:00:38.268993,201685.4375,197158.84375,235175.953125,219221.1875,230786.953125,176374.578125,-705714.4375,182905.046875,-0.0302734375,0.966552734375,-0.274169921875,-3.387450933456421,-0.3051757514476776,1.4038084745407104,93.33334350585938,42643.0,1.0
12:00:38.271435,201703.40625,197174.765625,235184.984375,219228.421875,230812.96875,176390.046875,-705715.5,182912.640625,-0.02978515625,0.965087890625,-0.276123046875,-3.234863042831421,-0.1220703050494194,1.3427733182907104,93.33334350585938,42644.0,1.0
12:00:38.274106,201709.9375,197181.015625,235194.71875,219230.296875,230840.25,176399.625,-705722.125,182919.796875,-0.02978515625,0.96630859375,-0.2734375,-3.112792730331421,-0.0610351525247097,1.3732908964157104,93.33334350585938,42645.0,1.0
12:00:38.276437,201692.234375,197163.234375,235184.796875,219227.53125,230814.5,176377.984375,-705723.75,182916.5,-0.028564453125,0.9619140625,-0.27490234375,-2.868652105331421,0.1220703050494194,1.3732908964157104,93.33334350585938,42646.0,1.0
12:00:38.279365,201684.53125,197157.59375,235174.15625,219226.640625,230784.984375,176367.25,-705720.0625,182911.125,-0.025390625,0.962158203125,-0.275146484375,-2.471923589706421,0.1525878757238388,1.3122557401657104,93.33334350585938,42647.0,1.0
12:00:38.284038,201696.15625,197164.125,235176.75,219227.265625,230801.265625,176377.265625,-705723.1875,182914.078125,-0.024658203125,0.96240234375,-0.2763671875,-2.380370855331421,0.2136230319738388,1.1901854276657104,93.33334350585938,42648.0,1.0
12:00:38.284065,201709.125,197175.125,235189.171875,219231.375,230834.25,176391.578125,-705721.6875,182922.296875,-0.02392578125,0.9677734375,-0.27734375,-2.227782964706421,0.3051757514476776,1.1596678495407104,93.33334350585938,42649.0,1.0
12:00:38.287050,201700.90625,197165.640625,235187.125,219233.609375,230821.015625,176379.953125,-705727.9375,182923.015625,-0.02294921875,0.96923828125,-0.2763671875,-2.136230230331421,0.4577636420726776,1.1291502714157104,93.33334350585938,42650.0,1.0
12:00:38.287069,201700.1875,197166.265625,235187.125,219242.375,230797.78125,176378.15625,-705735.25,182928.5625,-0.02197265625,0.97412109375,-0.2734375,-2.227782964706421,0.6103515028953552,1.0986326932907104,93.33334350585938,42651.0,1.0
12:00:38.289053,201707.25,197176.015625,235189.171875,219240.21875,230809.84375,176389.875,-705726.3125,182928.03125,-0.0224609375,0.975830078125,-0.272216796875,-2.105712652206421,0.8544921278953552,1.1901854276657104,93.33334350585938,42652.0,1.0
12:00:38.293969,201722.796875,197190.3125,235203.75,219243.71875,230846.328125,176406.953125,-705720.6875,182936.609375,-0.022216796875,0.9755859375,-0.274169921875,-2.166747808456421,0.9460448622703552,1.2512205839157104,93.33334350585938,42653.0,1.0
12:00:38.294010,201718.609375,197185.578125,235207.78125,219246.3125,230844.453125,176402.5625,-705713.1875,182939.375,-0.025390625,0.974365234375,-0.2705078125,-2.075195074081421,1.1291502714157104,1.1291502714157104,93.33334350585938,42654.0,1.0
12:00:38.294021,201701.34375,197168.234375,235191.421875,219241.65625,230803.59375,176380.125,-705722.5625,182931.953125,-0.02734375,0.975341796875,-0.271240234375,-2.044677495956421,1.2512205839157104,0.9460448622703552,93.33334350585938,42655.0,1.0
12:00:38.295809,201693.921875,197165.90625,235178.890625,219229.578125,230796.25,176379.234375,-705725.8125,182921.046875,-0.030029296875,0.977294921875,-0.274169921875,-2.014159917831421,1.2817381620407104,0.8850097060203552,93.33334350585938,42656.0,1.0
12:00:38.295843,201713.6875,197180.484375,235192.75,219236.109375,230832.015625,176396.3125,-705724.4375,182931.0625,-0.03173828125,0.978515625,-0.27197265625,-2.014159917831421,1.1901854276657104,0.8544921278953552,93.33334350585938,42657.0,1.0
12:00:38.297699,201708.859375,197179.5,235194.90625,219233.15625,230836.84375,176398.09375,-705724.1875,182930.078125,-0.031005859375,0.981201171875,-0.274169921875,-2.075195074081421,1.3427733182907104,0.7934569716453552,93.33334350585938,42658.0,1.0
12:00:38.301179,201700.453125,197172.4375,235191.328125,219238.4375,230812.890625,176393.09375,-705722.9375,182935.890625,-0.0302734375,0.98095703125,-0.274658203125,-2.075195074081421,1.3122557401657104,0.7019042372703552,93.33334350585938,42659.0,1.0
12:00:38.301209,201712.703125,197187.359375,235196.59375,219245.671875,230814.859375,176404.796875,-705717.75,182939.375,-0.02734375,0.980224609375,-0.274658203125,-2.227782964706421,1.3122557401657104,0.5798339247703552,93.33334350585938,42660.0,1.0
12:00:38.304427,201727.09375,197197.46875,235200.625,219242.546875,230838.453125,176413.921875,-705714.5,182937.765625,-0.026123046875,0.98046875,-0.275634765625,-2.197265386581421,1.4038084745407104,0.5187987685203552,93.33334350585938,42661.0,1.0
12:00:38.308989,201705.546875,197173.328125,235186.234375,219224.671875,230831.484375,176390.953125,-705715.75,182922.21875,-0.024658203125,0.9794921875,-0.276611328125,-2.319335699081421,1.5258787870407104,0.3662109076976776,93.33334350585938,42662.0,1.0
12:00:38.313024,201686.859375,197152.046875,235173.796875,219222.875,230794.828125,176367.15625,-705721.125,182917.75,-0.023193359375,0.9775390625,-0.277099609375,-2.349853277206421,1.5869139432907104,0.2746581733226776,93.33334350585938,42663.0,1.0
12:00:38.317089,201683.203125,197151.78125,235167.0,219219.484375,230779.890625,176365.828125,-705724.6875,182912.46875,-0.023681640625,0.97705078125,-0.275390625,-2.380370855331421,1.7700194120407104,0.0915527269244194,93.33334350585938,42664.0,1.0
12:00:38.317128,201710.5625,197177.171875,235187.125,219231.46875,230821.828125,176394.171875,-705726.3125,182926.953125,-0.024658203125,0.976806640625,-0.276123046875,-2.349853277206421,1.8615721464157104,0.0610351525247097,93.33334350585938,42665.0,1.0
12:00:38.323741,201724.765625,197193.625,235205.625,219241.921875,230853.828125,176412.578125,-705723.4375,182940.8125,-0.02783203125,0.984130859375,-0.27783203125,-2.532958745956421,2.075195074081421,0.0,93.33334350585938,42666.0,1.0
12:00:38.323786,201705.1875,197171.0,235192.125,219236.5625,230817.890625,176387.453125,-705726.3125,182933.03125,-0.0283203125,0.989013671875,-0.280029296875,-2.624511480331421,2.136230230331421,0.03051757626235485,93.33334350585938,42667.0,1.0
12:00:38.332385,201685.609375,197154.015625,235171.75,219224.40625,230783.828125,176369.390625,-705733.625,182919.796875,-0.02685546875,0.990966796875,-0.27392578125,-2.899169683456421,2.227782964706421,0.0915527269244194,93.33334350585938,42668.0,1.0
12:00:38.332428,201708.671875,197179.671875,235188.28125,219234.5,230818.25,176395.953125,-705725.1875,182930.34375,-0.025390625,0.984619140625,-0.2744140625,-2.929687261581421,2.288818120956421,0.2746581733226776,93.33334350585938,42669.0,1.0
12:00:38.332753,201704.46875,197175.828125,235184.265625,219221.09375,230830.40625,176392.640625,-705721.875,182920.34375,-0.026123046875,0.97705078125,-0.2744140625,-3.082275152206421,2.471923589706421,0.3356933295726776,93.33334350585938,42670.0,1.0
12:00:38.345103,201692.671875,197164.5625,235175.765625,219217.6875,230805.640625,176377.09375,-705720.6875,182912.203125,-0.026123046875,0.972900390625,-0.277099609375,-2.990722417831421,2.532958745956421,0.2441406100988388,93.33334350585938,42671.0,1.0
12:00:38.348933,201689.28125,197164.125,235172.8125,219221.1875,230783.46875,176375.390625,-705722.3125,182912.5625,-0.030517578125,0.968017578125,-0.2763671875,-2.960204839706421,2.655029058456421,0.2441406100988388,93.33334350585938,42672.0,1.0
12:00:38.348947,201700.28125,197178.96875,235178.71875,219223.328125,230802.15625,176391.125,-705716.25,182916.21875,-0.032958984375,0.968017578125,-0.275634765625,-2.899169683456421,2.685546636581421,0.2746581733226776,93.33334350585938,42673.0,1.0
12:00:38.348951,201716.71875,197196.84375,235194.640625,219229.765625,230840.421875,176411.234375,-705706.9375,182927.9375,-0.03662109375,0.972900390625,-0.27294921875,-2.929687261581421,2.593993902206421,0.3356933295726776,93.33334350585938,42674.0,1.0
12:00:38.351477,201697.140625,197171.984375,235183.71875,219221.265625,230820.578125,176388.796875,-705714.875,182919.0,-0.036376953125,0.97119140625,-0.271484375,-2.929687261581421,2.471923589706421,0.5493163466453552,93.33334350585938,42675.0,1.0
12:00:38.363962,201681.859375,197159.46875,235169.515625,219214.828125,230783.828125,176373.6875,-705728.5625,182909.875,-0.0390625,0.97509765625,-0.2744140625,-2.868652105331421,2.349853277206421,0.6713866591453552,93.33334350585938,42676.0,1.0
12:00:38.363993,201692.046875,197173.0625,235175.140625,219217.515625,230798.3125,176387.734375,-705735.1875,182914.25,-0.037109375,0.975341796875,-0.27490234375,-2.960204839706421,2.136230230331421,0.7934569716453552,93.33334350585938,42677.0,1.0
12:00:38.368309,201707.875,197184.234375,235185.328125,219220.828125,230830.953125,176401.40625,-705728.125,182920.609375,-0.0380859375,0.973876953125,-0.2763671875,-2.868652105331421,2.105712652206421,0.8850097060203552,93.33334350585938,42678.0,1.0
12:00:38.368330,201702.234375,197176.90625,235187.03125,219223.78125,230828.890625,176394.609375,-705722.75,182922.9375,-0.0419921875,0.97314453125,-0.27587890625,-3.021239995956421,2.044677495956421,0.9155272841453552,93.33334350585938,42679.0,1.0
12:00:38.375411,201692.046875,197165.46875,235178.625,219226.015625,230795.984375,176379.6875,-705720.6875,182922.21875,-0.042724609375,0.970947265625,-0.27197265625,-2.929687261581421,1.8615721464157104,1.0070799589157104,93.33334350585938,42680.0,1.0
12:00:38.379339,201698.21875,197174.5,235178.1875,219226.28125,230798.140625,176389.515625,-705724.0625,182921.046875,-0.045166015625,0.969482421875,-0.27001953125,-2.899169683456421,1.5869139432907104,1.0986326932907104,93.33334350585938,42681.0,1.0
12:00:38.389569,201714.3125,197187.453125,235187.390625,219228.515625,230831.84375,176407.3125,-705731.25,182928.03125,-0.047607421875,0.97314453125,-0.272705078125,-2.929687261581421,1.4038084745407104,1.0986326932907104,93.33334350585938,42682.0,1.0
12:00:38.389590,201710.5625,197183.078125,235189.453125,219228.25,230837.03125,176403.90625,-705732.375,182930.265625,-0.046875,0.97265625,-0.272705078125,-2.929687261581421,1.1596678495407104,1.1901854276657104,93.33334350585938,42683.0,1.0
12:00:38.391993,201693.296875,197165.546875,235176.9375,219224.21875,230799.125,176384.78125,-705723.4375,182925.515625,-0.047607421875,0.972900390625,-0.271240234375,-2.868652105331421,0.9460448622703552,1.3427733182907104,93.33334350585938,42684.0,1.0
12:00:38.392013,201688.65625,197165.90625,235167.0,219216.625,230785.171875,176384.15625,-705724.8125,182914.171875,-0.046875,0.971435546875,-0.27197265625,-2.899169683456421,0.5798339247703552,1.4343260526657104,93.33334350585938,42685.0,1.0
12:00:38.401509,201705.8125,197174.140625,235176.21875,219219.9375,230815.5625,176393.453125,-705717.375,182918.375,-0.04541015625,0.972900390625,-0.272216796875,-2.990722417831421,0.3356933295726776,1.5869139432907104,93.33334350585938,42686.0,1.0
12:00:38.410787,201709.484375,197179.5,235185.953125,219222.4375,230833.09375,176399.53125,-705715.0,182922.75,-0.048095703125,0.971435546875,-0.270751953125,-2.868652105331421,0.03051757626235485,1.7089842557907104,93.33334350585938,42687.0,1.0
12:00:38.410808,201701.96875,197170.640625,235183.09375,219229.3125,230806.53125,176387.453125,-705720.125,182927.046875,-0.049072265625,0.97216796875,-0.27099609375,-2.899169683456421,-0.2136230319738388,1.8005369901657104,93.33334350585938,42688.0,1.0
12:00:38.413388,201698.75,197173.328125,235177.5625,219226.28125,230789.90625,176388.0,-705720.3125,182921.328125,-0.0498046875,0.97265625,-0.269775390625,-2.868652105331421,-0.5187987685203552,1.8310545682907104,93.33334350585938,42689.0,1.0
12:00:38.413414,201706.078125,197182.984375,235177.015625,219218.5,230809.046875,176397.203125,-705728.8125,182916.046875,-0.048095703125,0.9736328125,-0.27001953125,-2.868652105331421,-0.8239745497703552,1.9226073026657104,93.33334350585938,42690.0,1.0
12:00:38.420217,201711.890625,197186.03125,235185.328125,219221.71875,230830.859375,176402.5625,-705735.0625,182920.609375,-0.04736328125,0.97314453125,-0.27099609375,-2.868652105331421,-1.2207030057907104,2.136230230331421,93.33334350585938,42691.0,1.0
12:00:38.424563,201694.46875,197157.953125,235173.53125,219221.546875,230799.75,176375.390625,-705735.5625,182917.75,-0.047119140625,0.9736328125,-0.271484375,-2.899169683456421,-1.3427733182907104,2.258300542831421,93.33334350585938,42692.0,1.0
12:00:38.424579,201693.75,197165.1875,235171.125,219222.796875,230781.859375,176378.703125,-705728.625,182917.5625,-0.045166015625,0.974365234375,-0.271728515625,-2.899169683456421,-1.6174315214157104,2.319335699081421,93.33334350585938,42693.0,1.0
12:00:38.436623,201715.203125,197185.046875,235182.734375,219230.21875,230809.578125,176398.546875,-705721.6875,182925.171875,-0.044921875,0.97314453125,-0.272705078125,-2.838134527206421,-1.9531248807907104,2.380370855331421,93.33334350585938,42694.0,1.0
12:00:38.440754,201714.484375,197183.25,235184.34375,219224.9375,230829.6875,176397.46875,-705722.6875,182922.03125,-0.04443359375,0.977294921875,-0.26904296875,-2.807616949081421,-2.075195074081421,2.624511480331421,93.33334350585938,42695.0,1.0
12:00:38.440780,201698.671875,197160.71875,235174.875,219224.484375,230808.421875,176375.296875,-705731.6875,182919.359375,-0.041015625,0.97509765625,-0.268310546875,-2.838134527206421,-2.349853277206421,2.685546636581421,93.33334350585938,42696.0,1.0
12:00:38.447065,201689.984375,197152.953125,235164.59375,219224.21875,230778.640625,176365.90625,-705733.1875,182916.9375,-0.037841796875,0.975341796875,-0.26806640625,-2.838134527206421,-2.502441167831421,2.838134527206421,93.33334350585938,42697.0,1.0
12:00:38.447081,201707.34375,197169.578125,235174.25,219226.71875,230800.546875,176385.046875,-705725.875,182921.671875,-0.036865234375,0.97607421875,-0.268798828125,-2.807616949081421,-2.716064214706421,2.990722417831421,93.33334350585938,42698.0,1.0
12:00:38.450257,201720.296875,197181.5625,235185.609375,219227.171875,230832.640625,176399.171875,-705722.9375,182927.84375,-0.03564453125,0.97705078125,-0.2666015625,-2.929687261581421,-2.899169683456421,3.112792730331421,93.33334350585938,42699.0,1.0
12:00:38.464534,201709.484375,197168.953125,235182.03125,219228.0625,230821.015625,176385.578125,-705718.75,182927.125,-0.036376953125,0.978515625,-0.27001953125,-3.082275152206421,-2.990722417831421,3.143310308456421,93.33334350585938,42700.0,1.0
12:00:38.464552,201697.0625,197160.09375,235171.75,219222.875,230787.140625,176376.640625,-705723.8125,182920.25,-0.033203125,0.979736328125,-0.271240234375,-3.112792730331421,-3.173827886581421,3.295898199081421,93.33334350585938,42701.0,1.0
12:00:38.467167,201707.609375,197171.984375,235175.328125,219224.9375,230797.859375,176388.53125,-705726.5625,182922.03125,-0.03173828125,0.98291015625,-0.27197265625,-3.265380620956421,-3.234863042831421,3.387450933456421,93.33334350585938,42702.0,1.0
12:00:38.467188,201722.625,197186.734375,235186.234375,219228.15625,230831.484375,176401.140625,-705724.375,182929.09375,-0.029296875,0.984130859375,-0.271484375,-3.356933355331421,-3.356933355331421,3.509521245956421,93.33334350585938,42703.0,1.0
12:00:38.474515,201712.171875,197174.9375,235182.03125,219222.171875,230825.046875,176390.5,-705716.5625,182923.90625,-0.02587890625,0.982666015625,-0.269287109375,-3.479003667831421,-3.387450933456421,3.479003667831421,93.33334350585938,42704.0,1.0
12:00:38.475087,201696.875,197150.796875,235169.0625,219221.359375,230786.0625,176366.359375,-705712.9375,182918.90625,-0.023681640625,0.980712890625,-0.26611328125,-3.662109136581421,-3.387450933456421,3.479003667831421,93.33334350585938,42705.0,1.0
12:00:38.484593,201707.15625,197168.59375,235174.34375,219225.734375,230791.25,176383.96875,-705716.5,182919.890625,-0.02294921875,0.9775390625,-0.27001953125,-3.723144292831421,-3.356933355331421,3.448486089706421,93.33334350585938,42706.0,1.0
12:00:38.484613,201722.71875,197179.59375,235183.1875,219223.859375,230823.34375,176398.015625,-705714.0,182923.015625,-0.022216796875,0.97509765625,-0.2685546875,-3.875732183456421,-3.265380620956421,3.417968511581421,93.33334350585938,42707.0,1.0
12:00:38.486448,201719.9375,197179.765625,235187.03125,219224.9375,230830.046875,176398.1875,-705712.375,182925.96875,-0.02197265625,0.974853515625,-0.269775390625,-3.875732183456421,-3.326415777206421,3.417968511581421,93.33334350585938,42708.0,1.0
12:00:38.490211,201708.953125,197164.75,235180.15625,219229.140625,230799.921875,176382.0,-705709.6875,182927.9375,-0.021728515625,0.9755859375,-0.273193359375,-3.845214605331421,-3.204345464706421,3.295898199081421,93.33334350585938,42709.0,1.0
12:00:38.500872,201714.9375,197171.546875,235181.578125,219231.734375,230796.609375,176389.96875,-705712.1875,182928.109375,-0.021484375,0.975341796875,-0.26904296875,-3.875732183456421,-3.082275152206421,3.204345464706421,93.33334350585938,42710.0,1.0
12:00:38.500887,201731.125,197186.828125,235192.484375,219235.671875,230830.859375,176408.5625,-705708.4375,182935.625,-0.0185546875,0.97216796875,-0.267333984375,-3.845214605331421,-3.021239995956421,3.173827886581421,93.33334350585938,42711.0,1.0
12:00:38.514768,201732.90625,197193.53125,235201.515625,219234.5,230851.78125,176420.453125,-705709.9375,182939.46875,-0.0205078125,0.96826171875,-0.26611328125,-3.845214605331421,-2.929687261581421,3.051757574081421,93.33334350585938,42712.0,1.0
12:00:38.514798,201709.578125,197170.46875,235185.609375,219228.6875,230815.84375,176395.78125,-705714.3125,182934.546875,-0.019775390625,0.96826171875,-0.26953125,-3.814697027206421,-2.777099370956421,2.899169683456421,93.33334350585938,42713.0,1.0
12:00:38.514807,201692.234375,197158.75,235167.0,219215.8125,230786.78125,176381.921875,-705720.75,182921.234375,-0.019287109375,0.967529296875,-0.268798828125,-3.692626714706421,-2.716064214706421,2.777099370956421,93.33334350585938,42714.0,1.0
12:00:38.514813,201695.71875,197155.984375,235162.984375,219207.953125,230803.3125,176385.84375,-705720.25,182916.9375,-0.01806640625,0.963134765625,-0.268798828125,-3.540038824081421,-2.563476324081421,2.655029058456421,93.33334350585938,42715.0,1.0
12:00:38.519283,201697.859375,197160.71875,235168.078125,219205.265625,230822.359375,176390.3125,-705722.5625,182918.546875,-0.018310546875,0.962646484375,-0.2685546875,-3.265380620956421,-2.410888433456421,2.563476324081421,93.33334350585938,42716.0,1.0
12:00:38.529549,201678.734375,197138.015625,235154.046875,219200.4375,230788.921875,176365.734375,-705731.9375,182911.484375,-0.01953125,0.96240234375,-0.267333984375,-3.082275152206421,-2.319335699081421,2.288818120956421,93.33334350585938,42717.0,1.0
12:00:38.529578,201670.046875,197135.875,235142.59375,219198.109375,230761.5625,176361.265625,-705735.0625,182905.046875,-0.019775390625,0.968505859375,-0.266357421875,-2.899169683456421,-2.288818120956421,2.044677495956421,93.33334350585938,42718.0,1.0
12:00:38.532068,201684.453125,197152.140625,235147.609375,219199.640625,230782.484375,176370.734375,-705729.25,182908.0,-0.017578125,0.9716796875,-0.2666015625,-2.899169683456421,-2.197265386581421,1.8310545682907104,93.33334350585938,42719.0,1.0
12:00:38.532091,201700.90625,197170.015625,235164.765625,219205.359375,230816.8125,176393.8125,-705725.1875,182917.296875,-0.017333984375,0.97265625,-0.266845703125,-2.868652105331421,-1.9226073026657104,1.5563963651657104,93.33334350585938,42720.0,1.0
12:00:38.557667,201689.015625,197146.328125,235159.859375,219203.75,230798.40625,176373.0625,-705718.5625,182914.078125,-0.01513671875,0.966796875,-0.267822265625,-2.716064214706421,-1.7700194120407104,1.4038084745407104,93.33334350585938,42721.0,1.0
12:00:38.586672,201689.984375,197152.953125,235159.859375,219210.625,230777.21875,176372.078125,-705720.9375,182917.125,-0.0146484375,0.964599609375,-0.267333984375,-2.502441167831421,-1.6174315214157104,1.3427733182907104,93.33334350585938,42722.0,1.0
12:00:38.586702,201706.4375,197176.015625,235167.625,219212.6875,230797.421875,176392.5625,-705724.8125,182920.6875,-0.0126953125,0.963623046875,-0.267333984375,-2.227782964706421,-1.4648436307907104,1.2512205839157104,93.33334350585938,42723.0,1.0
12:00:38.586709,201714.484375,197175.125,235174.421875,219212.234375,230826.5625,176402.390625,-705721.875,182924.546875,-0.012451171875,0.9658203125,-0.267822265625,-2.044677495956421,-1.4038084745407104,1.0375975370407104,93.33334350585938,42724.0,1.0
12:00:38.586714,201699.828125,197159.296875,235167.984375,219208.9375,230814.578125,176387.90625,-705723.75,182920.96875,-0.013671875,0.9716796875,-0.267578125,-1.9836424589157104,-1.1596678495407104,0.8850097060203552,93.33334350585938,42725.0,1.0
12:00:38.597982,201683.46875,197141.6875,235152.796875,219207.40625,230777.21875,176366.359375,-705726.875,182916.765625,-0.0126953125,0.974853515625,-0.26171875,-1.9531248807907104,-0.8544921278953552,0.7934569716453552,93.33334350585938,42726.0,1.0
12:00:38.598001,201690.703125,197153.484375,235153.859375,219205.359375,230784.71875,176382.453125,-705719.5,182915.421875,-0.012451171875,0.97705078125,-0.2607421875,-1.9226073026657104,-0.7019042372703552,0.6713866591453552,93.33334350585938,42727.0,1.0
12:00:38.598005,201711.09375,197174.671875,235169.0625,219211.078125,230823.078125,176406.140625,-705716.6875,182924.71875,-0.011962890625,0.977783203125,-0.259521484375,-1.9226073026657104,-0.3967284858226776,0.5798339247703552,93.33334350585938,42728.0,1.0
12:00:38.598008,201692.140625,197156.96875,235158.0625,219200.34375,230811.984375,176388.984375,-705727.9375,182915.15625,-0.010498046875,0.97998046875,-0.260009765625,-1.9836424589157104,-0.0610351525247097,0.5493163466453552,93.33334350585938,42729.0,1.0
12:00:38.600237,201677.828125,197146.328125,235146.625,219198.828125,230776.9375,176375.390625,-705725.875,182910.6875,-0.010498046875,0.979736328125,-0.2607421875,-1.8920897245407104,-0.03051757626235485,0.4882812201976776,93.33334350585938,42730.0,1.0
12:00:38.602686,201687.21875,197156.703125,235149.21875,219201.6875,230780.15625,176386.390625,-705718.875,182912.375,-0.00927734375,0.97900390625,-0.25830078125,-1.9226073026657104,0.2136230319738388,0.3967284858226776,93.33334350585938,42731.0,1.0
12:00:38.605165,201700.28125,197161.265625,235157.265625,219201.25,230810.65625,176398.09375,-705717.5625,182916.5,-0.010986328125,0.97705078125,-0.2568359375,-1.8615721464157104,0.3356933295726776,0.2746581733226776,93.33334350585938,42732.0,1.0
12:00:38.612893,201702.859375,197164.5625,235165.84375,219207.6875,230822.546875,176396.578125,-705721.25,182923.109375,-0.010009765625,0.979736328125,-0.256103515625,-1.8310545682907104,0.6408690810203552,0.1525878757238388,93.33334350585938,42733.0,1.0
12:00:38.612940,201690.171875,197148.75,235157.171875,219208.75,230788.75,176376.015625,-705730.5,182922.03125,-0.0107421875,0.97998046875,-0.2568359375,-1.8310545682907104,0.9460448622703552,0.2441406100988388,93.33334350585938,42734.0,1.0
12:00:38.612957,201687.84375,197154.203125,235153.0625,219204.46875,230779.0,176380.84375,-705732.875,182917.390625,-0.010009765625,0.97998046875,-0.26123046875,-1.9836424589157104,1.1291502714157104,0.2136230319738388,93.33334350585938,42735.0,1.0
12:00:38.615208,201705.90625,197173.78125,235164.234375,219204.375,230812.265625,176400.25,-705726.5,182920.25,-0.008056640625,0.9814453125,-0.263427734375,-1.9226073026657104,1.4038084745407104,0.3051757514476776,93.33334350585938,42736.0,1.0
12:00:38.617829,201709.21875,197180.484375,235171.46875,219206.609375,230829.78125,176406.5,-705726.875,182923.109375,-0.011962890625,0.979248046875,-0.265869140625,-1.8310545682907104,1.6174315214157104,0.3356933295726776,93.33334350585938,42737.0,1.0
12:00:38.629451,201687.484375,197152.953125,235156.71875,219201.875,230794.5625,176380.65625,-705718.125,182916.046875,-0.0107421875,0.97705078125,-0.26611328125,-1.8310545682907104,1.7395018339157104,0.3051757514476776,93.33334350585938,42738.0,1.0
12:00:38.629488,201685.96875,197157.5,235153.140625,219202.765625,230778.90625,176381.828125,-705709.5,182914.34375,-0.013916015625,0.971435546875,-0.26611328125,-1.7395018339157104,2.014159917831421,0.2746581733226776,93.33334350585938,42739.0,1.0
12:00:38.629498,201706.71875,197176.453125,235163.703125,219207.6875,230809.125,176403.46875,-705710.6875,182921.859375,-0.01708984375,0.96875,-0.267578125,-1.6479490995407104,2.044677495956421,0.3662109076976776,93.33334350585938,42740.0,1.0
12:00:38.629506,201707.421875,197170.015625,235165.484375,219203.03125,230826.03125,176397.296875,-705708.6875,182919.890625,-0.017822265625,0.968994140625,-0.26904296875,-1.3427733182907104,2.258300542831421,0.1831054538488388,93.33334350585938,42741.0,1.0
12:00:38.629514,201690.625,197153.65625,235155.828125,219202.234375,230797.421875,176379.140625,-705711.75,182914.609375,-0.019775390625,0.967041015625,-0.26953125,-1.3122557401657104,2.410888433456421,-0.0610351525247097,93.33334350585938,42742.0,1.0
12:00:38.630225,201687.21875,197160.8125,235150.90625,219204.28125,230774.0,176381.296875,-705714.625,182912.296875,-0.02197265625,0.96533203125,-0.263671875,-1.0986326932907104,2.593993902206421,-0.1220703050494194,93.33334350585938,42743.0,1.0
12:00:38.633337,201704.46875,197175.921875,235158.515625,219208.578125,230796.4375,176398.984375,-705713.625,182915.953125,-0.023193359375,0.960205078125,-0.263916015625,-0.7934569716453552,2.655029058456421,-0.1831054538488388,93.33334350585938,42744.0,1.0
12:00:38.633424,201707.515625,197169.3125,235162.625,219203.84375,230816.734375,176395.0625,-705705.5,182915.421875,-0.026611328125,0.95849609375,-0.26611328125,-0.6408690810203552,2.593993902206421,-0.3356933295726776,93.33334350585938,42745.0,1.0
12:00:38.639646,201697.140625,197160.71875,235160.5625,219204.28125,230802.609375,176382.90625,-705709.4375,182914.53125,-0.03173828125,0.959716796875,-0.266845703125,-0.3356933295726776,2.685546636581421,-0.5493163466453552,93.33334350585938,42746.0,1.0
12:00:38.647592,201689.90625,197154.375,235153.953125,219206.609375,230775.609375,176373.515625,-705705.125,182915.421875,-0.033935546875,0.962890625,-0.268798828125,-0.2441406100988388,2.624511480331421,-0.6408690810203552,93.33334350585938,42747.0,1.0
12:00:38.647841,201699.828125,197166.265625,235156.09375,219203.65625,230788.75,176386.46875,-705702.375,182913.8125,-0.036865234375,0.969482421875,-0.264404296875,-0.1220703050494194,2.502441167831421,-0.7324218153953552,93.33334350585938,42748.0,1.0
12:00:38.654945,201714.671875,197181.734375,235167.546875,219206.34375,230822.28125,176402.125,-705704.6875,182920.34375,-0.0380859375,0.9716796875,-0.261962890625,-0.03051757626235485,2.258300542831421,-0.8239745497703552,93.33334350585938,42749.0,1.0
12:00:38.655047,201700.0,197168.40625,235159.578125,219200.96875,230808.953125,176390.671875,-705706.625,182914.53125,-0.038330078125,0.972412109375,-0.261474609375,0.03051757626235485,2.105712652206421,-0.8239745497703552,93.33334350585938,42750.0,1.0
12:00:38.656669,201679.890625,197142.21875,235142.0625,219196.0625,230769.078125,176367.25,-705708.8125,182908.171875,-0.03955078125,0.971923828125,-0.262939453125,-0.0610351525247097,1.9226073026657104,-0.8239745497703552,93.33334350585938,42751.0,1.0
12:00:38.674813,201694.640625,197163.234375,235150.640625,219204.015625,230782.671875,176386.46875,-705710.3125,182914.25,-0.0400390625,0.97412109375,-0.263427734375,-0.0610351525247097,1.6479490995407104,-0.7934569716453552,93.33334350585938,42752.0,1.0
12:00:38.675061,201714.84375,197179.765625,235163.78125,219208.390625,230819.328125,176405.78125,-705713.375,182922.125,-0.0390625,0.97802734375,-0.262939453125,0.1220703050494194,1.4343260526657104,-0.6713866591453552,93.33334350585938,42753.0,1.0
12:00:38.677147,201708.59375,197173.6875,235165.484375,219209.46875,230820.390625,176398.015625,-705712.3125,182923.828125,-0.039306640625,0.981201171875,-0.2626953125,0.1831054538488388,1.2512205839157104,-0.7324218153953552,93.33334350585938,42754.0,1.0
12:00:38.679099,201693.75,197161.796875,235154.84375,219207.40625,230785.53125,176382.984375,-705714.4375,182919.625,-0.033447265625,0.98291015625,-0.258544921875,0.2441406100988388,1.1291502714157104,-0.8544921278953552,93.33334350585938,42755.0,1.0
12:00:38.682042,201688.296875,197152.953125,235144.921875,219199.28125,230776.40625,176377.890625,-705704.25,182912.734375,-0.030029296875,0.984130859375,-0.259033203125,0.2136230319738388,1.0681151151657104,-0.8544921278953552,93.33334350585938,42756.0,1.0
12:00:38.684108,201704.296875,197168.953125,235155.65625,219201.875,230810.375,176398.1875,-705700.125,182920.515625,-0.02685546875,0.98291015625,-0.262451171875,0.1220703050494194,1.0375975370407104,-0.8239745497703552,93.33334350585938,42757.0,1.0
12:00:38.691223,201701.703125,197162.59375,235159.859375,219203.125,230820.3125,176394.25,-705705.75,182923.640625,-0.02490234375,0.982421875,-0.2626953125,0.1220703050494194,1.0070799589157104,-0.7019042372703552,93.33334350585938,42758.0,1.0
12:00:38.691316,201686.59375,197147.21875,235149.65625,219200.96875,230787.5,176376.015625,-705707.8125,182920.515625,-0.025390625,0.980224609375,-0.265380859375,0.0915527269244194,1.0986326932907104,-0.6103515028953552,93.33334350585938,42759.0,1.0
12:00:38.692773,201688.734375,197156.4375,235147.15625,219202.046875,230779.265625,176384.421875,-705707.8125,182918.546875,-0.026611328125,0.976806640625,-0.26611328125,0.0915527269244194,1.0375975370407104,-0.5493163466453552,93.33334350585938,42760.0,1.0
12:00:38.701708,201706.796875,197169.578125,235157.171875,219203.75,230810.921875,176401.234375,-705706.9375,182924.8125,-0.028564453125,0.97705078125,-0.264892578125,0.1525878757238388,1.0375975370407104,-0.5187987685203552,93.33334350585938,42761.0,1.0
12:00:38.708827,201708.234375,197170.828125,235163.15625,219203.125,230829.0625,176404.453125,-705707.1875,182926.6875,-0.03076171875,0.977294921875,-0.263916015625,0.1220703050494194,1.0986326932907104,-0.5493163466453552,93.33334350585938,42762.0,1.0
12:00:38.708951,201693.5625,197154.5625,235153.953125,219201.953125,230798.765625,176385.140625,-705703.5,182922.578125,-0.0302734375,0.978271484375,-0.263916015625,0.2136230319738388,1.0375975370407104,-0.4577636420726776,93.33334350585938,42763.0,1.0
12:00:38.717364,201695.53125,197159.03125,235153.78125,219206.96875,230784.359375,176387.28125,-705705.6875,182923.640625,-0.031494140625,0.978515625,-0.2607421875,0.2441406100988388,1.0986326932907104,-0.4882812201976776,93.33334350585938,42764.0,1.0
12:00:38.717453,201717.4375,197182.1875,235171.921875,219215.734375,230820.578125,176413.65625,-705699.25,182935.171875,-0.031005859375,0.976806640625,-0.263671875,0.2746581733226776,0.9460448622703552,-0.5187987685203552,93.33334350585938,42765.0,1.0
12:00:38.720096,201720.5625,197187.453125,235178.8125,219211.96875,230843.734375,176420.890625,-705702.8125,182936.15625,-0.029541015625,0.97705078125,-0.261962890625,0.3967284858226776,0.8850097060203552,-0.3967284858226776,93.33334350585938,42766.0,1.0
12:00:38.720189,201699.828125,197166.625,235161.46875,219205.171875,230808.328125,176397.65625,-705706.8125,182924.8125,-0.02880859375,0.975830078125,-0.259521484375,0.2746581733226776,0.8239745497703552,-0.1831054538488388,93.33334350585938,42767.0,1.0
12:00:38.730361,201686.421875,197150.796875,235143.140625,219198.109375,230771.578125,176377.09375,-705708.25,182914.4375,-0.030517578125,0.97509765625,-0.26123046875,0.3051757514476776,0.7324218153953552,-0.1525878757238388,93.33334350585938,42768.0,1.0
12:00:38.735107,201702.234375,197162.875,235152.4375,219204.015625,230795.453125,176391.390625,-705700.0625,182922.125,-0.02978515625,0.976806640625,-0.2626953125,0.3051757514476776,0.6713866591453552,-0.1525878757238388,93.33334350585938,42769.0,1.0
12:00:38.735183,201712.796875,197176.546875,235163.515625,219201.875,230825.671875,176408.296875,-705698.4375,182923.203125,-0.0322265625,0.9765625,-0.261474609375,0.2746581733226776,0.5493163466453552,-0.0610351525247097,93.33334350585938,42770.0,1.0
12:00:38.737410,201697.0625,197155.0,235152.4375,219198.296875,230803.59375,176387.1875,-705702.375,182916.21875,-0.03271484375,0.977294921875,-0.2607421875,0.3051757514476776,0.5798339247703552,-0.03051757626235485,93.33334350585938,42771.0,1.0
12:00:38.744098,201688.03125,197146.234375,235144.390625,219198.296875,230775.25,176374.40625,-705701.9375,182914.96875,-0.033447265625,0.976318359375,-0.260986328125,0.3051757514476776,0.4882812201976776,0.03051757626235485,93.33334350585938,42772.0,1.0
12:00:38.759632,201699.5625,197159.296875,235147.96875,219198.828125,230788.203125,176387.28125,-705701.125,182914.703125,-0.031005859375,0.976806640625,-0.26318359375,0.2441406100988388,0.4272460639476776,0.1525878757238388,93.33334350585938,42773.0,1.0
12:00:38.759677,201714.484375,197171.984375,235159.9375,219201.875,230820.3125,176403.015625,-705700.5,182921.234375,-0.0302734375,0.97607421875,-0.263671875,0.2136230319738388,0.2746581733226776,0.1525878757238388,93.33334350585938,42774.0,1.0
12:00:38.762002,201696.78125,197153.84375,235151.8125,219197.578125,230808.953125,176386.203125,-705702.1875,182916.84375,-0.031982421875,0.9765625,-0.2646484375,0.3051757514476776,0.1525878757238388,0.2746581733226776,93.33334350585938,42775.0,1.0
12:00:38.762024,201683.828125,197140.703125,235139.734375,219197.84375,230774.0,176369.484375,-705704.3125,182915.234375,-0.031005859375,0.97607421875,-0.263427734375,0.2746581733226776,0.03051757626235485,0.2441406100988388,93.33334350585938,42776.0,1.0
12:00:38.766454,201692.140625,197150.53125,235142.953125,219202.765625,230781.140625,176381.921875,-705709.0,182919.171875,-0.02978515625,0.97705078125,-0.26806640625,0.2746581733226776,0.0915527269244194,0.1831054538488388,93.33334350585938,42777.0,1.0
12:00:38.768965,201704.921875,197164.390625,235152.34375,219203.921875,230813.953125,176398.546875,-705708.0,182926.15625,-0.02880859375,0.97705078125,-0.267333984375,0.2136230319738388,0.03051757626235485,0.2136230319738388,93.33334350585938,42778.0,1.0
12:00:38.783392,201695.984375,197154.375,235149.125,219199.984375,230812.4375,176385.578125,-705708.875,182923.375,-0.02685546875,0.978515625,-0.2685546875,0.2136230319738388,0.0610351525247097,0.1220703050494194,93.33334350585938,42779.0,1.0
12:00:38.783419,201684.1875,197146.6875,235139.734375,219199.640625,230779.0,176377.4375,-705716.3125,182921.5,-0.026611328125,0.978271484375,-0.266357421875,0.2136230319738388,0.03051757626235485,0.2441406100988388,93.33334350585938,42780.0,1.0
12:00:38.785197,201683.109375,197144.0,235132.5,219193.640625,230770.859375,176374.40625,-705714.625,182914.703125,-0.027587890625,0.97998046875,-0.26416015625,0.0610351525247097,0.03051757626235485,0.4577636420726776,93.33334350585938,42781.0,1.0
12:00:38.788285,201696.609375,197151.609375,235139.109375,219192.484375,230800.453125,176384.421875,-705712.375,182917.390625,-0.0283203125,0.97998046875,-0.2666015625,0.0915527269244194,0.0,0.5187987685203552,93.33334350585938,42782.0,1.0
12:00:38.788311,201700.71875,197158.9375,235149.21875,219196.953125,230817.71875,176394.4375,-705716.75,182922.75,-0.029296875,0.97705078125,-0.26904296875,0.0610351525247097,0.0,0.6408690810203552,93.33334350585938,42783.0,1.0
12:00:38.790199,201682.84375,197136.046875,235136.25,219193.828125,230780.34375,176366.71875,-705726.5625,182916.40625,-0.028564453125,0.977783203125,-0.270263671875,0.0,-0.0610351525247097,0.6408690810203552,93.33334350585938,42784.0,1.0
12:00:38.824598,201681.140625,197139.625,235131.15625,219191.59375,230765.328125,176368.765625,-705721.3125,182909.96875,-0.026123046875,0.9765625,-0.26806640625,0.0,0.03051757626235485,0.5493163466453552,93.33334350585938,42785.0,1.0
12:00:38.824624,201704.75,197162.15625,235146.4375,219200.53125,230800.1875,176394.078125,-705717.8125,182920.515625,-0.02587890625,0.975830078125,-0.268798828125,-0.03051757626235485,0.0915527269244194,0.6408690810203552,93.33334350585938,42786.0,1.0
12:00:38.840263,201706.890625,197158.125,235150.90625,219200.078125,230817.890625,176394.078125,-705712.9375,182922.296875,-0.02685546875,0.974609375,-0.270751953125,-0.0915527269244194,0.2136230319738388,0.6408690810203552,93.33334350585938,42787.0,1.0
12:00:38.840291,201691.78125,197145.4375,235142.15625,219199.015625,230789.734375,176375.75,-705720.25,182919.796875,-0.02587890625,0.9755859375,-0.27099609375,-0.1220703050494194,0.1220703050494194,0.6408690810203552,93.33334350585938,42788.0,1.0
12:00:38.840298,201682.75,197142.390625,235132.5,219191.953125,230766.65625,176372.078125,-705720.25,182911.484375,-0.024658203125,0.977294921875,-0.27001953125,-0.1831054538488388,0.2746581733226776,0.6103515028953552,93.33334350585938,42789.0,1.0
12:00:38.843267,201705.546875,197167.515625,235146.4375,219200.890625,230798.484375,176398.015625,-705711.3125,182919.625,-0.02392578125,0.97705078125,-0.273681640625,-0.3051757514476776,0.3051757514476776,0.7019042372703552,93.33334350585938,42790.0,1.0
12:00:38.843282,201712.078125,197170.828125,235154.671875,219201.421875,230824.0625,176403.1875,-705713.1875,182922.390625,-0.026611328125,0.978515625,-0.273681640625,-0.3967284858226776,0.2441406100988388,0.7324218153953552,93.33334350585938,42791.0,1.0
12:00:38.845235,201697.140625,197147.765625,235146.984375,219201.59375,230800.015625,176379.59375,-705708.25,182920.515625,-0.026611328125,0.9794921875,-0.27294921875,-0.4882812201976776,0.2136230319738388,0.7324218153953552,93.33334350585938,42792.0,1.0
12:00:38.847916,201688.46875,197144.265625,235136.421875,219196.234375,230770.59375,176373.515625,-705712.1875,182913.359375,-0.027099609375,0.977294921875,-0.2763671875,-0.6103515028953552,0.3051757514476776,0.6713866591453552,93.33334350585938,42793.0,1.0
12:00:38.850195,201703.9375,197167.96875,235144.921875,219199.546875,230791.78125,176396.671875,-705717.0,182917.296875,-0.02783203125,0.973876953125,-0.27490234375,-0.6713866591453552,0.3662109076976776,0.6103515028953552,93.33334350585938,42794.0,1.0
12:00:38.852690,201716.09375,197173.6875,235155.65625,219202.859375,230822.0,176405.421875,-705712.625,182924.09375,-0.030029296875,0.972412109375,-0.276611328125,-0.7019042372703552,0.3356933295726776,0.6103515028953552,93.33334350585938,42795.0,1.0
12:00:38.855204,201701.53125,197156.34375,235148.859375,219199.28125,230805.90625,176391.390625,-705713.0625,182919.625,-0.02978515625,0.973876953125,-0.276123046875,-0.6103515028953552,0.2441406100988388,0.6103515028953552,93.33334350585938,42796.0,1.0
12:00:38.857704,201689.640625,197146.328125,235138.390625,219198.03125,230773.453125,176381.015625,-705718.25,182916.5,-0.02783203125,0.972900390625,-0.27734375,-0.6408690810203552,0.2746581733226776,0.6103515028953552,93.33334350585938,42797.0,1.0
12:00:38.863759,201700.984375,197157.6875,235142.15625,219201.515625,230786.328125,176388.796875,-705708.375,182919.71875,-0.025390625,0.973876953125,-0.276611328125,-0.5798339247703552,0.2441406100988388,0.5187987685203552,93.33334350585938,42798.0,1.0
12:00:38.863784,201714.765625,197174.5,235153.859375,219203.03125,230819.6875,176404.359375,-705702.875,182926.78125,-0.0244140625,0.97216796875,-0.27685546875,-0.6713866591453552,0.2746581733226776,0.5798339247703552,93.33334350585938,42799.0,1.0
12:00:38.865242,201703.578125,197164.203125,235150.90625,219200.890625,230812.796875,176393.8125,-705707.375,182924.8125,-0.02392578125,0.972900390625,-0.27685546875,-0.6713866591453552,0.2746581733226776,0.5493163466453552,93.33334350585938,42800.0,1.0
12:00:38.868859,201687.75,197145.34375,235136.078125,219197.578125,230774.53125,176374.21875,-705717.125,182918.375,-0.0244140625,0.972412109375,-0.278564453125,-0.7934569716453552,0.2136230319738388,0.4272460639476776,93.33334350585938,42801.0,1.0
12:00:38.869142,201694.640625,197151.421875,235135.890625,219199.015625,230777.84375,176382.453125,-705719.0,182917.203125,-0.025634765625,0.97314453125,-0.277099609375,-0.8544921278953552,0.3356933295726776,0.3967284858226776,93.33334350585938,42802.0,1.0
12:00:38.870352,201709.03125,197165.015625,235146.0,219199.359375,230811.453125,176398.90625,-705727.0625,182922.65625,-0.02880859375,0.972412109375,-0.27783203125,-0.7934569716453552,0.2746581733226776,0.5187987685203552,93.33334350585938,42803.0,1.0
12:00:38.872756,201704.03125,197161.078125,235147.78125,219197.3125,230814.9375,176396.40625,-705721.75,182921.671875,-0.031005859375,0.971923828125,-0.27880859375,-0.7324218153953552,0.3356933295726776,0.4577636420726776,93.33334350585938,42804.0,1.0
12:00:38.879759,201692.40625,197145.703125,235140.09375,219199.90625,230783.296875,176376.546875,-705712.125,182920.875,-0.031005859375,0.972412109375,-0.27685546875,-0.7324218153953552,0.3356933295726776,0.4577636420726776,93.33334350585938,42805.0,1.0
12:00:38.879835,201697.59375,197156.796875,235140.90625,219204.734375,230781.421875,176392.46875,-705712.4375,182921.140625,-0.030517578125,0.97509765625,-0.27783203125,-0.7324218153953552,0.3051757514476776,0.3662109076976776,93.33334350585938,42806.0,1.0
12:00:38.892453,201719.578125,197175.203125,235154.9375,219208.3125,230817.796875,176409.453125,-705708.875,182929.640625,-0.03173828125,0.975830078125,-0.27734375,-0.7629393935203552,0.2746581733226776,0.2746581733226776,93.33334350585938,42807.0,1.0
12:00:38.892547,201712.34375,197167.515625,235152.25,219200.171875,230824.0625,176399.625,-705714.0,182925.078125,-0.031494140625,0.975830078125,-0.275146484375,-0.8544921278953552,0.2441406100988388,0.3051757514476776,93.33334350585938,42808.0,1.0
12:00:38.894027,201694.46875,197151.0625,235140.8125,219198.734375,230788.03125,176379.59375,-705719.8125,182920.421875,-0.031494140625,0.97412109375,-0.274169921875,-0.8544921278953552,0.1525878757238388,0.2136230319738388,93.33334350585938,42809.0,1.0
12:00:38.896468,201697.5,197153.21875,235140.359375,219204.546875,230776.3125,176384.234375,-705721.5625,182921.671875,-0.03173828125,0.974853515625,-0.276611328125,-0.8544921278953552,0.0915527269244194,0.1525878757238388,93.33334350585938,42810.0,1.0
12:00:38.929807,201712.171875,197163.765625,235146.265625,219203.921875,230803.140625,176396.21875,-705718.125,182925.25,-0.030029296875,0.973388671875,-0.274658203125,-0.8850097060203552,0.0610351525247097,0.1220703050494194,93.33334350585938,42811.0,1.0
12:00:38.929831,201721.28125,197178.34375,235160.03125,219208.671875,230829.96875,176410.96875,-705719.5,182932.3125,-0.030517578125,0.976318359375,-0.274169921875,-0.9155272841453552,0.0610351525247097,0.1220703050494194,93.33334350585938,42812.0,1.0
12:00:38.945239,201706.4375,197167.78125,235154.125,219209.015625,230803.859375,176396.21875,-705724.25,182930.53125,-0.030517578125,0.97998046875,-0.27490234375,-0.9765624403953552,0.0,0.1831054538488388,93.33334350585938,42813.0,1.0
12:00:38.947916,201691.515625,197146.78125,235139.734375,219201.421875,230775.25,176384.421875,-705724.375,182921.671875,-0.0283203125,0.981201171875,-0.275146484375,-1.1596678495407104,0.0915527269244194,0.2136230319738388,93.33334350585938,42814.0,1.0
12:00:38.950207,201707.15625,197162.875,235146.359375,219203.65625,230800.546875,176397.296875,-705722.125,182926.5,-0.028076171875,0.982177734375,-0.278076171875,-1.2512205839157104,0.0610351525247097,0.3356933295726776,93.33334350585938,42815.0,1.0
12:00:38.952717,201716.015625,197173.78125,235156.453125,219204.546875,230828.890625,176409.453125,-705725.5,182932.3125,-0.02783203125,0.98193359375,-0.275390625,-1.3122557401657104,0.03051757626235485,0.4882812201976776,93.33334350585938,42816.0,1.0
12:00:38.955227,201697.234375,197152.046875,235144.75,219200.796875,230802.421875,176386.65625,-705727.6875,182926.953125,-0.028564453125,0.9814453125,-0.274658203125,-1.4343260526657104,0.03051757626235485,0.4882812201976776,93.33334350585938,42817.0,1.0
12:00:38.957691,201690.4375,197148.65625,235137.40625,219202.046875,230775.328125,176382.09375,-705722.0625,182925.4375,-0.029052734375,0.982421875,-0.27490234375,-1.5258787870407104,0.0610351525247097,0.4577636420726776,93.33334350585938,42818.0,1.0
12:00:38.960685,201705.90625,197161.796875,235144.46875,219209.734375,230793.75,176394.875,-705719.1875,182932.140625,-0.02880859375,0.9814453125,-0.2744140625,-1.6784666776657104,0.0915527269244194,0.6103515028953552,93.33334350585938,42819.0,1.0
12:00:38.962688,201714.9375,197175.390625,235151.453125,219203.390625,230821.640625,176410.703125,-705717.1875,182930.078125,-0.028076171875,0.9794921875,-0.275390625,-1.7089842557907104,0.1525878757238388,0.6713866591453552,93.33334350585938,42820.0,1.0
12:00:38.965164,201700.8125,197153.65625,235144.65625,219199.546875,230806.984375,176388.53125,-705722.5,182924.71875,-0.027099609375,0.97802734375,-0.276123046875,-1.7700194120407104,0.1525878757238388,0.6103515028953552,93.33334350585938,42821.0,1.0
12:00:38.967773,201687.3125,197145.171875,235131.515625,219196.328125,230772.03125,176376.734375,-705722.0625,182918.546875,-0.02880859375,0.9794921875,-0.27392578125,-1.7700194120407104,0.0915527269244194,0.8239745497703552,93.33334350585938,42822.0,1.0
12:00:38.970331,201695.359375,197157.0625,235133.125,219196.234375,230780.78125,176389.96875,-705722.0625,182917.5625,-0.0283203125,0.97900390625,-0.27392578125,-1.8005369901657104,0.1831054538488388,0.7629393935203552,93.33334350585938,42823.0,1.0
12:00:38.972673,201705.640625,197161.96875,235140.90625,219194.265625,230811.1875,176398.453125,-705721.875,182920.34375,-0.027587890625,0.977783203125,-0.275634765625,-1.8615721464157104,0.2136230319738388,0.7629393935203552,93.33334350585938,42824.0,1.0
12:00:38.975990,201699.203125,197157.0625,235143.578125,219196.234375,230811.546875,176394.515625,-705719.625,182922.65625,-0.02685546875,0.974853515625,-0.2763671875,-1.8920897245407104,0.1525878757238388,0.8239745497703552,93.33334350585938,42825.0,1.0
12:00:38.977771,201683.828125,197144.265625,235130.96875,219193.640625,230774.0,176373.875,-705725.1875,182918.109375,-0.02685546875,0.9736328125,-0.2763671875,-1.9226073026657104,0.1831054538488388,0.6408690810203552,93.33334350585938,42826.0,1.0
12:00:38.980970,201687.75,197148.5625,235129.015625,219189.359375,230773.546875,176382.453125,-705723.625,182912.921875,-0.02685546875,0.974609375,-0.27392578125,-1.8005369901657104,0.2441406100988388,0.7324218153953552,93.33334350585938,42827.0,1.0
12:00:38.980991,201705.90625,197164.125,235140.71875,219193.28125,230809.125,176399.796875,-705721.5625,182921.046875,-0.02685546875,0.9736328125,-0.273681640625,-1.7395018339157104,0.2746581733226776,0.8239745497703552,93.33334350585938,42828.0,1.0
12:00:38.982857,201698.9375,197152.40625,235139.734375,219192.390625,230812.171875,176391.578125,-705720.25,182921.5,-0.02880859375,0.97412109375,-0.276123046875,-1.7089842557907104,0.2136230319738388,0.8544921278953552,93.33334350585938,42829.0,1.0
12:00:38.985752,201685.96875,197138.015625,235130.078125,219195.34375,230778.734375,176376.90625,-705729.75,182922.484375,-0.030029296875,0.97216796875,-0.272705078125,-1.7395018339157104,0.3356933295726776,0.9155272841453552,93.33334350585938,42830.0,1.0
12:00:38.985777,201689.71875,197147.40625,235129.984375,219198.109375,230774.625,176387.015625,-705730.0625,182922.484375,-0.02783203125,0.972900390625,-0.2734375,-1.7089842557907104,0.3662109076976776,0.9155272841453552,93.33334350585938,42831.0,1.0
12:00:38.988436,201709.125,197166.890625,235142.421875,219202.578125,230810.03125,176406.953125,-705720.875,182930.265625,-0.02880859375,0.9736328125,-0.271240234375,-1.7700194120407104,0.3967284858226776,0.9460448622703552,93.33334350585938,42832.0,1.0
12:00:38.988456,201705.8125,197165.28125,235143.765625,219196.953125,230819.6875,176404.53125,-705718.875,182927.484375,-0.02734375,0.972900390625,-0.271484375,-1.7089842557907104,0.3356933295726776,1.0070799589157104,93.33334350585938,42833.0,1.0
12:00:38.990155,201691.328125,197143.828125,235132.859375,219196.328125,230786.78125,176384.78125,-705720.75,182924.71875,-0.02734375,0.973388671875,-0.271240234375,-1.6784666776657104,0.3356933295726776,0.9765624403953552,93.33334350585938,42834.0,1.0
12:00:38.994386,201693.390625,197148.203125,235129.640625,219197.21875,230772.65625,176386.921875,-705726.5,182920.875,-0.02685546875,0.974365234375,-0.271484375,-1.6174315214157104,0.3662109076976776,1.0375975370407104,93.33334350585938,42835.0,1.0
12:00:39.003321,201714.125,197166.890625,235141.53125,219203.65625,230802.515625,176403.28125,-705720.0,182928.390625,-0.02587890625,0.977294921875,-0.26806640625,-1.6174315214157104,0.4272460639476776,1.0681151151657104,93.33334350585938,42836.0,1.0
12:00:39.003429,201717.890625,197173.515625,235149.390625,219202.140625,230822.09375,176407.484375,-705717.125,182929.375,-0.023681640625,0.978759765625,-0.269775390625,-1.5563963651657104,0.3356933295726776,1.0681151151657104,93.33334350585938,42837.0,1.0
12:00:39.003455,201704.296875,197153.921875,235144.203125,219204.734375,230797.234375,176392.640625,-705723.0,182929.1875,-0.0234375,0.97802734375,-0.26953125,-1.5563963651657104,0.3967284858226776,1.0070799589157104,93.33334350585938,42838.0,1.0
12:00:39.019739,201699.734375,197155.265625,235138.3125,219206.609375,230775.515625,176386.46875,-705720.0625,182928.109375,-0.022705078125,0.979736328125,-0.268310546875,-1.6174315214157104,0.4577636420726776,1.0986326932907104,93.33334350585938,42839.0,1.0
12:00:39.022425,201717.53125,197176.375,235147.78125,219208.125,230803.5,176409.1875,-705717.8125,182934.28125,-0.0224609375,0.978271484375,-0.27099609375,-1.6784666776657104,0.5187987685203552,1.0070799589157104,93.33334350585938,42840.0,1.0
12:00:39.022518,201722.625,197179.328125,235155.390625,219206.96875,230830.765625,176418.65625,-705717.1875,182938.046875,-0.02294921875,0.9765625,-0.26708984375,-1.7089842557907104,0.5798339247703552,1.0681151151657104,93.33334350585938,42841.0,1.0
12:00:39.027086,201708.765625,197163.046875,235149.484375,219206.78125,230812.53125,176402.484375,-705712.9375,182937.0625,-0.025146484375,0.977294921875,-0.270263671875,-1.7700194120407104,0.5187987685203552,1.0070799589157104,93.33334350585938,42842.0,1.0
12:00:39.029435,201703.765625,197163.234375,235144.65625,219209.828125,230788.296875,176402.125,-705704.4375,182937.765625,-0.0244140625,0.975830078125,-0.26611328125,-1.8615721464157104,0.6713866591453552,1.0070799589157104,93.33334350585938,42843.0,1.0
12:00:39.031880,201709.65625,197171.359375,235143.671875,219208.21875,230799.296875,176411.953125,-705704.4375,182936.15625,-0.024169921875,0.976806640625,-0.267333984375,-1.9226073026657104,0.7019042372703552,0.9460448622703552,93.33334350585938,42844.0,1.0
12:00:39.039780,201703.578125,197166.265625,235137.953125,219193.375,230813.59375,176408.375,-705710.5625,182927.3125,-0.0244140625,0.976806640625,-0.269287109375,-1.9531248807907104,0.6408690810203552,0.9765624403953552,93.33334350585938,42845.0,1.0
12:00:39.039874,201682.84375,197139.171875,235124.09375,219184.171875,230792.59375,176381.46875,-705724.8125,182917.5625,-0.0234375,0.9765625,-0.267822265625,-2.014159917831421,0.7934569716453552,0.9765624403953552,93.33334350585938,42846.0,1.0
12:00:39.041604,201671.65625,197126.65625,235113.1875,219181.9375,230758.4375,176365.015625,-705728.5625,182912.640625,-0.025390625,0.97607421875,-0.26904296875,-2.105712652206421,0.7324218153953552,0.9155272841453552,93.33334350585938,42847.0,1.0
12:00:39.049124,201680.34375,197144.09375,235115.0625,219180.140625,230767.015625,176378.875,-705732.125,182909.78125,-0.026123046875,0.9765625,-0.2685546875,-2.136230230331421,0.7629393935203552,1.0070799589157104,93.33334350585938,42848.0,1.0
12:00:39.053392,201697.140625,197154.734375,235126.859375,219184.171875,230800.90625,176393.8125,-705731.5,182916.140625,-0.024169921875,0.974609375,-0.266357421875,-2.075195074081421,0.7629393935203552,1.0070799589157104,93.33334350585938,42849.0,1.0
12:00:39.053457,201691.78125,197145.875,235127.046875,219185.515625,230799.46875,176385.046875,-705731.4375,182916.21875,-0.027587890625,0.97265625,-0.268310546875,-2.044677495956421,0.8544921278953552,0.8544921278953552,93.33334350585938,42850.0,1.0
12:00:39.060430,201684.09375,197137.03125,235122.84375,219189.796875,230770.6875,176373.328125,-705734.375,182917.65625,-0.0283203125,0.972412109375,-0.270263671875,-2.014159917831421,0.7629393935203552,0.7019042372703552,93.33334350585938,42851.0,1.0
12:00:39.068351,201696.875,197160.640625,235131.953125,219197.046875,230779.53125,176392.90625,-705732.125,182923.28125,-0.027099609375,0.973876953125,-0.272216796875,-2.014159917831421,0.7934569716453552,0.7324218153953552,93.33334350585938,42852.0,1.0
12:00:39.068401,201714.765625,197171.453125,235143.140625,219200.53125,230813.953125,176411.6875,-705734.1875,182932.859375,-0.0283203125,0.97119140625,-0.268310546875,-2.044677495956421,0.7019042372703552,0.7629393935203552,93.33334350585938,42853.0,1.0
12:00:39.074584,201711.890625,197173.515625,235146.53125,219200.4375,230820.9375,176412.3125,-705732.9375,182934.546875,-0.027587890625,0.974365234375,-0.27001953125,-1.9531248807907104,0.5798339247703552,0.7324218153953552,93.33334350585938,42854.0,1.0
12:00:39.074608,201696.15625,197154.109375,235133.75,219198.109375,230784.71875,176392.5625,-705738.125,182930.53125,-0.029296875,0.974853515625,-0.27001953125,-1.9531248807907104,0.5493163466453552,0.7019042372703552,93.33334350585938,42855.0,1.0
12:00:39.076593,201695.171875,197153.03125,235129.71875,219198.296875,230776.671875,176394.34375,-705729.625,182928.296875,-0.0283203125,0.97607421875,-0.265625,-1.8310545682907104,0.3662109076976776,0.7019042372703552,93.33334350585938,42856.0,1.0
12:00:39.089617,201713.328125,197170.375,235141.078125,219201.328125,230810.921875,176414.015625,-705720.4375,182936.34375,-0.028564453125,0.975830078125,-0.26953125,-1.9226073026657104,0.3051757514476776,0.7324218153953552,93.33334350585938,42857.0,1.0
12:00:39.089647,201708.046875,197166.0,235140.453125,219193.5625,230821.109375,176409.625,-705719.375,182932.765625,-0.029296875,0.970947265625,-0.265625,-1.9226073026657104,0.2136230319738388,0.6103515028953552,93.33334350585938,42858.0,1.0
12:00:39.097088,201692.234375,197148.125,235129.640625,219194.09375,230788.75,176387.8125,-705727.5625,182930.078125,-0.02978515625,0.970703125,-0.265869140625,-1.8920897245407104,0.1220703050494194,0.6408690810203552,93.33334350585938,42859.0,1.0
12:00:39.097101,201692.234375,197155.625,235125.515625,219195.4375,230772.390625,176392.203125,-705729.5625,182927.40625,-0.029296875,0.97021484375,-0.265625,-1.8310545682907104,0.1525878757238388,0.7324218153953552,93.33334350585938,42860.0,1.0
12:00:39.099598,201711.71875,197175.03125,235137.328125,219200.703125,230801.265625,176414.375,-705728.8125,182933.21875,-0.028076171875,0.972900390625,-0.26708984375,-1.8005369901657104,0.1831054538488388,0.6103515028953552,93.33334350585938,42861.0,1.0
12:00:39.099626,201717.265625,197177.265625,235146.359375,219202.40625,230825.046875,176420.890625,-705726.5,182938.390625,-0.025634765625,0.97119140625,-0.268798828125,-1.7089842557907104,0.0610351525247097,0.6103515028953552,93.33334350585938,42862.0,1.0
12:00:39.111545,201702.234375,197156.34375,235138.484375,219203.484375,230800.546875,176398.28125,-705725.1875,182939.203125,-0.027099609375,0.972412109375,-0.269287109375,-1.5869139432907104,0.03051757626235485,0.6408690810203552,93.33334350585938,42863.0,1.0
12:00:39.116424,201692.859375,197150.171875,235130.171875,219200.53125,230776.59375,176390.59375,-705720.5,182935.625,-0.026611328125,0.974365234375,-0.267333984375,-1.4953612089157104,-0.0915527269244194,0.7324218153953552,93.33334350585938,42864.0,1.0
12:00:39.116450,201707.515625,197169.9375,235135.984375,219202.234375,230797.0625,176408.5625,-705718.875,182936.515625,-0.026611328125,0.972412109375,-0.26806640625,-1.5258787870407104,-0.0915527269244194,0.6408690810203552,93.33334350585938,42865.0,1.0
12:00:39.116459,201716.546875,197174.21875,235142.6875,219197.84375,230822.984375,176416.421875,-705722.0625,182936.4375,-0.027099609375,0.973388671875,-0.268798828125,-1.4953612089157104,-0.1831054538488388,0.7629393935203552,93.33334350585938,42866.0,1.0
12:00:39.120166,201706.53125,197163.578125,235139.5625,219199.28125,230806.71875,176404.09375,-705720.9375,182935.53125,-0.025634765625,0.973876953125,-0.26806640625,-1.4038084745407104,-0.1831054538488388,0.7934569716453552,93.33334350585938,42867.0,1.0
12:00:39.130196,201694.1875,197151.515625,235127.9375,219197.3125,230773.375,176389.15625,-705719.5,182930.796875,-0.023193359375,0.973388671875,-0.266845703125,-1.3122557401657104,-0.1831054538488388,0.7019042372703552,93.33334350585938,42868.0,1.0
12:00:39.134618,201701.703125,197159.375,235126.0625,219194.890625,230782.125,176396.40625,-705714.3125,182926.859375,-0.023193359375,0.9736328125,-0.270263671875,-1.1291502714157104,-0.1525878757238388,0.7324218153953552,93.33334350585938,42869.0,1.0
12:00:39.134628,201716.1875,197170.015625,235136.96875,219198.65625,230814.140625,176409.71875,-705719.0625,182933.75,-0.022216796875,0.97314453125,-0.270263671875,-1.1291502714157104,-0.0610351525247097,0.7629393935203552,93.33334350585938,42870.0,1.0
12:00:39.143459,201703.671875,197151.875,235131.953125,219198.46875,230802.15625,176393.8125,-705721.4375,182932.046875,-0.0224609375,0.97314453125,-0.269287109375,-1.1291502714157104,-0.1220703050494194,0.9155272841453552,93.33334350585938,42871.0,1.0
12:00:39.143478,201693.484375,197143.734375,235124.09375,219202.140625,230771.40625,176385.484375,-705721.75,182933.65625,-0.021728515625,0.971435546875,-0.269775390625,-1.0070799589157104,-0.0915527269244194,0.8544921278953552,93.33334350585938,42872.0,1.0
12:00:39.159320,201701.96875,197156.078125,235127.40625,219202.3125,230780.25,176397.5625,-705719.875,182934.015625,-0.02294921875,0.97119140625,-0.270751953125,-0.8850097060203552,-0.1831054538488388,0.8850097060203552,93.33334350585938,42873.0,1.0
12:00:39.159368,201719.234375,197167.78125,235137.59375,219202.671875,230811.640625,176407.03125,-705714.4375,182937.765625,-0.025146484375,0.971923828125,-0.2705078125,-0.7324218153953552,-0.1525878757238388,0.7934569716453552,93.33334350585938,42874.0,1.0
12:00:39.159373,201716.09375,197161.625,235141.96875,219204.46875,230814.671875,176404.453125,-705714.0625,182940.0,-0.026611328125,0.970458984375,-0.273193359375,-0.7324218153953552,-0.1831054538488388,0.6103515028953552,93.33334350585938,42875.0,1.0
12:00:39.160752,201699.375,197144.265625,235128.203125,219200.34375,230775.0625,176385.3125,-705712.625,182933.03125,-0.02978515625,0.971923828125,-0.270751953125,-0.6408690810203552,-0.2441406100988388,0.6103515028953552,93.33334350585938,42876.0,1.0
12:00:39.160763,201700.625,197153.21875,235124.625,219197.3125,230771.84375,176394.078125,-705714.3125,182928.46875,-0.032470703125,0.971435546875,-0.271240234375,-0.6713866591453552,-0.2746581733226776,0.3967284858226776,93.33334350585938,42877.0,1.0
12:00:39.163770,201718.609375,197168.328125,235136.34375,219202.765625,230806.53125,176410.078125,-705714.875,182936.96875,-0.032958984375,0.974365234375,-0.267578125,-0.6408690810203552,-0.3356933295726776,0.3051757514476776,93.33334350585938,42878.0,1.0
12:00:39.174241,201710.90625,197156.796875,235134.90625,219196.953125,230811.1875,176402.390625,-705712.4375,182933.125,-0.033447265625,0.974609375,-0.2685546875,-0.6103515028953552,-0.4882812201976776,0.0610351525247097,93.33334350585938,42879.0,1.0
12:00:39.178322,201695.71875,197145.078125,235125.4375,219197.578125,230779.359375,176385.21875,-705718.125,182931.78125,-0.03076171875,0.975830078125,-0.269287109375,-0.7934569716453552,-0.5187987685203552,-0.2136230319738388,93.33334350585938,42880.0,1.0
12:00:39.178349,201694.8125,197150.078125,235120.875,219196.5,230769.875,176389.609375,-705712.9375,182929.8125,-0.03076171875,0.97705078125,-0.26806640625,-0.7934569716453552,-0.6408690810203552,-0.3051757514476776,93.33334350585938,42881.0,1.0
12:00:39.186079,201711.8125,197163.40625,235130.4375,219198.46875,230801.265625,176406.140625,-705706.625,182936.78125,-0.0302734375,0.977783203125,-0.269775390625,-0.8544921278953552,-0.7629393935203552,-0.4577636420726776,93.33334350585938,42882.0,1.0
12:00:39.186113,201711.359375,197161.96875,235134.90625,219196.859375,230816.90625,176407.03125,-705705.375,182936.96875,-0.027099609375,0.980712890625,-0.269287109375,-0.9155272841453552,-0.7934569716453552,-0.6103515028953552,93.33334350585938,42883.0,1.0
12:00:39.191507,201699.828125,197147.578125,235129.015625,219200.53125,230789.8125,176388.703125,-705710.6875,182936.78125,-0.026611328125,0.98193359375,-0.266357421875,-0.9765624403953552,-0.8239745497703552,-0.4882812201976776,93.33334350585938,42884.0,1.0
12:00:39.206659,201702.78125,197158.3125,235129.09375,219206.609375,230777.484375,176395.78125,-705708.4375,182938.84375,-0.026123046875,0.9833984375,-0.26806640625,-1.0681151151657104,-0.8544921278953552,-0.3967284858226776,93.33334350585938,42885.0,1.0
12:00:39.206686,201719.5,197169.9375,235136.96875,219207.40625,230803.953125,176410.34375,-705709.0,182942.59375,-0.0234375,0.98388671875,-0.269287109375,-1.0986326932907104,-0.7934569716453552,-0.3662109076976776,93.33334350585938,42886.0,1.0
12:00:39.206693,201722.984375,197169.125,235140.71875,219203.921875,230823.4375,176411.59375,-705709.9375,182943.5,-0.02294921875,0.984130859375,-0.26953125,-1.2207030057907104,-0.8239745497703552,-0.2441406100988388,93.33334350585938,42887.0,1.0
12:00:39.206699,201708.59375,197158.046875,235134.015625,219203.921875,230798.84375,176398.015625,-705705.375,182940.359375,-0.023681640625,0.9833984375,-0.268798828125,-1.4038084745407104,-0.7934569716453552,-0.0915527269244194,93.33334350585938,42888.0,1.0
12:00:39.206704,201699.828125,197149.90625,235124.09375,219201.6875,230770.859375,176390.140625,-705711.3125,182935.09375,-0.02294921875,0.983642578125,-0.27099609375,-1.4953612089157104,-0.6408690810203552,-0.1525878757238388,93.33334350585938,42889.0,1.0
12:00:39.220398,201711.359375,197159.921875,235127.671875,219202.5,230790.171875,176402.125,-705715.3125,182936.4375,-0.0234375,0.983642578125,-0.269287109375,-1.5258787870407104,-0.6103515028953552,0.0,93.33334350585938,42890.0,1.0
12:00:39.223266,201722.0,197166.71875,235137.6875,219205.0,230820.3125,176412.140625,-705714.25,182942.953125,-0.023681640625,0.983154296875,-0.270751953125,-1.7089842557907104,-0.5187987685203552,0.0,93.33334350585938,42891.0,1.0
12:00:39.223284,201707.78125,197153.21875,235131.421875,219204.015625,230801.984375,176397.46875,-705713.5625,182939.734375,-0.02392578125,0.9833984375,-0.26708984375,-1.9226073026657104,-0.4272460639476776,0.1220703050494194,93.33334350585938,42892.0,1.0
12:00:39.234642,201699.375,197144.09375,235121.9375,219205.265625,230770.953125,176382.625,-705711.375,182936.875,-0.02734375,0.983154296875,-0.266845703125,-1.9836424589157104,-0.3662109076976776,0.1525878757238388,93.33334350585938,42893.0,1.0
12:00:39.234707,201711.890625,197159.296875,235126.6875,219203.921875,230785.171875,176396.484375,-705709.5,182937.234375,-0.0283203125,0.98193359375,-0.267822265625,-2.136230230331421,-0.3051757514476776,0.0915527269244194,93.33334350585938,42894.0,1.0
12:00:39.238864,201724.859375,197169.578125,235137.59375,219205.0,230818.15625,176413.296875,-705709.4375,182942.234375,-0.029052734375,0.9814453125,-0.2685546875,-2.166747808456421,-0.2746581733226776,0.1525878757238388,93.33334350585938,42895.0,1.0
12:00:39.238878,201709.296875,197153.484375,235131.421875,219199.015625,230805.828125,176395.140625,-705706.8125,182935.453125,-0.028564453125,0.98291015625,-0.26806640625,-2.288818120956421,-0.1831054538488388,0.1525878757238388,93.33334350585938,42896.0,1.0
12:00:39.240294,201696.703125,197140.96875,235120.609375,219198.46875,230773.375,176379.765625,-705708.625,182933.390625,-0.0283203125,0.981689453125,-0.26904296875,-2.258300542831421,-0.1220703050494194,0.0915527269244194,93.33334350585938,42897.0,1.0
12:00:39.251873,201705.1875,197154.109375,235122.65625,219200.265625,230780.515625,176394.25,-705716.9375,182935.359375,-0.029296875,0.979248046875,-0.2685546875,-2.380370855331421,-0.1525878757238388,0.0915527269244194,93.33334350585938,42898.0,1.0
12:00:39.268240,201721.1875,197168.234375,235132.859375,219201.875,230813.515625,176410.25,-705720.0625,182943.3125,-0.028076171875,0.979248046875,-0.2666015625,-2.471923589706421,-0.1831054538488388,0.2136230319738388,93.33334350585938,42899.0,1.0
12:00:39.268257,201712.515625,197161.53125,235131.6875,219198.921875,230812.796875,176403.375,-705723.5625,182942.421875,-0.028076171875,0.9765625,-0.267578125,-2.563476324081421,-0.1525878757238388,0.2441406100988388,93.33334350585938,42900.0,1.0
12:00:39.268261,201693.921875,197138.90625,235115.421875,219195.34375,230771.84375,176378.34375,-705724.625,182937.421875,-0.029296875,0.977294921875,-0.267822265625,-2.563476324081421,-0.2441406100988388,0.1831054538488388,93.33334350585938,42901.0,1.0
12:00:39.268264,201698.21875,197148.921875,235113.625,219194.8125,230768.453125,176387.546875,-705718.375,182935.265625,-0.028076171875,0.974853515625,-0.26806640625,-2.532958745956421,-0.2136230319738388,0.2136230319738388,93.33334350585938,42902.0,1.0
