Timestamp,Fz,FC3,FCz,FC4,Cz,C3,C4
12:06:31.987621,202435.109375,197259.515625,223255.765625,210970.171875,223703.328125,179135.46875,-705755.1875,181562.6875,0.00048828125,0.994384765625,-0.17578125,-2.349853277206421,-0.1525878757238388,0.6408690810203552,86.66667175292969,131154.0,1.0
12:06:31.987631,202415.0,197245.75,223241.90625,210964.265625,223663.71875,179116.96875,-705763.8125,181555.265625,0.00146484375,0.995849609375,-0.174072265625,-2.319335699081421,-0.0915527269244194,0.6713866591453552,86.66667175292969,131155.0,1.0
12:06:31.993319,202416.0625,197253.53125,223241.453125,210969.09375,223651.65625,179123.84375,-705770.875,181555.8125,0.0009765625,0.993896484375,-0.175048828125,-2.441406011581421,-0.1525878757238388,0.6103515028953552,86.66667175292969,131156.0,1.0
12:06:32.003932,202434.03125,197266.671875,223251.109375,210973.03125,223685.0,179142.171875,-705767.375,181563.3125,0.0009765625,0.9951171875,-0.177490234375,-2.410888433456421,-0.1220703050494194,0.5798339247703552,86.66667175292969,131157.0,1.0
12:06:32.003956,202440.5625,197268.8125,223257.546875,210975.171875,223707.984375,179144.765625,-705766.8125,181569.3125,0.0,0.997802734375,-0.1748046875,-2.319335699081421,-0.0915527269244194,0.4272460639476776,86.66667175292969,131158.0,1.0
12:06:32.006389,202421.25,197251.375,223245.390625,210969.28125,223674.71875,179125.375,-705769.0625,181560.71875,0.0,0.9970703125,-0.17626953125,-2.349853277206421,0.03051757626235485,0.1831054538488388,86.66667175292969,131159.0,1.0
12:06:32.006397,202406.59375,197246.546875,223231.4375,210963.46875,223644.6875,179117.59375,-705771.75,181551.96875,-0.001953125,0.99755859375,-0.175537109375,-2.349853277206421,-0.0610351525247097,0.2136230319738388,86.66667175292969,131160.0,1.0
12:06:32.015778,202426.171875,197264.25,223242.796875,210969.1875,223674.1875,179137.703125,-705765.3125,181559.5625,-0.0029296875,0.997802734375,-0.175048828125,-2.349853277206421,0.0,0.2136230319738388,86.66667175292969,131161.0,1.0
12:06:32.019386,202435.46875,197264.703125,223250.671875,210965.703125,223702.34375,179145.03125,-705755.3125,181560.90625,-0.003662109375,0.9990234375,-0.17431640625,-2.410888433456421,0.03051757626235485,0.1220703050494194,86.66667175292969,131162.0,1.0
12:06:32.022037,202424.203125,197255.859375,223248.421875,210969.1875,223682.046875,179130.015625,-705755.5625,181560.640625,-0.00244140625,0.999267578125,-0.17236328125,-2.441406011581421,0.0,0.1831054538488388,86.66667175292969,131163.0,1.0
12:06:32.034304,202408.828125,197243.0625,223235.109375,210966.234375,223646.921875,179115.984375,-705754.6875,181552.59375,-0.00341796875,0.9970703125,-0.169921875,-2.441406011581421,0.0,0.1831054538488388,86.66667175292969,131164.0,1.0
12:06:32.034395,202426.609375,197264.53125,223244.671875,210969.359375,223670.609375,179138.953125,-705752.9375,181555.1875,-0.0048828125,0.9990234375,-0.172119140625,-2.441406011581421,-0.0610351525247097,0.1831054538488388,86.66667175292969,131165.0,1.0
12:06:32.037718,202443.421875,197280.796875,223257.8125,210971.234375,223705.75,179156.75,-705748.5625,181562.6875,-0.00439453125,1.0,-0.171142578125,-2.380370855331421,-0.0610351525247097,0.0915527269244194,86.66667175292969,131166.0,1.0
12:06:32.037786,202431.171875,197264.890625,223252.359375,210970.890625,223690.28125,179143.34375,-705743.875,181560.1875,-0.00341796875,0.9990234375,-0.17236328125,-2.349853277206421,-0.1525878757238388,0.1525878757238388,86.66667175292969,131167.0,1.0
12:06:32.039901,202418.921875,197254.421875,223242.0,210974.453125,223655.5,179128.9375,-705744.0,181558.21875,-0.00439453125,0.9970703125,-0.172607421875,-2.502441167831421,-0.1831054538488388,0.2441406100988388,86.66667175292969,131168.0,1.0
12:06:32.072611,202432.875,197271.671875,223249.859375,210979.640625,223671.5,179149.515625,-705749.3125,181561.796875,-0.003662109375,0.99853515625,-0.169189453125,-2.593993902206421,-0.0915527269244194,0.1831054538488388,86.66667175292969,131169.0,1.0
12:06:32.072697,202449.6875,197282.578125,223261.578125,210983.046875,223706.28125,179162.296875,-705747.3125,181569.9375,-0.004150390625,0.99755859375,-0.17041015625,-2.471923589706421,-0.1525878757238388,0.2746581733226776,86.66667175292969,131170.0,1.0
12:06:32.072727,202436.890625,197267.390625,223255.84375,210977.765625,223696.625,179147.984375,-705746.0625,181566.359375,-0.0029296875,0.9970703125,-0.169921875,-2.593993902206421,-0.03051757626235485,0.3051757514476776,86.66667175292969,131171.0,1.0
12:06:32.072750,202417.9375,197259.78125,223242.890625,210970.171875,223657.734375,179134.3125,-705741.0625,181557.328125,-0.003173828125,0.996337890625,-0.1708984375,-2.532958745956421,-0.0610351525247097,0.3662109076976776,86.66667175292969,131172.0,1.0
12:06:32.072772,202414.375,197261.21875,223234.296875,210960.78125,223652.640625,179133.953125,-705746.0625,181546.515625,-0.003662109375,0.995849609375,-0.16796875,-2.471923589706421,-0.0610351525247097,0.4577636420726776,86.66667175292969,131173.0,1.0
12:06:32.073467,202430.28125,197266.046875,223240.734375,210964.0,223685.1875,179143.515625,-705753.4375,181552.5,-0.00634765625,0.99658203125,-0.169921875,-2.288818120956421,-0.03051757626235485,0.5493163466453552,86.66667175292969,131174.0,1.0
12:06:32.075824,202422.5,197249.859375,223240.296875,210959.265625,223688.3125,179129.21875,-705760.9375,181550.984375,-0.00634765625,0.997314453125,-0.168701171875,-2.288818120956421,-0.1220703050494194,0.6408690810203552,86.66667175292969,131175.0,1.0
12:06:32.078240,202402.125,197231.4375,223227.953125,210957.921875,223646.296875,179106.421875,-705763.0,181545.265625,-0.0048828125,0.99658203125,-0.1669921875,-2.288818120956421,-0.1525878757238388,0.8239745497703552,86.66667175292969,131176.0,1.0
12:06:32.080920,202399.4375,197232.15625,223220.265625,210955.140625,223631.453125,179104.984375,-705761.375,181537.03125,-0.00390625,0.99609375,-0.169677734375,-2.288818120956421,-0.0610351525247097,0.7934569716453552,86.66667175292969,131177.0,1.0
12:06:32.083408,202424.828125,197253.53125,223236.265625,210962.296875,223671.765625,179129.921875,-705764.75,181547.21875,-0.00439453125,0.996826171875,-0.171875,-2.136230230331421,-0.0915527269244194,0.7934569716453552,86.66667175292969,131178.0,1.0
12:06:32.087748,202433.59375,197260.765625,223249.328125,210968.5625,223694.296875,179141.734375,-705760.75,181555.984375,-0.005615234375,0.99658203125,-0.17333984375,-2.044677495956421,-0.1831054538488388,0.9155272841453552,86.66667175292969,131179.0,1.0
12:06:32.087798,202416.953125,197244.140625,223240.5625,210969.625,223661.125,179120.359375,-705757.6875,181555.359375,-0.00634765625,0.994873046875,-0.169189453125,-1.8920897245407104,-0.2746581733226776,0.7934569716453552,86.66667175292969,131180.0,1.0
12:06:32.119763,202413.828125,197246.828125,223234.75,210966.234375,223644.234375,179122.421875,-705758.3125,181551.78125,-0.004638671875,0.994384765625,-0.16845703125,-1.9226073026657104,-0.2441406100988388,0.8544921278953552,86.66667175292969,131181.0,1.0
12:06:32.122671,202435.640625,197270.0625,223247.984375,210972.671875,223680.265625,179149.0625,-705752.625,181563.046875,-0.00439453125,0.994140625,-0.171875,-1.7700194120407104,-0.2746581733226776,1.0375975370407104,86.66667175292969,131182.0,1.0
12:06:32.122750,202440.46875,197272.75,223253.34375,210969.09375,223701.90625,179154.609375,-705753.5625,181561.078125,-0.003173828125,0.99462890625,-0.169921875,-1.5563963651657104,-0.2136230319738388,1.0986326932907104,86.66667175292969,131183.0,1.0
12:06:32.124607,202420.890625,197245.921875,223239.3125,210967.3125,223666.234375,179126.078125,-705758.6875,181556.078125,-0.00146484375,0.992919921875,-0.170166015625,-1.4648436307907104,-0.2441406100988388,1.1596678495407104,86.66667175292969,131184.0,1.0
12:06:32.129712,202412.84375,197246.46875,223231.265625,210964.359375,223641.109375,179122.328125,-705757.625,181550.359375,-0.000732421875,0.992919921875,-0.172119140625,-1.4038084745407104,-0.1525878757238388,1.1291502714157104,86.66667175292969,131185.0,1.0
12:06:32.132219,202437.4375,197269.171875,223248.703125,210975.0,223676.78125,179145.3125,-705749.8125,181563.40625,0.0,0.99365234375,-0.170654296875,-1.2512205839157104,-0.1831054538488388,1.2512205839157104,86.66667175292969,131186.0,1.0
12:06:32.134646,202444.765625,197268.640625,223254.859375,210971.875,223703.328125,179154.25,-705747.6875,181564.65625,0.000732421875,0.994140625,-0.170166015625,-1.1901854276657104,-0.0610351525247097,1.3122557401657104,86.66667175292969,131187.0,1.0
12:06:32.137056,202428.3125,197253.078125,223246.375,210968.5625,223677.9375,179135.46875,-705752.5,181558.671875,0.0009765625,0.99609375,-0.17333984375,-1.1596678495407104,0.0610351525247097,1.2512205839157104,86.66667175292969,131188.0,1.0
12:06:32.162129,202421.515625,197254.875,223242.625,210972.3125,223650.40625,179131.984375,-705757.5,181557.953125,0.00244140625,0.994384765625,-0.171630859375,-1.1291502714157104,-0.03051757626235485,1.2207030057907104,86.66667175292969,131189.0,1.0
12:06:32.193473,202433.765625,197264.703125,223246.46875,210974.1875,223667.921875,179143.25,-705757.5,181560.28125,0.003662109375,0.9931640625,-0.17138671875,-0.9155272841453552,0.0,1.2207030057907104,86.66667175292969,131190.0,1.0
12:06:32.202516,202451.203125,197279.09375,223259.609375,210977.953125,223704.859375,179164.703125,-705752.6875,181569.046875,0.0029296875,0.99267578125,-0.173583984375,-0.9460448622703552,0.1525878757238388,1.2512205839157104,86.66667175292969,131191.0,1.0
12:06:32.204581,202433.046875,197256.484375,223249.953125,210973.484375,223686.796875,179145.125,-705754.0625,181564.390625,0.001953125,0.991943359375,-0.17333984375,-0.8850097060203552,0.3356933295726776,1.1901854276657104,86.66667175292969,131192.0,1.0
12:06:32.208049,202417.3125,197245.578125,223237.515625,210971.0625,223647.90625,179124.921875,-705753.75,181557.78125,0.003662109375,0.990478515625,-0.174072265625,-0.7629393935203552,0.3967284858226776,1.1596678495407104,86.66667175292969,131193.0,1.0
12:06:32.208122,202425.640625,197257.640625,223238.953125,210969.359375,223656.03125,179136.546875,-705745.0,181554.5625,0.00537109375,0.99267578125,-0.17626953125,-0.5493163466453552,0.4882812201976776,1.2207030057907104,86.66667175292969,131194.0,1.0
12:06:32.209577,202446.734375,197280.0,223255.3125,210976.15625,223697.25,179159.171875,-705735.4375,181565.546875,0.008544921875,0.993408203125,-0.177490234375,-0.5187987685203552,0.6408690810203552,1.2817381620407104,86.66667175292969,131195.0,1.0
12:06:32.212251,202437.4375,197264.703125,223252.625,210967.671875,223693.859375,179147.8125,-705751.625,181559.296875,0.01025390625,0.99462890625,-0.175537109375,-0.4272460639476776,0.9460448622703552,1.2817381620407104,86.66667175292969,131196.0,1.0
12:06:32.214598,202419.734375,197251.5625,223240.828125,210967.21875,223655.5,179128.671875,-705755.3125,181555.09375,0.009033203125,0.993408203125,-0.17626953125,-0.2746581733226776,0.9460448622703552,1.2512205839157104,86.66667175292969,131197.0,1.0
12:06:32.217294,202426.4375,197258.53125,223241.90625,210968.015625,223657.46875,179136.90625,-705744.0,181553.578125,0.01025390625,0.9931640625,-0.1748046875,-0.1220703050494194,1.0986326932907104,1.3427733182907104,86.66667175292969,131198.0,1.0
12:06:32.219634,202453.96875,197281.328125,223264.171875,210981.703125,223703.59375,179161.21875,-705737.125,181570.375,0.00927734375,0.992919921875,-0.177978515625,0.0,1.3732908964157104,1.1901854276657104,86.66667175292969,131199.0,1.0
12:06:32.222059,202450.125,197279.453125,223267.65625,210979.375,223712.0,179160.140625,-705739.3125,181569.578125,0.005859375,0.99267578125,-0.1787109375,0.0915527269244194,1.4953612089157104,1.0681151151657104,86.66667175292969,131200.0,1.0
12:06:32.227127,202431.09375,197261.125,223254.421875,210974.109375,223671.59375,179139.9375,-705743.125,181560.09375,0.004150390625,0.992431640625,-0.17724609375,0.1220703050494194,1.5258787870407104,0.8544921278953552,86.66667175292969,131201.0,1.0
12:06:32.229519,202434.03125,197270.15625,223252.359375,210975.171875,223664.625,179146.921875,-705745.875,181557.59375,0.0,0.99560546875,-0.17529296875,0.1525878757238388,1.4648436307907104,0.7324218153953552,86.66667175292969,131202.0,1.0
12:06:32.232270,202453.34375,197291.796875,223264.609375,210979.5625,223702.34375,179166.046875,-705743.875,181567.078125,-0.000244140625,0.99609375,-0.173828125,0.2136230319738388,1.4953612089157104,0.5493163466453552,86.66667175292969,131203.0,1.0
12:06:32.234653,202451.46875,197280.078125,223266.40625,210976.96875,223714.859375,179164.265625,-705745.8125,181566.625,-0.000732421875,0.999267578125,-0.17529296875,0.0915527269244194,1.4038084745407104,0.3662109076976776,86.66667175292969,131204.0,1.0
12:06:32.237222,202428.9375,197258.09375,223252.09375,210973.125,223676.0625,179142.359375,-705758.0625,181560.015625,-0.002685546875,1.000732421875,-0.17431640625,0.03051757626235485,1.4648436307907104,0.0,86.66667175292969,131205.0,1.0
12:06:32.239703,202420.171875,197260.328125,223242.53125,210967.046875,223655.234375,179144.140625,-705764.4375,181553.578125,-0.00634765625,1.0009765625,-0.17333984375,-0.1220703050494194,1.4038084745407104,-0.1831054538488388,86.66667175292969,131206.0,1.0
12:06:32.242222,202431.71875,197266.5,223244.046875,210963.015625,223677.046875,179152.1875,-705754.875,181553.21875,-0.0078125,1.001708984375,-0.1748046875,-0.1831054538488388,1.3122557401657104,-0.2746581733226776,86.66667175292969,131207.0,1.0
12:06:32.244576,202439.84375,197270.421875,223252.09375,210965.96875,223701.71875,179160.0625,-705746.5,181558.578125,-0.0068359375,1.0029296875,-0.174560546875,-0.3051757514476776,1.1291502714157104,-0.3356933295726776,86.66667175292969,131208.0,1.0
12:06:32.247108,202426.171875,197257.90625,223245.203125,210968.5625,223674.8125,179144.234375,-705745.25,181558.9375,-0.00439453125,1.00244140625,-0.175537109375,-0.5187987685203552,1.0070799589157104,-0.4577636420726776,86.66667175292969,131209.0,1.0
12:06:32.252109,202417.5,197256.484375,223236.71875,210967.046875,223648.796875,179141.734375,-705749.5625,181555.890625,-0.00390625,1.0029296875,-0.172607421875,-0.5187987685203552,0.9765624403953552,-0.6103515028953552,86.66667175292969,131210.0,1.0
12:06:32.255368,202431.796875,197269.359375,223243.953125,210969.09375,223675.078125,179158.09375,-705745.1875,181561.796875,-0.0009765625,1.00341796875,-0.173828125,-0.7019042372703552,0.8850097060203552,-0.7324218153953552,86.66667175292969,131211.0,1.0
12:06:32.255384,202442.53125,197278.390625,223255.140625,210970.609375,223707.265625,179168.640625,-705741.0625,181570.109375,-0.001220703125,1.00146484375,-0.17529296875,-0.7629393935203552,0.7019042372703552,-0.5798339247703552,86.66667175292969,131212.0,1.0
12:06:32.258273,202431.71875,197268.734375,223251.203125,210973.5625,223687.234375,179151.921875,-705749.125,181571.453125,-0.00390625,1.002197265625,-0.176025390625,-0.8544921278953552,0.6408690810203552,-0.4882812201976776,86.66667175292969,131213.0,1.0
12:06:32.258288,202415.0,197253.34375,223234.390625,210967.578125,223647.71875,179136.453125,-705758.5,181560.8125,-0.003662109375,1.00390625,-0.174072265625,-1.0070799589157104,0.6713866591453552,-0.4272460639476776,86.66667175292969,131214.0,1.0
12:06:32.258296,202423.484375,197255.40625,223233.5,210965.078125,223659.515625,179141.015625,-705756.4375,181558.84375,-0.00439453125,1.00390625,-0.174560546875,-1.1901854276657104,0.6103515028953552,-0.2136230319738388,86.66667175292969,131215.0,1.0
12:06:32.261400,202441.640625,197269.53125,223248.78125,210970.4375,223696.984375,179159.25,-705746.5,181568.859375,-0.0048828125,1.004638671875,-0.177001953125,-1.2817381620407104,0.5798339247703552,-0.1220703050494194,86.66667175292969,131216.0,1.0
12:06:32.261404,202432.0625,197265.78125,223247.265625,210967.484375,223687.6875,179154.421875,-705741.5,181566.09375,-0.008056640625,1.006103515625,-0.1748046875,-1.4038084745407104,0.5187987685203552,-0.03051757626235485,86.66667175292969,131217.0,1.0
12:06:32.263911,202410.703125,197245.484375,223228.9375,210964.09375,223644.59375,179128.140625,-705741.8125,181558.046875,-0.008056640625,1.007568359375,-0.174072265625,-1.5563963651657104,0.5187987685203552,0.0915527269244194,86.66667175292969,131218.0,1.0
12:06:32.263925,202417.234375,197252.90625,223227.953125,210958.71875,223651.390625,179139.046875,-705742.4375,181552.765625,-0.010009765625,1.0068359375,-0.17236328125,-1.7089842557907104,0.3967284858226776,0.2441406100988388,86.66667175292969,131219.0,1.0
12:06:32.266557,202439.21875,197275.515625,223243.78125,210961.40625,223691.4375,179162.5625,-705740.0,181560.640625,-0.011962890625,1.006103515625,-0.172119140625,-1.8310545682907104,0.2441406100988388,0.3051757514476776,86.66667175292969,131220.0,1.0
12:06:32.266572,202434.578125,197267.390625,223244.578125,210963.46875,223691.265625,179157.28125,-705743.875,181559.5625,-0.012939453125,1.005615234375,-0.174072265625,-2.044677495956421,0.1525878757238388,0.4577636420726776,86.66667175292969,131221.0,1.0
12:06:32.268291,202421.703125,197256.921875,223238.78125,210969.71875,223658.625,179141.546875,-705744.0,181562.78125,-0.014892578125,1.00390625,-0.171875,-2.105712652206421,0.0,0.5493163466453552,86.66667175292969,131222.0,1.0
12:06:32.271445,202424.828125,197263.09375,223239.484375,210967.21875,223659.078125,179151.03125,-705744.8125,181558.125,-0.01318359375,1.004638671875,-0.17138671875,-2.258300542831421,-0.1220703050494194,0.7019042372703552,86.66667175292969,131223.0,1.0
12:06:32.271464,202441.375,197272.484375,223247.265625,210963.015625,223691.265625,179158.984375,-705746.1875,181559.828125,-0.012451171875,1.001708984375,-0.168701171875,-2.471923589706421,-0.2441406100988388,0.7629393935203552,86.66667175292969,131224.0,1.0
12:06:32.273415,202440.46875,197266.40625,223251.46875,210967.21875,223699.9375,179153.796875,-705747.9375,181563.59375,-0.012451171875,1.001708984375,-0.171875,-2.593993902206421,-0.4577636420726776,0.8239745497703552,86.66667175292969,131225.0,1.0
12:06:32.276469,202427.875,197255.859375,223247.53125,210976.703125,223668.90625,179141.90625,-705753.3125,181567.875,-0.01318359375,1.001953125,-0.169189453125,-2.563476324081421,-0.5798339247703552,0.8850097060203552,86.66667175292969,131226.0,1.0
12:06:32.276480,202421.875,197258.71875,223236.71875,210967.75,223651.390625,179142.359375,-705754.3125,181555.71875,-0.013427734375,1.0029296875,-0.171630859375,-2.716064214706421,-0.7019042372703552,0.8850097060203552,86.66667175292969,131227.0,1.0
12:06:32.282501,202442.625,197269.078125,223245.84375,210967.578125,223683.65625,179154.875,-705751.8125,181560.015625,-0.009765625,1.001220703125,-0.171142578125,-2.807616949081421,-0.8850097060203552,1.0986326932907104,86.66667175292969,131228.0,1.0
12:06:32.292812,202451.296875,197284.90625,223258.71875,210972.671875,223709.046875,179166.765625,-705753.125,181567.515625,-0.00927734375,1.0,-0.168212890625,-2.868652105331421,-0.9765624403953552,1.1596678495407104,86.66667175292969,131229.0,1.0
12:06:32.292882,202433.328125,197260.0625,223250.484375,210976.78125,223677.671875,179146.828125,-705744.625,181569.390625,-0.00634765625,1.0,-0.17041015625,-2.929687261581421,-1.0681151151657104,1.1291502714157104,86.66667175292969,131230.0,1.0
12:06:32.297375,202426.609375,197259.34375,223243.953125,210973.484375,223657.90625,179143.515625,-705746.375,181565.375,-0.006591796875,1.000732421875,-0.173095703125,-3.021239995956421,-1.2207030057907104,1.2512205839157104,86.66667175292969,131231.0,1.0
12:06:32.297577,202442.984375,197274.71875,223250.390625,210971.0625,223685.625,179162.109375,-705750.375,181566.265625,-0.005859375,0.99951171875,-0.173095703125,-2.990722417831421,-1.3122557401657104,1.2817381620407104,86.66667175292969,131232.0,1.0
12:06:32.302049,202446.28125,197274.09375,223253.34375,210964.171875,223707.359375,179166.3125,-705751.6875,181566.171875,-0.00537109375,0.998046875,-0.173583984375,-2.990722417831421,-1.2207030057907104,1.3732908964157104,86.66667175292969,131233.0,1.0
12:06:32.304643,202421.78125,197248.25,223239.84375,210960.421875,223674.90625,179135.109375,-705749.5625,181561.890625,-0.001708984375,0.996826171875,-0.171875,-2.990722417831421,-1.2817381620407104,1.3427733182907104,86.66667175292969,131234.0,1.0
12:06:32.311442,202412.84375,197254.953125,223231.703125,210958.8125,223647.1875,179137.625,-705749.6875,181556.875,-0.000732421875,0.995361328125,-0.169677734375,-3.021239995956421,-1.2817381620407104,1.3122557401657104,86.66667175292969,131235.0,1.0
12:06:32.311487,202426.703125,197265.234375,223233.234375,210958.71875,223665.328125,179151.5625,-705747.3125,181556.34375,0.000244140625,0.995849609375,-0.169921875,-2.960204839706421,-1.1291502714157104,1.4038084745407104,86.66667175292969,131236.0,1.0
12:06:32.318585,202438.78125,197265.6875,223241.28125,210959.53125,223694.578125,179160.421875,-705744.9375,181561.4375,0.00146484375,0.99658203125,-0.16748046875,-2.899169683456421,-1.0375975370407104,1.5258787870407104,86.66667175292969,131237.0,1.0
12:06:32.325515,202425.0,197263.1875,223236.890625,210956.125,223676.0625,179147.265625,-705747.5,181558.671875,0.003662109375,0.993896484375,-0.1708984375,-2.716064214706421,-1.0375975370407104,1.5258787870407104,86.66667175292969,131238.0,1.0
12:06:32.325583,202404.359375,197238.421875,223217.5,210949.609375,223633.234375,179123.3125,-705749.3125,181547.765625,0.005615234375,0.99267578125,-0.17138671875,-2.593993902206421,-0.9765624403953552,1.5869139432907104,86.66667175292969,131239.0,1.0
12:06:32.334670,202422.0625,197256.296875,223225.625,210958.546875,223654.0625,179143.96875,-705743.75,181554.203125,0.008056640625,0.990966796875,-0.17138671875,-2.593993902206421,-0.8850097060203552,1.6479490995407104,86.66667175292969,131240.0,1.0
12:06:32.338951,202441.453125,197267.828125,223239.9375,210958.1875,223691.796875,179157.5625,-705742.875,181558.578125,0.007080078125,0.990234375,-0.172119140625,-2.471923589706421,-0.7629393935203552,1.7089842557907104,86.66667175292969,131241.0,1.0
12:06:32.338994,202426.34375,197258.265625,223236.71875,210954.703125,223681.15625,179146.46875,-705748.875,181556.078125,0.007080078125,0.9921875,-0.170166015625,-2.288818120956421,-0.6103515028953552,1.5563963651657104,86.66667175292969,131242.0,1.0
12:06:32.340821,202411.421875,197244.859375,223226.53125,210960.421875,223644.328125,179131.453125,-705750.125,181554.734375,0.0078125,0.99267578125,-0.168701171875,-2.105712652206421,-0.4272460639476776,1.5563963651657104,86.66667175292969,131243.0,1.0
12:06:32.358874,202421.515625,197256.65625,223227.6875,210961.234375,223650.578125,179142.09375,-705751.0625,181552.328125,0.008056640625,0.99169921875,-0.17138671875,-2.075195074081421,-0.2136230319738388,1.5869139432907104,86.66667175292969,131244.0,1.0
12:06:32.358923,202437.171875,197265.515625,223239.046875,210960.609375,223686.703125,179152.734375,-705744.375,181557.421875,0.00634765625,0.992919921875,-0.17333984375,-1.8310545682907104,-0.1831054538488388,1.4648436307907104,86.66667175292969,131245.0,1.0
12:06:32.362047,202434.3125,197262.828125,223243.515625,210963.640625,223687.78125,179146.921875,-705754.75,181557.6875,0.004638671875,0.994384765625,-0.1708984375,-1.7700194120407104,-0.03051757626235485,1.4953612089157104,86.66667175292969,131246.0,1.0
12:06:32.362071,202416.0625,197253.265625,223228.3125,210957.828125,223642.453125,179132.078125,-705758.0625,181546.59375,0.003173828125,0.992431640625,-0.172119140625,-1.6784666776657104,0.2136230319738388,1.3427733182907104,86.66667175292969,131247.0,1.0
12:06:32.362073,202423.84375,197249.953125,223229.828125,210964.796875,223642.0,179135.65625,-705756.625,181549.734375,0.003662109375,0.992919921875,-0.171142578125,-1.6174315214157104,0.2746581733226776,1.1901854276657104,86.66667175292969,131248.0,1.0
12:06:32.364612,202447.8125,197266.578125,223245.75,210976.421875,223682.5,179154.25,-705755.75,181563.046875,0.00390625,0.99267578125,-0.171875,-1.5563963651657104,0.1831054538488388,0.9765624403953552,86.66667175292969,131249.0,1.0
12:06:32.368330,202443.15625,197269.078125,223246.109375,210965.25,223689.921875,179152.734375,-705752.875,181556.34375,0.002197265625,0.9931640625,-0.173095703125,-1.5563963651657104,0.3051757514476776,0.9155272841453552,86.66667175292969,131250.0,1.0
12:06:32.378849,202421.078125,197247.625,223231.171875,210960.25,223648.25,179129.125,-705757.375,181548.390625,0.00439453125,0.992919921875,-0.173583984375,-1.4038084745407104,0.3967284858226776,0.7934569716453552,86.66667175292969,131251.0,1.0
12:06:32.378858,202424.203125,197253.4375,223232.78125,210967.75,223641.8125,179136.1875,-705759.6875,181553.484375,0.005615234375,0.99560546875,-0.171142578125,-1.2817381620407104,0.4272460639476776,0.6408690810203552,86.66667175292969,131252.0,1.0
12:06:32.393892,202449.5,197274.53125,223252.546875,210979.28125,223685.359375,179159.609375,-705756.0,181570.109375,0.005859375,0.997314453125,-0.174072265625,-1.1901854276657104,0.5187987685203552,0.5798339247703552,86.66667175292969,131253.0,1.0
12:06:32.393906,202452.8125,197279.453125,223260.140625,210975.265625,223705.5625,179165.0625,-705749.375,181569.390625,0.006103515625,0.99658203125,-0.171142578125,-1.0375975370407104,0.7324218153953552,0.4882812201976776,86.66667175292969,131254.0,1.0
12:06:32.400815,202433.140625,197259.421875,223247.359375,210971.515625,223669.265625,179143.078125,-705758.4375,181563.140625,0.0068359375,0.994873046875,-0.173828125,-1.0681151151657104,0.7019042372703552,0.4577636420726776,86.66667175292969,131255.0,1.0
12:06:32.405478,202423.125,197251.828125,223235.203125,210967.390625,223643.96875,179131.0,-705756.75,181555.890625,0.006103515625,0.9931640625,-0.172607421875,-0.9155272841453552,0.8850097060203552,0.3662109076976776,86.66667175292969,131256.0,1.0
12:06:32.405494,202441.375,197262.203125,223245.125,210972.40625,223675.609375,179151.390625,-705746.4375,181565.734375,0.005126953125,0.994140625,-0.1748046875,-0.7629393935203552,0.9765624403953552,0.3356933295726776,86.66667175292969,131257.0,1.0
12:06:32.407623,202450.84375,197271.859375,223256.03125,210976.875,223704.671875,179163.8125,-705748.125,181573.875,0.00439453125,0.99462890625,-0.1748046875,-0.6713866591453552,1.0681151151657104,0.2136230319738388,86.66667175292969,131258.0,1.0
12:06:32.407630,202426.171875,197248.25,223240.296875,210966.59375,223670.609375,179138.78125,-705752.5,181560.015625,0.004150390625,0.994384765625,-0.175537109375,-0.6713866591453552,1.1596678495407104,0.3051757514476776,86.66667175292969,131259.0,1.0
12:06:32.417058,202412.3125,197242.890625,223226.4375,210954.796875,223636.640625,179130.109375,-705748.875,181547.21875,0.004638671875,0.996337890625,-0.174560546875,-0.5798339247703552,1.2512205839157104,0.2441406100988388,86.66667175292969,131260.0,1.0
12:06:32.421950,202435.640625,197269.625,223240.46875,210963.546875,223667.03125,179156.84375,-705745.75,181555.984375,0.00244140625,0.996337890625,-0.17529296875,-0.5798339247703552,1.3122557401657104,0.2746581733226776,86.66667175292969,131261.0,1.0
12:06:32.421968,202447.8125,197273.734375,223252.0,210965.78125,223700.109375,179167.125,-705748.6875,181563.40625,0.0,0.994384765625,-0.175537109375,-0.6103515028953552,1.2817381620407104,0.1831054538488388,86.66667175292969,131262.0,1.0
12:06:32.421971,202434.9375,197262.921875,223247.265625,210966.328125,223681.703125,179154.96875,-705755.8125,181562.6875,-0.00048828125,0.994140625,-0.177978515625,-0.5187987685203552,1.3732908964157104,0.0915527269244194,86.66667175292969,131263.0,1.0
12:06:32.425796,202416.421875,197254.25,223230.375,210956.046875,223640.21875,179140.203125,-705760.0,181549.90625,-0.003662109375,0.992919921875,-0.173828125,-0.4577636420726776,1.2512205839157104,-0.0915527269244194,86.66667175292969,131264.0,1.0
12:06:32.429558,202431.71875,197269.984375,223239.671875,210963.015625,223662.828125,179165.6875,-705750.1875,181556.078125,-0.0068359375,0.9931640625,-0.1728515625,-0.2746581733226776,1.1596678495407104,-0.0915527269244194,86.66667175292969,131265.0,1.0
12:06:32.445116,202448.703125,197276.328125,223251.5625,210963.46875,223700.734375,179175.171875,-705750.8125,181564.21875,-0.008056640625,0.993408203125,-0.1728515625,-0.2136230319738388,1.0681151151657104,-0.0610351525247097,86.66667175292969,131266.0,1.0
12:06:32.445125,202430.1875,197257.640625,223239.21875,210948.984375,223680.71875,179151.390625,-705762.8125,181548.390625,-0.009765625,0.994873046875,-0.176025390625,-0.1220703050494194,0.9765624403953552,-0.03051757626235485,86.66667175292969,131267.0,1.0
12:06:32.450137,202419.46875,197252.453125,223229.828125,210958.28125,223642.265625,179138.59375,-705762.25,181548.75,-0.00927734375,0.99609375,-0.17626953125,-0.0915527269244194,0.8239745497703552,-0.03051757626235485,86.66667175292969,131268.0,1.0
12:06:32.450159,202422.859375,197256.03125,223225.625,210958.09375,223641.640625,179142.984375,-705747.8125,181544.359375,-0.008056640625,0.997314453125,-0.17626953125,-0.03051757626235485,0.7324218153953552,-0.0915527269244194,86.66667175292969,131269.0,1.0
12:06:32.452025,202443.0625,197268.109375,223239.9375,210959.890625,223680.890625,179158.265625,-705738.1875,181551.421875,-0.008544921875,0.997802734375,-0.17236328125,0.0,0.5798339247703552,0.0,86.66667175292969,131270.0,1.0
12:06:32.460068,202436.453125,197256.84375,223239.484375,210955.0625,223680.71875,179148.4375,-705744.5625,181548.390625,-0.009033203125,0.999267578125,-0.17333984375,0.03051757626235485,0.4577636420726776,-0.03051757626235485,86.66667175292969,131271.0,1.0
12:06:32.460079,202425.546875,197251.65625,223232.421875,210961.9375,223644.140625,179134.9375,-705751.8125,181548.203125,-0.007568359375,0.99951171875,-0.177001953125,0.0,0.3356933295726776,-0.03051757626235485,86.66667175292969,131272.0,1.0
12:06:32.468946,202431.53125,197258.71875,223234.125,210963.109375,223643.421875,179142.984375,-705750.5625,181547.046875,-0.007080078125,0.999755859375,-0.176025390625,-0.0915527269244194,0.2441406100988388,0.03051757626235485,86.66667175292969,131273.0,1.0
12:06:32.468960,202452.8125,197272.578125,223250.125,210966.59375,223684.828125,179164.265625,-705747.625,181556.34375,-0.006103515625,0.99755859375,-0.175537109375,-0.1220703050494194,0.2746581733226776,0.1525878757238388,86.66667175292969,131274.0,1.0
12:06:32.471441,202453.703125,197280.078125,223257.8125,210967.9375,223700.375,179168.734375,-705745.0,181558.84375,-0.0068359375,0.9990234375,-0.177978515625,-0.1831054538488388,0.1220703050494194,0.3356933295726776,86.66667175292969,131275.0,1.0
12:06:32.471459,202437.609375,197259.96875,223246.28125,210968.203125,223661.578125,179145.75,-705738.1875,181554.015625,-0.00634765625,1.00146484375,-0.17724609375,-0.2441406100988388,0.0,0.3051757514476776,86.66667175292969,131276.0,1.0
12:06:32.482085,202439.484375,197269.171875,223244.578125,210971.515625,223651.390625,179152.90625,-705736.0625,181556.171875,-0.005859375,1.0009765625,-0.1806640625,-0.3051757514476776,-0.1220703050494194,0.3356933295726776,86.66667175292969,131277.0,1.0
12:06:32.486419,202458.796875,197282.40625,223255.21875,210974.453125,223686.796875,179174.09375,-705736.1875,181563.3125,-0.00537109375,0.999755859375,-0.1806640625,-0.3967284858226776,-0.0610351525247097,0.3662109076976776,86.66667175292969,131278.0,1.0
12:06:32.486431,202463.09375,197280.4375,223262.015625,210975.359375,223707.09375,179171.234375,-705743.6875,181566.625,-0.007080078125,0.99853515625,-0.177490234375,-0.5187987685203552,-0.1831054538488388,0.3356933295726776,86.66667175292969,131279.0,1.0
12:06:32.496445,202445.84375,197269.625,223252.546875,210975.71875,223675.078125,179154.34375,-705749.75,181564.75,-0.0068359375,1.00048828125,-0.1767578125,-0.4882812201976776,-0.2441406100988388,0.3967284858226776,86.66667175292969,131280.0,1.0
12:06:32.496480,202428.3125,197256.203125,223236.53125,210965.875,223645.9375,179141.734375,-705757.4375,181553.9375,-0.0078125,1.000732421875,-0.1767578125,-0.7019042372703552,-0.2136230319738388,0.4577636420726776,86.66667175292969,131281.0,1.0
12:06:32.499036,202443.25,197262.015625,223242.625,210972.765625,223674.1875,179152.90625,-705759.125,181562.78125,-0.0078125,0.9990234375,-0.17822265625,-0.6408690810203552,-0.3662109076976776,0.7019042372703552,86.66667175292969,131282.0,1.0
12:06:32.499074,202452.09375,197274.453125,223252.625,210965.15625,223703.15625,179167.84375,-705756.25,181565.828125,-0.0048828125,1.000732421875,-0.17919921875,-0.7324218153953552,-0.3356933295726776,0.7629393935203552,86.66667175292969,131283.0,1.0
12:06:32.543464,202438.234375,197269.0,223247.53125,210965.78125,223679.546875,179157.5625,-705755.375,181565.109375,-0.005126953125,1.00048828125,-0.177001953125,-0.8850097060203552,-0.3356933295726776,0.7629393935203552,86.66667175292969,131284.0,1.0
12:06:32.552128,202418.921875,197242.171875,223230.375,210961.5,223644.40625,179133.421875,-705753.0625,181558.125,-0.005126953125,1.001708984375,-0.1767578125,-1.0070799589157104,-0.4882812201976776,0.8544921278953552,86.66667175292969,131285.0,1.0
12:06:32.552185,202440.109375,197263.546875,223244.40625,210967.484375,223673.109375,179156.84375,-705749.125,181565.109375,-0.005615234375,1.002197265625,-0.177978515625,-1.1901854276657104,-0.5493163466453552,0.8544921278953552,86.66667175292969,131286.0,1.0
12:06:32.552198,202452.8125,197274.1875,223255.140625,210970.890625,223705.03125,179169.453125,-705747.875,181572.609375,-0.003173828125,1.002197265625,-0.178466796875,-1.1901854276657104,-0.6713866591453552,0.9155272841453552,86.66667175292969,131287.0,1.0
12:06:32.554575,202434.3125,197258.265625,223243.25,210961.9375,223679.1875,179151.5625,-705746.0625,181559.390625,-0.0048828125,1.0029296875,-0.177734375,-1.3427733182907104,-0.6713866591453552,1.0070799589157104,86.66667175292969,131288.0,1.0
12:06:32.557854,202419.375,197247.984375,223230.640625,210957.203125,223641.90625,179136.359375,-705747.8125,181550.09375,-0.00390625,1.002685546875,-0.178466796875,-1.4953612089157104,-0.5798339247703552,1.0986326932907104,86.66667175292969,131289.0,1.0
12:06:32.557916,202435.015625,197267.390625,223236.53125,210957.5625,223657.46875,179155.3125,-705745.625,181550.0,-0.0048828125,1.001953125,-0.177978515625,-1.6479490995407104,-0.6408690810203552,0.9765624403953552,86.66667175292969,131290.0,1.0
12:06:32.559723,202455.21875,197283.390625,223250.9375,210964.09375,223694.578125,179180.890625,-705744.5,181559.46875,-0.0029296875,1.00244140625,-0.17822265625,-1.7700194120407104,-0.5798339247703552,1.0070799589157104,86.66667175292969,131291.0,1.0
12:06:32.564736,202441.375,197261.84375,223244.40625,210962.75,223682.046875,179156.84375,-705747.5,181557.78125,-0.002197265625,0.999267578125,-0.177490234375,-1.8310545682907104,-0.5493163466453552,0.8850097060203552,86.66667175292969,131292.0,1.0
12:06:32.567221,202419.90625,197243.515625,223227.421875,210955.234375,223638.875,179131.453125,-705758.6875,181546.328125,-0.0009765625,0.99951171875,-0.177734375,-1.9226073026657104,-0.6103515028953552,0.8850097060203552,86.66667175292969,131293.0,1.0
12:06:32.569705,202427.6875,197256.484375,223227.78125,210957.03125,223643.25,179147.625,-705762.5625,181544.71875,0.001220703125,0.998779296875,-0.18017578125,-1.9226073026657104,-0.5798339247703552,0.9155272841453552,86.66667175292969,131294.0,1.0
12:06:32.572213,202444.3125,197266.046875,223235.5625,210957.828125,223676.234375,179160.78125,-705754.3125,181548.203125,0.00244140625,1.00048828125,-0.1796875,-2.075195074081421,-0.4882812201976776,0.9155272841453552,86.66667175292969,131295.0,1.0
12:06:32.574601,202441.640625,197262.375,223239.40625,210956.671875,223680.53125,179156.75,-705755.5625,181547.671875,0.0029296875,1.00048828125,-0.1796875,-2.197265386581421,-0.4882812201976776,0.8239745497703552,86.66667175292969,131296.0,1.0
12:06:32.577075,202423.125,197252.28125,223228.046875,210953.890625,223641.28125,179141.28125,-705765.8125,181543.375,0.002685546875,1.000732421875,-0.1767578125,-2.258300542831421,-0.4272460639476776,0.7629393935203552,86.66667175292969,131297.0,1.0
12:06:32.579568,202430.28125,197267.390625,223234.03125,210960.609375,223645.671875,179157.109375,-705764.75,181550.625,0.001220703125,1.0009765625,-0.175537109375,-2.380370855331421,-0.2746581733226776,0.7629393935203552,86.66667175292969,131298.0,1.0
12:06:32.582082,202446.734375,197276.859375,223242.625,210959.265625,223680.4375,179175.53125,-705762.5625,181553.9375,0.001708984375,0.99853515625,-0.1767578125,-2.502441167831421,-0.2136230319738388,0.7324218153953552,86.66667175292969,131299.0,1.0
12:06:32.584639,202447.625,197273.109375,223245.5625,210959.34375,223691.625,179170.875,-705759.0625,181557.5,0.004638671875,0.998779296875,-0.176513671875,-2.593993902206421,-0.2441406100988388,0.7324218153953552,86.66667175292969,131300.0,1.0
12:06:32.587089,202433.765625,197265.421875,223237.609375,210965.34375,223658.625,179156.65625,-705752.25,181559.296875,0.002197265625,1.000244140625,-0.1748046875,-2.593993902206421,-0.2136230319738388,0.7019042372703552,86.66667175292969,131301.0,1.0
12:06:32.590100,202428.5,197258.796875,223229.5625,210960.0625,223642.53125,179153.796875,-705757.4375,181551.25,0.00048828125,0.99853515625,-0.176025390625,-2.593993902206421,-0.1220703050494194,0.6408690810203552,86.66667175292969,131302.0,1.0
12:06:32.590106,202451.828125,197274.53125,223245.03125,210966.765625,223681.421875,179174.1875,-705762.8125,181562.15625,0.000732421875,0.999267578125,-0.176025390625,-2.685546636581421,0.0610351525247097,0.6103515028953552,86.66667175292969,131303.0,1.0
12:06:32.592125,202463.09375,197284.640625,223261.65625,210976.421875,223711.375,179185.71875,-705758.5,181574.765625,0.001708984375,0.998779296875,-0.17626953125,-2.716064214706421,0.03051757626235485,0.6103515028953552,86.66667175292969,131304.0,1.0
12:06:32.604537,202436.984375,197261.578125,223243.6875,210965.78125,223672.390625,179159.796875,-705751.8125,181562.6875,0.004638671875,0.996826171875,-0.17626953125,-2.746581792831421,0.03051757626235485,0.6103515028953552,86.66667175292969,131305.0,1.0
12:06:32.604551,202430.1875,197258.265625,223235.640625,210967.21875,223648.890625,179157.203125,-705751.625,181558.9375,0.001953125,0.99560546875,-0.1767578125,-2.746581792831421,0.03051757626235485,0.7019042372703552,86.66667175292969,131306.0,1.0
12:06:32.604553,202446.734375,197274.890625,223245.5625,210972.40625,223680.265625,179174.453125,-705758.0625,181568.0625,-0.000244140625,0.99560546875,-0.174072265625,-2.685546636581421,0.1525878757238388,0.6103515028953552,86.66667175292969,131307.0,1.0
12:06:32.607629,202455.671875,197280.171875,223254.78125,210970.890625,223708.875,179183.9375,-705764.75,181573.421875,0.000244140625,0.994873046875,-0.17431640625,-2.685546636581421,0.1831054538488388,0.5187987685203552,86.66667175292969,131308.0,1.0
12:06:32.607677,202433.59375,197249.5,223240.65625,210963.734375,223676.0625,179155.234375,-705766.5625,181567.078125,-0.002685546875,0.996337890625,-0.17333984375,-2.685546636581421,0.1831054538488388,0.3662109076976776,86.66667175292969,131309.0,1.0
12:06:32.609812,202422.0625,197246.375,223230.1875,210959.625,223643.34375,179147.359375,-705762.875,181557.0625,-0.00341796875,0.999267578125,-0.171630859375,-2.685546636581421,0.0915527269244194,0.3967284858226776,86.66667175292969,131310.0,1.0
12:06:32.613231,202443.875,197267.75,223242.078125,210972.671875,223669.359375,179170.96875,-705754.0625,181568.234375,-0.00146484375,0.997802734375,-0.171142578125,-2.716064214706421,0.0610351525247097,0.4272460639476776,86.66667175292969,131311.0,1.0
12:06:32.619501,202446.90625,197267.5625,223242.890625,210958.8125,223694.125,179175.96875,-705744.5,181562.0625,-0.004150390625,0.998046875,-0.172607421875,-2.746581792831421,0.03051757626235485,0.5187987685203552,86.66667175292969,131312.0,1.0
12:06:32.627605,202428.046875,197249.859375,223230.28125,210952.109375,223668.375,179156.65625,-705756.0,181553.65625,-0.005615234375,0.9990234375,-0.172607421875,-2.746581792831421,-0.03051757626235485,0.2441406100988388,86.66667175292969,131313.0,1.0
12:06:32.627615,202411.0625,197239.578125,223216.0625,210948.984375,223626.53125,179139.765625,-705761.125,181544.1875,-0.00439453125,0.998291015625,-0.169921875,-2.807616949081421,-0.03051757626235485,0.2746581733226776,86.66667175292969,131314.0,1.0
12:06:32.633818,202422.140625,197248.703125,223220.4375,210952.28125,223640.65625,179152.8125,-705752.0,181546.0625,-0.0048828125,0.99853515625,-0.169677734375,-2.807616949081421,-0.1831054538488388,0.2746581733226776,86.66667175292969,131315.0,1.0
12:06:32.633827,202433.765625,197253.265625,223225.625,210949.875,223670.96875,179163.1875,-705748.9375,181548.296875,-0.004638671875,1.0,-0.16796875,-2.868652105331421,-0.0915527269244194,0.2441406100988388,86.66667175292969,131316.0,1.0
12:06:32.637044,202425.09375,197247.53125,223223.9375,210952.828125,223666.5,179162.03125,-705745.125,181550.09375,-0.004638671875,0.9990234375,-0.170166015625,-2.777099370956421,-0.1525878757238388,0.3051757514476776,86.66667175292969,131317.0,1.0
12:06:32.652578,202406.5,197235.828125,223209.359375,210945.84375,223625.375,179145.84375,-705743.875,181540.609375,-0.006103515625,0.997802734375,-0.17138671875,-2.777099370956421,-0.1831054538488388,0.3967284858226776,86.66667175292969,131318.0,1.0
12:06:32.652588,202419.546875,197254.953125,223217.3125,210952.109375,223637.625,179167.21875,-705747.8125,181545.53125,-0.005615234375,0.997802734375,-0.1689453125,-2.746581792831421,-0.2441406100988388,0.3967284858226776,86.66667175292969,131319.0,1.0
12:06:32.655338,202444.5,197275.34375,223237.875,210961.9375,223684.921875,179193.140625,-705744.375,181562.421875,-0.0048828125,0.998291015625,-0.17138671875,-2.716064214706421,-0.2746581733226776,0.4577636420726776,86.66667175292969,131320.0,1.0
12:06:32.655412,202434.65625,197262.5625,223233.859375,210954.078125,223684.015625,179182.140625,-705743.75,181555.1875,-0.003662109375,0.995849609375,-0.169921875,-2.685546636581421,-0.3356933295726776,0.5493163466453552,86.66667175292969,131321.0,1.0
12:06:32.657103,202405.78125,197236.546875,223210.875,210944.953125,223634.84375,179153.53125,-705744.5625,181544.453125,-0.004150390625,0.9970703125,-0.1689453125,-2.624511480331421,-0.3662109076976776,0.7019042372703552,86.66667175292969,131322.0,1.0
12:06:32.663255,202398.90625,197236.265625,223201.484375,210935.65625,223623.046875,179153.703125,-705754.5,181534.703125,-0.00390625,0.995361328125,-0.16796875,-2.655029058456421,-0.3356933295726776,0.6713866591453552,86.66667175292969,131323.0,1.0
12:06:32.670159,202417.046875,197243.6875,223211.5,210940.390625,223657.28125,179165.421875,-705752.0625,181542.3125,-0.005126953125,0.996826171875,-0.1689453125,-2.685546636581421,-0.3662109076976776,0.7934569716453552,86.66667175292969,131324.0,1.0
12:06:32.670173,202420.8125,197243.78125,223221.421875,210946.203125,223675.703125,179164.703125,-705753.125,181549.90625,-0.004638671875,0.99755859375,-0.168212890625,-2.593993902206421,-0.3356933295726776,0.7629393935203552,86.66667175292969,131325.0,1.0
12:06:32.672057,202400.234375,197220.625,223206.765625,210938.25,223635.65625,179135.734375,-705763.625,181540.78125,-0.003662109375,0.99658203125,-0.1669921875,-2.532958745956421,-0.4272460639476776,0.7629393935203552,86.66667175292969,131326.0,1.0
12:06:32.678257,202398.0,197221.875,223202.203125,210938.421875,223620.984375,179138.6875,-705765.375,181537.03125,-0.00146484375,0.996337890625,-0.1669921875,-2.532958745956421,-0.4577636420726776,0.8850097060203552,86.66667175292969,131327.0,1.0
12:06:32.682688,202431.09375,197256.03125,223227.0625,210955.140625,223666.671875,179173.015625,-705756.8125,181555.09375,-0.003173828125,0.99365234375,-0.167236328125,-2.349853277206421,-0.4577636420726776,0.9765624403953552,86.66667175292969,131328.0,1.0
12:06:32.682740,202442.625,197266.765625,223240.5625,210959.625,223694.578125,179184.015625,-705748.6875,181564.03125,-0.0048828125,0.995849609375,-0.16552734375,-2.258300542831421,-0.4882812201976776,1.0070799589157104,86.66667175292969,131329.0,1.0
12:06:32.697689,202426.96875,197249.140625,223231.984375,210956.84375,223662.828125,179162.5625,-705749.9375,181556.25,-0.0029296875,0.9970703125,-0.168212890625,-2.288818120956421,-0.4882812201976776,1.1596678495407104,86.66667175292969,131330.0,1.0
12:06:32.697704,202428.046875,197256.203125,223233.234375,210967.484375,223646.46875,179163.71875,-705745.875,181559.203125,-0.003173828125,0.99365234375,-0.167236328125,-2.044677495956421,-0.4577636420726776,1.0375975370407104,86.66667175292969,131331.0,1.0
12:06:32.699547,202450.3125,197273.203125,223246.015625,210982.15625,223678.125,179183.65625,-705745.5625,181573.59375,-0.00146484375,0.994873046875,-0.168212890625,-1.9531248807907104,-0.4272460639476776,1.0986326932907104,86.66667175292969,131332.0,1.0
12:06:32.702628,202460.6875,197277.671875,223258.078125,210983.125,223708.875,179192.0625,-705752.4375,181581.734375,0.000244140625,0.9951171875,-0.170654296875,-1.8005369901657104,-0.3967284858226776,1.0986326932907104,86.66667175292969,131333.0,1.0
12:06:32.702633,202434.9375,197259.78125,223243.515625,210966.40625,223678.203125,179172.390625,-705754.375,181568.0625,0.0,0.993896484375,-0.169921875,-1.8615721464157104,-0.3356933295726776,1.2512205839157104,86.66667175292969,131334.0,1.0
12:06:32.710785,202419.828125,197250.671875,223229.03125,210964.171875,223643.421875,179162.46875,-705753.125,181559.734375,0.00146484375,0.996337890625,-0.171142578125,-1.7700194120407104,-0.3051757514476776,1.2512205839157104,86.66667175292969,131335.0,1.0
12:06:32.718881,202436.09375,197262.109375,223236.0,210968.828125,223665.328125,179174.359375,-705744.75,181564.484375,0.00244140625,0.997314453125,-0.16943359375,-1.6784666776657104,-0.2441406100988388,1.2512205839157104,86.66667175292969,131336.0,1.0
12:06:32.718891,202449.59375,197264.96875,223247.71875,210973.921875,223699.671875,179181.6875,-705738.8125,181575.65625,0.002197265625,0.9970703125,-0.167724609375,-1.6174315214157104,-0.1831054538488388,1.2207030057907104,86.66667175292969,131337.0,1.0
12:06:32.721380,202429.125,197252.546875,223237.4375,210965.4375,223678.03125,179167.484375,-705737.6875,181567.703125,0.00341796875,0.99560546875,-0.17041015625,-1.6174315214157104,-0.1220703050494194,1.4343260526657104,86.66667175292969,131338.0,1.0
12:06:32.721383,202412.765625,197240.203125,223219.109375,210960.15625,223633.6875,179149.59375,-705741.6875,181555.265625,0.0029296875,0.996337890625,-0.16845703125,-1.5869139432907104,-0.03051757626235485,1.4038084745407104,86.66667175292969,131339.0,1.0
12:06:32.747163,202423.484375,197251.375,223220.265625,210954.171875,223644.953125,179161.125,-705744.5,181551.0625,0.004150390625,0.996337890625,-0.167724609375,-1.5869139432907104,0.1831054538488388,1.3427733182907104,86.66667175292969,131340.0,1.0
12:06:32.762939,202438.5,197262.109375,223232.515625,210961.140625,223684.734375,179179.1875,-705747.625,181564.75,0.00439453125,0.993408203125,-0.171875,-1.4648436307907104,0.1831054538488388,1.4038084745407104,86.66667175292969,131341.0,1.0
12:06:32.763037,202424.921875,197251.109375,223224.734375,210956.75,223673.015625,179168.734375,-705749.1875,181560.90625,0.004638671875,0.99169921875,-0.17236328125,-1.3427733182907104,0.3662109076976776,1.3122557401657104,86.66667175292969,131342.0,1.0
12:06:32.772303,202398.90625,197231.796875,223203.015625,210945.140625,223624.65625,179144.140625,-705743.6875,181545.703125,0.009521484375,0.992919921875,-0.173583984375,-1.2512205839157104,0.4882812201976776,1.3122557401657104,86.66667175292969,131343.0,1.0
12:06:32.772393,202399.4375,197240.5625,223200.15625,210943.53125,223627.34375,179155.140625,-705743.375,181543.203125,0.009765625,0.994384765625,-0.173828125,-1.1901854276657104,0.5493163466453552,1.3427733182907104,86.66667175292969,131344.0,1.0
12:06:32.772420,202416.609375,197248.25,223209.984375,210939.953125,223665.0625,179170.96875,-705748.5,181546.6875,0.0087890625,0.99365234375,-0.17236328125,-1.0986326932907104,0.7019042372703552,1.3427733182907104,86.66667175292969,131345.0,1.0
12:06:32.775795,202421.96875,197253.796875,223220.984375,210947.734375,223678.75,179176.59375,-705753.875,181555.453125,0.009765625,0.991455078125,-0.17626953125,-0.9460448622703552,0.7934569716453552,1.3427733182907104,86.66667175292969,131346.0,1.0
12:06:32.775877,202397.5625,197227.25,223201.21875,210942.0,223631.265625,179146.640625,-705760.8125,181544.359375,0.008056640625,0.990966796875,-0.17431640625,-0.8544921278953552,0.8239745497703552,1.3732908964157104,86.66667175292969,131347.0,1.0
12:06:32.775902,202396.21875,197230.546875,223194.78125,210939.5,223620.453125,179146.46875,-705758.6875,181536.9375,0.0078125,0.98876953125,-0.17626953125,-0.6103515028953552,1.0070799589157104,1.3122557401657104,86.66667175292969,131348.0,1.0
12:06:32.778949,202424.65625,197249.765625,223215.625,210954.34375,223666.234375,179169.71875,-705754.3125,181554.90625,0.008056640625,0.989501953125,-0.17626953125,-0.5798339247703552,1.1596678495407104,1.1901854276657104,86.66667175292969,131349.0,1.0
12:06:32.779026,202427.15625,197250.75,223225.0,210954.796875,223685.71875,179173.640625,-705759.3125,181558.21875,0.005615234375,0.9892578125,-0.174560546875,-0.4577636420726776,1.3732908964157104,1.0070799589157104,86.66667175292969,131350.0,1.0
12:06:32.780846,202408.828125,197236.265625,223213.03125,210949.515625,223646.921875,179154.515625,-705757.375,181549.734375,0.004638671875,0.99169921875,-0.172607421875,-0.3662109076976776,1.5258787870407104,0.8850097060203552,86.66667175292969,131351.0,1.0
12:06:32.783497,202416.328125,197249.234375,223216.328125,210959.703125,223636.8125,179164.796875,-705750.9375,181554.109375,0.001953125,0.993408203125,-0.173583984375,-0.2746581733226776,1.4648436307907104,0.6713866591453552,86.66667175292969,131352.0,1.0
12:06:32.785964,202443.25,197275.078125,223233.859375,210968.296875,223675.96875,179191.0,-705746.875,181564.84375,-0.001708984375,0.99365234375,-0.172119140625,-0.2136230319738388,1.3732908964157104,0.4577636420726776,86.66667175292969,131353.0,1.0
12:06:32.788434,202455.9375,197279.09375,223249.6875,210979.640625,223706.90625,179199.75,-705746.0625,181578.15625,-0.002685546875,0.99560546875,-0.173828125,-0.3051757514476776,1.3427733182907104,0.3967284858226776,86.66667175292969,131354.0,1.0
12:06:32.791185,202441.375,197269.265625,223242.4375,210974.375,223678.65625,179184.46875,-705749.6875,181573.421875,-0.003173828125,0.995361328125,-0.171875,-0.4272460639476776,1.3427733182907104,0.2136230319738388,86.66667175292969,131355.0,1.0
12:06:32.795123,202430.734375,197263.8125,223229.5625,210968.46875,223649.0625,179175.96875,-705750.0,181562.421875,-0.00439453125,0.998291015625,-0.167724609375,-0.5493163466453552,1.1596678495407104,-0.03051757626235485,86.66667175292969,131356.0,1.0
12:06:32.795135,202450.40625,197285.359375,223240.390625,210970.4375,223678.390625,179199.578125,-705748.4375,181567.515625,-0.0048828125,1.00048828125,-0.169677734375,-0.6103515028953552,1.0681151151657104,-0.1831054538488388,86.66667175292969,131357.0,1.0
12:06:32.804669,202460.859375,197288.21875,223252.453125,210976.96875,223713.609375,179208.0625,-705741.8125,181579.5,-0.005126953125,1.0009765625,-0.173583984375,-0.7019042372703552,1.0070799589157104,-0.3967284858226776,86.66667175292969,131358.0,1.0
12:06:32.808933,202444.140625,197274.984375,223243.78125,210973.03125,223689.203125,179188.046875,-705746.4375,181576.109375,-0.002685546875,1.00146484375,-0.173095703125,-0.7934569716453552,0.8239745497703552,-0.4577636420726776,86.66667175292969,131359.0,1.0
12:06:32.808964,202436.09375,197282.234375,223236.09375,210971.953125,223657.5625,179192.25,-705751.0,181571.8125,-0.003662109375,1.004638671875,-0.17236328125,-0.9155272841453552,0.7934569716453552,-0.4272460639476776,86.66667175292969,131360.0,1.0
12:06:32.817123,202444.671875,197280.0,223234.125,210968.109375,223670.78125,179194.484375,-705754.0625,181567.609375,-0.00537109375,1.006591796875,-0.17138671875,-0.9460448622703552,0.6408690810203552,-0.3356933295726776,86.66667175292969,131361.0,1.0
12:06:32.821373,202457.734375,197289.203125,223245.03125,210969.28125,223704.3125,179204.9375,-705754.3125,181574.3125,-0.002197265625,1.007080078125,-0.174560546875,-1.1596678495407104,0.6408690810203552,-0.3356933295726776,86.66667175292969,131362.0,1.0
12:06:32.821408,202440.46875,197274.53125,223238.421875,210964.171875,223687.59375,179190.8125,-705748.9375,181571.640625,-0.00439453125,1.007080078125,-0.171875,-1.2512205839157104,0.5187987685203552,-0.1831054538488388,86.66667175292969,131363.0,1.0
12:06:32.827217,202416.78125,197251.5625,223220.265625,210958.09375,223646.109375,179170.25,-705751.625,181561.625,-0.00146484375,1.00830078125,-0.1748046875,-1.4038084745407104,0.5187987685203552,-0.0915527269244194,86.66667175292969,131364.0,1.0
12:06:32.833965,202425.640625,197261.671875,223224.203125,210963.90625,223659.078125,179180.359375,-705750.75,181566.625,-0.00146484375,1.006591796875,-0.176513671875,-1.6174315214157104,0.5493163466453552,0.03051757626235485,86.66667175292969,131365.0,1.0
12:06:32.834002,202435.375,197269.4375,223230.09375,210959.171875,223691.171875,179192.0625,-705752.0625,181568.765625,-0.004150390625,1.00732421875,-0.173583984375,-1.7395018339157104,0.4577636420726776,0.2136230319738388,86.66667175292969,131366.0,1.0
12:06:32.840103,202422.0625,197258.359375,223223.578125,210947.8125,223681.875,179180.359375,-705756.0,181559.5625,-0.005615234375,1.007568359375,-0.173095703125,-1.9226073026657104,0.3967284858226776,0.3356933295726776,86.66667175292969,131367.0,1.0
12:06:32.840144,202402.75,197236.984375,223209.265625,210950.046875,223639.9375,179155.953125,-705762.0625,181556.171875,-0.006591796875,1.005615234375,-0.1708984375,-1.9836424589157104,0.3662109076976776,0.3967284858226776,86.66667175292969,131368.0,1.0
12:06:32.845810,202405.609375,197244.671875,223207.03125,210947.734375,223638.953125,179164.34375,-705763.3125,181552.40625,-0.007080078125,1.005126953125,-0.17333984375,-2.197265386581421,0.1525878757238388,0.5798339247703552,86.66667175292969,131369.0,1.0
12:06:32.856905,202427.421875,197260.953125,223219.640625,210949.421875,223675.609375,179185.09375,-705756.5625,181558.125,-0.0087890625,1.00439453125,-0.173095703125,-2.319335699081421,0.0915527269244194,0.6408690810203552,86.66667175292969,131370.0,1.0
12:06:32.856958,202424.203125,197258.984375,223223.578125,210948.53125,223683.3125,179182.765625,-705758.0,181559.296875,-0.010009765625,1.005615234375,-0.16943359375,-2.502441167831421,-0.03051757626235485,0.7324218153953552,86.66667175292969,131371.0,1.0
12:06:32.871873,202398.71875,197238.15625,223207.03125,210943.34375,223640.484375,179159.171875,-705762.4375,181551.0625,-0.012451171875,1.0048828125,-0.168701171875,-2.532958745956421,-0.1831054538488388,0.8544921278953552,86.66667175292969,131372.0,1.0
12:06:32.871916,202403.8125,197251.828125,223206.9375,210943.96875,223634.40625,179167.65625,-705757.4375,181548.125,-0.012939453125,1.00439453125,-0.17041015625,-2.655029058456421,-0.4272460639476776,0.9155272841453552,86.66667175292969,131373.0,1.0
12:06:32.895827,202428.3125,197269.625,223220.53125,210943.890625,223669.359375,179186.515625,-705753.3125,181549.90625,-0.0126953125,1.00146484375,-0.1689453125,-2.868652105331421,-0.5187987685203552,0.9765624403953552,86.66667175292969,131374.0,1.0
12:06:32.921511,202430.28125,197266.40625,223228.046875,210944.421875,223686.609375,179186.34375,-705752.3125,181552.765625,-0.01171875,1.001708984375,-0.168701171875,-2.960204839706421,-0.6103515028953552,1.0070799589157104,86.66667175292969,131375.0,1.0
12:06:32.921566,202416.515625,197255.578125,223222.328125,210947.8125,223653.890625,179170.96875,-705753.5,181553.21875,-0.011962890625,1.00048828125,-0.170166015625,-2.929687261581421,-0.7629393935203552,1.1291502714157104,86.66667175292969,131376.0,1.0
12:06:32.928413,202413.390625,197257.546875,223216.25,210943.609375,223637.625,179171.328125,-705749.375,181546.515625,-0.009521484375,0.998291015625,-0.171630859375,-2.990722417831421,-0.8239745497703552,1.1596678495407104,86.66667175292969,131377.0,1.0
12:06:32.930870,202442.265625,197284.46875,223234.296875,210956.84375,223677.046875,179195.375,-705739.9375,181559.109375,-0.007568359375,0.997314453125,-0.168701171875,-2.990722417831421,-0.9765624403953552,1.1596678495407104,86.66667175292969,131378.0,1.0
12:06:32.933429,202447.890625,197284.90625,223241.28125,210952.828125,223699.9375,179201.09375,-705747.125,181562.15625,-0.004150390625,0.99755859375,-0.1689453125,-2.990722417831421,-1.0986326932907104,1.3427733182907104,86.66667175292969,131379.0,1.0
12:06:32.935951,202436.8125,197275.703125,223238.328125,210964.0,223676.234375,179185.546875,-705751.4375,181568.6875,-0.001708984375,0.9970703125,-0.166748046875,-3.021239995956421,-1.0375975370407104,1.3427733182907104,86.66667175292969,131380.0,1.0
12:06:32.938403,202419.375,197262.109375,223222.953125,210949.609375,223645.390625,179173.46875,-705759.3125,181555.09375,-0.000244140625,0.9970703125,-0.16943359375,-2.960204839706421,-1.0375975370407104,1.4038084745407104,86.66667175292969,131381.0,1.0
12:06:32.940837,202437.171875,197278.109375,223234.296875,210955.0625,223676.0625,179193.3125,-705752.875,181562.609375,0.000244140625,0.997314453125,-0.17138671875,-2.899169683456421,-1.0681151151657104,1.4648436307907104,86.66667175292969,131382.0,1.0
12:06:32.943282,202459.515625,197300.109375,223254.6875,210967.84375,223716.203125,179214.859375,-705746.1875,181577.984375,0.00390625,0.9951171875,-0.169677734375,-2.868652105331421,-1.0986326932907104,1.5258787870407104,86.66667175292969,131383.0,1.0
12:06:32.946095,202437.25,197271.140625,223240.734375,210956.578125,223686.53125,179188.84375,-705752.0625,181566.53125,0.00244140625,0.995849609375,-0.171630859375,-2.929687261581421,-1.0375975370407104,1.5563963651657104,86.66667175292969,131384.0,1.0
12:06:32.948577,202427.59375,197269.265625,223233.40625,210961.234375,223656.9375,179183.03125,-705756.125,181566.171875,0.006591796875,0.99560546875,-0.17333984375,-2.838134527206421,-0.9155272841453552,1.5563963651657104,86.66667175292969,131385.0,1.0
12:06:32.951258,202443.25,197285.71875,223237.875,210963.109375,223674.09375,179199.671875,-705750.625,181565.90625,0.00634765625,0.993408203125,-0.168212890625,-2.746581792831421,-0.8850097060203552,1.6174315214157104,86.66667175292969,131386.0,1.0
12:06:32.953644,202458.171875,197292.515625,223248.96875,210968.203125,223708.96875,179206.8125,-705747.25,181574.140625,0.00732421875,0.9921875,-0.169677734375,-2.563476324081421,-0.6713866591453552,1.7395018339157104,86.66667175292969,131387.0,1.0
12:06:32.956199,202442.0,197276.140625,223244.9375,210964.171875,223697.609375,179192.421875,-705753.6875,181571.640625,0.010009765625,0.99169921875,-0.16943359375,-2.441406011581421,-0.5187987685203552,1.8005369901657104,86.66667175292969,131388.0,1.0
12:06:32.958630,202423.3125,197261.125,223231.53125,210968.375,223659.4375,179174.71875,-705755.375,181571.984375,0.009765625,0.992919921875,-0.170166015625,-2.349853277206421,-0.3356933295726776,1.7089842557907104,86.66667175292969,131389.0,1.0
12:06:32.960938,202430.375,197271.765625,223232.0625,210963.734375,223667.84375,179186.875,-705751.4375,181569.578125,0.010009765625,0.995849609375,-0.170166015625,-2.227782964706421,-0.2441406100988388,1.6784666776657104,86.66667175292969,131390.0,1.0
12:06:32.963917,202439.765625,197279.71875,223234.125,210954.171875,223693.234375,179198.953125,-705748.75,181565.546875,0.0107421875,0.994384765625,-0.17041015625,-2.166747808456421,-0.0610351525247097,1.6784666776657104,86.66667175292969,131391.0,1.0
12:06:32.966563,202429.296875,197270.78125,223227.59375,210948.796875,223683.3125,179186.515625,-705746.25,181559.734375,0.012451171875,0.994140625,-0.17041015625,-1.9836424589157104,0.1525878757238388,1.7089842557907104,86.66667175292969,131392.0,1.0
12:06:32.966650,202412.3125,197254.953125,223213.5625,210944.421875,223640.921875,179164.078125,-705748.125,181552.671875,0.011962890625,0.99365234375,-0.170166015625,-1.8920897245407104,0.3967284858226776,1.6784666776657104,86.66667175292969,131393.0,1.0
12:06:32.969037,202411.953125,197258.796875,223208.734375,210943.53125,223637.078125,179168.28125,-705747.25,181550.53125,0.011962890625,0.99267578125,-0.170654296875,-1.8615721464157104,0.4272460639476776,1.6174315214157104,86.66667175292969,131394.0,1.0
12:06:32.969123,202425.0,197261.578125,223214.28125,210936.015625,223669.359375,179180.0,-705745.5625,181549.90625,0.0107421875,0.993896484375,-0.171630859375,-1.6784666776657104,0.6408690810203552,1.5258787870407104,86.66667175292969,131395.0,1.0
12:06:32.971709,202434.3125,197269.796875,223228.046875,210947.90625,223686.609375,179186.171875,-705745.25,181562.0625,0.00830078125,0.993896484375,-0.1708984375,-1.6479490995407104,0.7934569716453552,1.3732908964157104,86.66667175292969,131396.0,1.0
12:06:32.971775,202416.515625,197253.796875,223216.15625,210946.65625,223646.296875,179164.890625,-705747.625,181553.65625,0.010009765625,0.992919921875,-0.167724609375,-1.4648436307907104,0.9155272841453552,1.2512205839157104,86.66667175292969,131397.0,1.0
12:06:32.974853,202421.25,197263.90625,223219.46875,210956.578125,223643.875,179175.890625,-705748.75,181558.21875,0.01025390625,0.9912109375,-0.170166015625,-1.3427733182907104,0.9765624403953552,1.1901854276657104,86.66667175292969,131398.0,1.0
12:06:32.974888,202439.140625,197273.203125,223227.6875,210950.5,223677.5,179191.625,-705745.25,181558.671875,0.01318359375,0.9912109375,-0.169189453125,-1.3122557401657104,1.1901854276657104,0.9155272841453552,86.66667175292969,131399.0,1.0
12:06:32.976604,202442.53125,197279.90625,223234.484375,210947.375,223695.109375,179199.125,-705739.5625,181557.0625,0.01611328125,0.993896484375,-0.1708984375,-1.2512205839157104,1.3732908964157104,0.9460448622703552,86.66667175292969,131400.0,1.0
12:06:32.976680,202422.140625,197261.671875,223223.3125,210945.3125,223660.15625,179177.765625,-705748.3125,181553.296875,0.01611328125,0.994140625,-0.171630859375,-1.1596678495407104,1.6174315214157104,0.8544921278953552,86.66667175292969,131401.0,1.0
12:06:32.978386,202417.9375,197263.8125,223219.1875,210945.046875,223644.328125,179177.9375,-705758.0,181549.375,0.015869140625,0.99560546875,-0.1669921875,-1.0681151151657104,1.8005369901657104,0.6408690810203552,86.66667175292969,131402.0,1.0
12:06:32.982174,202440.46875,197281.875,223231.890625,210956.9375,223677.140625,179197.609375,-705756.25,181559.5625,0.014892578125,0.99560546875,-0.168212890625,-1.0070799589157104,2.075195074081421,0.5798339247703552,86.66667175292969,131403.0,1.0
12:06:32.991480,202451.65625,197289.65625,223243.78125,210958.71875,223704.40625,179210.9375,-705756.875,181563.234375,0.01220703125,0.9931640625,-0.173583984375,-0.9155272841453552,2.258300542831421,0.4882812201976776,86.66667175292969,131404.0,1.0
12:06:32.991506,202428.40625,197265.6875,223229.65625,210946.296875,223671.0625,179185.984375,-705753.6875,181549.90625,0.0126953125,0.99462890625,-0.1728515625,-0.8239745497703552,2.471923589706421,0.3662109076976776,86.66667175292969,131405.0,1.0
12:06:33.001314,202421.875,197265.234375,223223.125,210949.875,223646.734375,179182.671875,-705752.4375,181548.828125,0.01416015625,0.99365234375,-0.173828125,-0.6713866591453552,2.685546636581421,0.3967284858226776,86.66667175292969,131406.0,1.0
12:06:33.001327,202441.8125,197285.265625,223236.1875,210958.453125,223676.875,179205.5625,-705750.375,181558.671875,0.015625,0.99755859375,-0.168701171875,-0.6713866591453552,2.838134527206421,0.2136230319738388,86.66667175292969,131407.0,1.0
12:06:33.003905,202450.21875,197289.46875,223245.390625,210959.703125,223705.03125,179211.46875,-705751.0625,181562.953125,0.014892578125,0.9990234375,-0.173583984375,-0.6103515028953552,2.929687261581421,0.1525878757238388,86.66667175292969,131408.0,1.0
12:06:33.003930,202434.21875,197276.59375,223239.40625,210960.609375,223684.203125,179196.359375,-705761.1875,181563.5,0.015869140625,0.9990234375,-0.170166015625,-0.6408690810203552,3.143310308456421,0.1220703050494194,86.66667175292969,131409.0,1.0
12:06:33.010808,202416.875,197262.921875,223224.734375,210955.140625,223647.0,179181.609375,-705766.5625,181555.265625,0.0126953125,0.99853515625,-0.17041015625,-0.4577636420726776,3.265380620956421,0.1220703050494194,86.66667175292969,131410.0,1.0
12:06:33.017624,202427.0625,197273.5625,223229.921875,210956.125,223664.796875,179195.546875,-705762.8125,181558.578125,0.01123046875,0.99755859375,-0.169921875,-0.3967284858226776,3.356933355331421,0.0915527269244194,86.66667175292969,131411.0,1.0
12:06:33.017638,202442.265625,197282.140625,223240.203125,210959.796875,223698.59375,179202.4375,-705763.1875,181566.890625,0.0078125,0.997314453125,-0.17138671875,-0.4272460639476776,3.570556402206421,0.0610351525247097,86.66667175292969,131412.0,1.0
12:06:33.030103,202430.453125,197275.4375,223235.28125,210957.390625,223686.171875,179192.953125,-705764.3125,181563.765625,0.004638671875,0.997802734375,-0.173828125,-0.3356933295726776,3.662109136581421,-0.0915527269244194,86.66667175292969,131413.0,1.0
12:06:33.030123,202416.875,197262.5625,223225.453125,210960.953125,223650.765625,179177.21875,-705765.9375,181562.6875,0.001708984375,0.996826171875,-0.175537109375,-0.4272460639476776,3.631591558456421,-0.03051757626235485,86.66667175292969,131414.0,1.0
12:06:33.032735,202423.75,197268.546875,223227.421875,210962.921875,223658.890625,179184.90625,-705759.5625,181563.859375,0.00048828125,0.99609375,-0.17578125,-0.2746581733226776,3.662109136581421,-0.1525878757238388,86.66667175292969,131415.0,1.0
12:06:33.032762,202444.046875,197289.46875,223242.4375,210966.140625,223698.765625,179206.1875,-705754.0625,181574.3125,-0.001953125,0.996826171875,-0.1748046875,-0.3051757514476776,3.509521245956421,-0.2441406100988388,86.66667175292969,131416.0,1.0
12:06:33.034554,202429.203125,197267.75,223232.6875,210955.5,223687.59375,179187.15625,-705761.1875,181564.921875,-0.004638671875,0.997802734375,-0.17431640625,-0.3967284858226776,3.601073980331421,-0.3051757514476776,86.66667175292969,131417.0,1.0
12:06:33.047058,202417.3125,197256.484375,223223.484375,210966.40625,223649.859375,179169.171875,-705762.0625,181566.984375,-0.0068359375,0.99658203125,-0.171875,-0.3662109076976776,3.509521245956421,-0.3356933295726776,86.66667175292969,131418.0,1.0
12:06:33.050182,202408.109375,197256.03125,223210.4375,210952.375,223638.25,179169.0,-705765.1875,181554.28125,-0.007568359375,0.998779296875,-0.171142578125,-0.3967284858226776,3.417968511581421,-0.2136230319738388,86.66667175292969,131419.0,1.0
12:06:33.050205,202425.90625,197268.453125,223219.640625,210946.203125,223672.9375,179185.265625,-705763.0,181553.390625,-0.008544921875,0.9990234375,-0.174560546875,-0.3662109076976776,3.173827886581421,-0.1831054538488388,86.66667175292969,131420.0,1.0
12:06:33.057717,202425.28125,197263.625,223226.796875,210946.390625,223685.09375,179183.9375,-705759.75,181557.15625,-0.009521484375,0.99853515625,-0.175537109375,-0.3356933295726776,2.960204839706421,-0.1831054538488388,86.66667175292969,131421.0,1.0
12:06:33.057738,202408.734375,197250.21875,223218.921875,210950.765625,223650.40625,179167.484375,-705766.75,181556.171875,-0.009521484375,0.998779296875,-0.17529296875,-0.3662109076976776,2.746581792831421,-0.1220703050494194,86.66667175292969,131422.0,1.0
12:06:33.067621,202405.78125,197257.375,223211.421875,210946.203125,223637.796875,179174.0,-705763.5,181547.671875,-0.01025390625,0.999267578125,-0.17333984375,-0.4577636420726776,2.624511480331421,0.0915527269244194,86.66667175292969,131423.0,1.0
12:06:33.067639,202427.59375,197277.75,223223.84375,210950.046875,223674.71875,179196.984375,-705752.0,181554.203125,-0.01025390625,1.00146484375,-0.17333984375,-0.4272460639476776,2.471923589706421,0.1831054538488388,86.66667175292969,131424.0,1.0
12:06:33.070189,202434.21875,197281.328125,223235.90625,210954.078125,223698.765625,179206.375,-705743.5,181561.265625,-0.010009765625,1.0009765625,-0.17138671875,-0.5187987685203552,2.319335699081421,0.1525878757238388,86.66667175292969,131425.0,1.0
12:06:33.070230,202418.65625,197264.078125,223228.21875,210954.34375,223665.515625,179185.546875,-705742.3125,181557.953125,-0.0107421875,1.00341796875,-0.172119140625,-0.6713866591453552,2.166747808456421,0.3051757514476776,86.66667175292969,131426.0,1.0
12:06:33.075806,202416.953125,197273.015625,223224.5625,210956.671875,223648.4375,179192.25,-705742.4375,181556.4375,-0.010986328125,1.00341796875,-0.173095703125,-0.8239745497703552,1.9836424589157104,0.4272460639476776,86.66667175292969,131427.0,1.0
12:06:33.085763,202434.9375,197286.703125,223231.0,210962.65625,223676.875,179209.59375,-705742.3125,181564.84375,-0.0126953125,1.003662109375,-0.171875,-0.9155272841453552,1.7089842557907104,0.6103515028953552,86.66667175292969,131428.0,1.0
12:06:33.092621,202429.65625,197274.359375,223225.546875,210950.234375,223687.859375,179198.6875,-705747.8125,181556.171875,-0.0126953125,1.00341796875,-0.174560546875,-1.0681151151657104,1.5258787870407104,0.7934569716453552,86.66667175292969,131429.0,1.0
12:06:33.092642,202416.609375,197265.234375,223219.46875,210953.453125,223659.875,179185.265625,-705746.0625,181557.78125,-0.013671875,1.004150390625,-0.173095703125,-1.1596678495407104,1.3427733182907104,0.8239745497703552,86.66667175292969,131430.0,1.0
12:06:33.098890,202397.109375,197249.328125,223201.046875,210938.96875,223623.9375,179169.796875,-705755.1875,181544.359375,-0.012939453125,1.005859375,-0.1728515625,-1.3732908964157104,1.0681151151657104,1.0375975370407104,86.66667175292969,131431.0,1.0
12:06:33.098908,202410.078125,197257.734375,223207.21875,210942.71875,223648.53125,179181.78125,-705759.6875,181550.4375,-0.012939453125,1.005615234375,-0.17138671875,-1.4953612089157104,0.7934569716453552,1.1596678495407104,86.66667175292969,131432.0,1.0
12:06:33.114628,202430.375,197271.5,223225.1875,210953.453125,223687.234375,179195.828125,-705755.75,181566.265625,-0.0146484375,1.00390625,-0.17236328125,-1.5869139432907104,0.5187987685203552,1.0986326932907104,86.66667175292969,131433.0,1.0
12:06:33.114675,202419.90625,197256.484375,223225.0,210959.265625,223672.484375,179178.5625,-705752.0625,181571.546875,-0.014404296875,1.002685546875,-0.173095703125,-1.7700194120407104,0.3356933295726776,1.1901854276657104,86.66667175292969,131434.0,1.0
12:06:33.114686,202392.015625,197240.203125,223197.109375,210939.140625,223620.546875,179155.671875,-705759.6875,181545.703125,-0.016845703125,1.002197265625,-0.172119140625,-1.8615721464157104,0.0915527269244194,1.3427733182907104,86.66667175292969,131435.0,1.0
12:06:33.117565,202411.421875,197265.234375,223203.546875,210945.40625,223637.171875,179177.3125,-705755.5625,181548.75,-0.015869140625,1.000244140625,-0.172607421875,-1.9836424589157104,-0.2136230319738388,1.3732908964157104,86.66667175292969,131436.0,1.0
12:06:33.117574,202432.0625,197275.515625,223221.78125,210957.46875,223680.625,179195.375,-705751.8125,181566.453125,-0.017333984375,1.00390625,-0.1728515625,-2.044677495956421,-0.4882812201976776,1.5258787870407104,86.66667175292969,131437.0,1.0
12:06:33.119546,202404.53125,197243.96875,223203.375,210943.078125,223654.96875,179164.34375,-705759.25,181551.78125,-0.018310546875,1.001953125,-0.173095703125,-2.075195074081421,-0.7324218153953552,1.6479490995407104,86.66667175292969,131438.0,1.0
12:06:33.125809,202388.34375,197234.03125,223190.5,210940.03125,223616.078125,179148.796875,-705765.3125,181546.328125,-0.0224609375,1.002197265625,-0.17041015625,-2.288818120956421,-1.0986326932907104,1.8005369901657104,86.66667175292969,131439.0,1.0
12:06:33.132154,202406.140625,197252.984375,223203.453125,210956.40625,223635.734375,179170.78125,-705765.375,181559.921875,-0.023681640625,1.000732421875,-0.173583984375,-2.380370855331421,-1.3732908964157104,1.9531248807907104,86.66667175292969,131440.0,1.0
12:06:33.136350,202416.328125,197261.9375,223208.90625,210938.25,223667.921875,179185.984375,-705764.875,181551.421875,-0.025390625,1.0009765625,-0.173828125,-2.410888433456421,-1.9226073026657104,2.227782964706421,86.66667175292969,131441.0,1.0
12:06:33.136362,202404.796875,197249.234375,223199.53125,210931.71875,223657.203125,179172.484375,-705755.3125,181541.859375,-0.029541015625,1.002197265625,-0.1748046875,-2.532958745956421,-2.349853277206421,2.380370855331421,86.66667175292969,131442.0,1.0
12:06:33.142126,202383.796875,197227.25,223183.15625,210927.609375,223613.390625,179147.0,-705753.875,181533.359375,-0.029052734375,1.004150390625,-0.17431640625,-2.655029058456421,-2.899169683456421,2.655029058456421,86.66667175292969,131443.0,1.0
12:06:33.151335,202386.296875,197236.453125,223181.640625,210923.046875,223612.140625,179154.875,-705753.4375,181527.90625,-0.029541015625,1.002197265625,-0.1728515625,-2.685546636581421,-3.417968511581421,2.868652105331421,86.66667175292969,131444.0,1.0
12:06:33.151345,202407.75,197248.796875,223194.609375,210930.828125,223650.765625,179172.671875,-705753.125,181538.109375,-0.02734375,1.000244140625,-0.171630859375,-2.716064214706421,-3.875732183456421,3.112792730331421,86.66667175292969,131445.0,1.0
12:06:33.166422,202411.421875,197254.515625,223203.8125,210935.921875,223666.140625,179177.21875,-705757.625,181543.828125,-0.024658203125,1.00048828125,-0.176025390625,-2.838134527206421,-4.394530773162842,3.326415777206421,86.66667175292969,131446.0,1.0
12:06:33.166435,202394.15625,197239.484375,223194.34375,210938.421875,223629.84375,179161.671875,-705760.9375,181543.015625,-0.023681640625,0.99951171875,-0.1748046875,-2.868652105331421,-4.913329601287842,3.540038824081421,86.66667175292969,131447.0,1.0
12:06:33.180059,202393.53125,197240.46875,223192.015625,210942.453125,223621.609375,179163.8125,-705763.0,181542.125,-0.0205078125,0.999755859375,-0.174560546875,-2.838134527206421,-5.310058116912842,3.692626714706421,86.66667175292969,131448.0,1.0
12:06:33.180070,202408.375,197251.828125,223199.34375,210937.09375,223654.515625,179176.421875,-705761.625,181542.046875,-0.0166015625,0.9970703125,-0.174560546875,-2.868652105331421,-5.706786632537842,3.784179449081421,86.66667175292969,131449.0,1.0
12:06:33.180073,202409.625,197254.15625,223203.90625,210948.0,223669.359375,179178.203125,-705765.0625,181542.125,-0.015869140625,0.9970703125,-0.17431640625,-2.929687261581421,-6.103515148162842,4.058837413787842,86.66667175292969,131450.0,1.0
12:06:33.180075,202412.671875,197248.796875,223207.65625,210980.546875,223643.078125,179162.734375,-705765.5,181553.484375,-0.0126953125,0.999755859375,-0.1767578125,-2.868652105331421,-6.439208507537842,4.180907726287842,86.66667175292969,131451.0,1.0
12:06:33.182027,202410.515625,197254.25,223204.0,210961.765625,223628.140625,179165.15625,-705760.75,181552.40625,-0.009521484375,1.00439453125,-0.173095703125,-2.929687261581421,-6.713866710662842,4.119872570037842,86.66667175292969,131452.0,1.0
12:06:33.185197,202417.671875,197255.859375,223205.515625,210941.734375,223654.78125,179175.703125,-705759.375,181547.84375,-0.007568359375,1.011474609375,-0.175537109375,-3.112792730331421,-6.988524913787842,4.119872570037842,86.66667175292969,131453.0,1.0
12:06:33.185244,202413.65625,197249.421875,223205.328125,210931.90625,223673.375,179177.140625,-705757.1875,181543.734375,-0.010498046875,1.01611328125,-0.171630859375,-3.448486089706421,-7.202147960662842,4.058837413787842,86.66667175292969,131454.0,1.0
12:06:33.188295,202390.40625,197233.953125,223194.34375,210930.828125,223643.515625,179160.78125,-705761.1875,181540.15625,-0.0126953125,1.01611328125,-0.168701171875,-3.784179449081421,-7.415771007537842,4.333495616912842,86.66667175292969,131455.0,1.0
12:06:33.197649,202376.640625,197228.765625,223183.34375,210938.421875,223611.328125,179150.84375,-705763.6875,181534.96875,-0.01904296875,1.01171875,-0.166748046875,-4.028319835662842,-7.751464366912842,4.608153820037842,86.66667175292969,131456.0,1.0
12:06:33.197668,202403.734375,197250.75,223201.046875,210958.28125,223643.078125,179170.78125,-705759.375,181547.578125,-0.02490234375,1.005615234375,-0.1669921875,-4.394530773162842,-8.117674827575684,4.760741710662842,86.66667175292969,131457.0,1.0
12:06:33.199531,202423.578125,197264.25,223215.265625,210954.34375,223680.0,179188.125,-705757.6875,181557.5,-0.02880859375,1.0,-0.169677734375,-4.516601085662842,-8.758543968200684,5.065917491912842,86.66667175292969,131458.0,1.0
12:06:33.208278,202409.265625,197257.375,223206.671875,210962.921875,223654.96875,179168.28125,-705764.75,181551.515625,-0.025390625,0.9970703125,-0.1728515625,-4.486083507537842,-9.338377952575684,5.310058116912842,86.66667175292969,131459.0,1.0
12:06:33.212610,202408.28125,197246.640625,223197.921875,210953.09375,223619.015625,179146.109375,-705761.625,181541.140625,-0.0224609375,0.998779296875,-0.1708984375,-4.302978038787842,-9.857176780700684,5.401610851287842,86.66667175292969,131460.0,1.0
12:06:33.212615,202406.234375,197259.875,223199.875,210935.125,223637.890625,179168.734375,-705762.5625,181542.3125,-0.01708984375,1.00048828125,-0.173095703125,-4.241942882537842,-10.314940452575684,5.432128429412842,86.66667175292969,131461.0,1.0
12:06:33.219068,202417.9375,197267.65625,223211.765625,210936.015625,223675.4375,179184.90625,-705761.1875,181550.984375,-0.010498046875,1.002685546875,-0.169921875,-4.272460460662842,-10.559081077575684,5.279540538787842,86.66667175292969,131462.0,1.0
12:06:33.219104,202413.65625,197259.15625,223213.203125,210943.609375,223667.5625,179174.8125,-705761.75,181553.65625,-0.003662109375,1.00341796875,-0.1689453125,-4.425048351287842,-10.742186546325684,5.187987804412842,86.66667175292969,131463.0,1.0
12:06:33.221102,202395.140625,197246.734375,223198.8125,210941.734375,223627.515625,179158.71875,-705760.8125,181549.375,0.0009765625,1.000732421875,-0.16650390625,-4.577636241912842,-10.803221702575684,5.065917491912842,86.66667175292969,131464.0,1.0
12:06:33.233311,202399.796875,197251.5625,223198.0,210945.765625,223634.3125,179166.859375,-705752.0,181550.796875,0.002685546875,0.994873046875,-0.166748046875,-4.577636241912842,-10.955809593200684,5.004882335662842,86.66667175292969,131465.0,1.0
12:06:33.236470,202419.28125,197262.203125,223211.328125,210962.125,223671.234375,179182.859375,-705750.5625,181562.78125,0.00244140625,0.993408203125,-0.16845703125,-4.577636241912842,-11.138915061950684,5.004882335662842,86.66667175292969,131466.0,1.0
12:06:33.236490,202416.78125,197252.1875,223213.03125,210974.90625,223668.203125,179166.5,-705758.625,181560.1875,0.00390625,0.994384765625,-0.170654296875,-4.577636241912842,-11.199950218200684,5.004882335662842,86.66667175292969,131467.0,1.0
12:06:33.238380,202429.65625,197258.984375,223218.390625,210993.140625,223635.828125,179154.15625,-705760.125,181562.421875,0.006103515625,0.998046875,-0.168701171875,-4.455565929412842,-11.291502952575684,4.821776866912842,86.66667175292969,131468.0,1.0
12:06:33.282194,202418.390625,197287.328125,223209.1875,210967.9375,223626.703125,179162.921875,-705759.875,181553.03125,0.0087890625,1.001953125,-0.16796875,-4.516601085662842,-11.383055686950684,4.638671398162842,86.66667175292969,131469.0,1.0
12:06:33.284492,202397.015625,197246.203125,223185.84375,210919.75,223637.796875,179158.53125,-705757.5,181535.421875,0.012451171875,1.006591796875,-0.16796875,-4.638671398162842,-11.260985374450684,4.241942882537842,86.66667175292969,131470.0,1.0
12:06:33.287156,202377.359375,197217.671875,223180.03125,210904.1875,223642.890625,179151.921875,-705760.9375,181535.15625,0.017333984375,1.0126953125,-0.171630859375,-4.730224132537842,-10.986327171325684,3.875732183456421,86.66667175292969,131471.0,1.0
12:06:33.289549,202375.921875,197215.171875,223182.0,210917.421875,223616.421875,179141.1875,-705760.75,181544.546875,0.02490234375,1.0078125,-0.168701171875,-5.065917491912842,-10.772704124450684,3.631591558456421,86.66667175292969,131472.0,1.0
12:06:33.292093,202389.78125,197234.3125,223184.953125,210934.140625,223608.734375,179152.734375,-705755.1875,181547.9375,0.032470703125,0.99658203125,-0.169677734375,-5.279540538787842,-10.406493186950684,3.387450933456421,86.66667175292969,131473.0,1.0
12:06:33.294544,202413.46875,197256.03125,223195.328125,210931.453125,223642.359375,179173.109375,-705750.0,181553.75,0.033203125,0.99169921875,-0.170166015625,-5.340575695037842,-10.131834983825684,3.265380620956421,86.66667175292969,131474.0,1.0
12:06:33.299674,202411.59375,197255.578125,223201.765625,210942.28125,223660.859375,179169.890625,-705758.5,181560.71875,0.033203125,0.991943359375,-0.169677734375,-5.401610851287842,-9.826659202575684,3.143310308456421,86.66667175292969,131475.0,1.0
12:06:33.302180,202407.65625,197252.8125,223201.765625,210975.984375,223630.46875,179151.75,-705766.125,181566.71875,0.031982421875,0.990966796875,-0.169921875,-5.279540538787842,-9.399413108825684,3.143310308456421,86.66667175292969,131476.0,1.0
12:06:33.304623,202408.5625,197251.109375,223199.34375,210970.609375,223613.65625,179151.390625,-705764.5625,181568.6875,0.032470703125,0.99609375,-0.169677734375,-5.004882335662842,-9.063719749450684,2.899169683456421,86.66667175292969,131477.0,1.0
12:06:33.307037,202422.59375,197273.734375,223205.515625,210948.53125,223645.03125,179174.8125,-705758.4375,181576.109375,0.03466796875,1.002685546875,-0.1689453125,-4.974364757537842,-8.636473655700684,2.593993902206421,86.66667175292969,131478.0,1.0
12:06:33.309604,202422.5,197281.78125,223205.6875,210921.171875,223664.53125,179176.6875,-705753.125,181571.546875,0.03662109375,1.009521484375,-0.17041015625,-5.126952648162842,-8.056639671325684,2.136230230331421,86.66667175292969,131479.0,1.0
12:06:33.312587,202399.25,197247.453125,223191.03125,210931.546875,223629.578125,179153.078125,-705755.375,181566.890625,0.039794921875,1.009521484375,-0.165283203125,-5.371093273162842,-7.415771007537842,1.8310545682907104,86.66667175292969,131480.0,1.0
12:06:33.312594,202403.375,197226.796875,223188.609375,210960.78125,223605.34375,179148.875,-705759.375,181576.109375,0.042236328125,1.00830078125,-0.163330078125,-5.584716320037842,-6.774901866912842,1.5258787870407104,86.66667175292969,131481.0,1.0
12:06:33.315159,202405.15625,197237.4375,223191.296875,210950.046875,223629.578125,179169.984375,-705760.9375,181584.234375,0.044189453125,1.00634765625,-0.164794921875,-5.981444835662842,-6.195067882537842,1.2817381620407104,86.66667175292969,131482.0,1.0
12:06:33.315171,202415.0,197260.953125,223205.515625,210954.96875,223664.34375,179184.203125,-705749.75,181595.0625,0.04541015625,1.00341796875,-0.16552734375,-6.103515148162842,-5.798339366912842,1.0375975370407104,86.66667175292969,131483.0,1.0
12:06:33.317095,202414.28125,197266.765625,223209.0,210945.84375,223653.0,179177.765625,-705747.125,181595.234375,0.044677734375,1.000244140625,-0.163818359375,-6.225585460662842,-5.249022960662842,0.8239745497703552,86.66667175292969,131484.0,1.0
12:06:33.320091,202400.78125,197263.8125,223195.671875,210932.890625,223614.90625,179175.4375,-705752.875,181587.28125,0.04296875,0.995361328125,-0.1689453125,-6.164550304412842,-4.516601085662842,0.3356933295726776,86.66667175292969,131485.0,1.0
12:06:33.320101,202414.8125,197291.96875,223199.96875,210941.734375,223626.078125,179192.328125,-705749.125,181585.3125,0.04443359375,0.9931640625,-0.16845703125,-5.950927257537842,-3.753661870956421,-0.0610351525247097,86.66667175292969,131486.0,1.0
12:06:33.322639,202464.875,197324.25,223234.296875,210980.8125,223676.421875,179209.859375,-705746.1875,181605.96875,0.046142578125,0.990478515625,-0.169677734375,-5.859374523162842,-3.021239995956421,-0.3662109076976776,86.66667175292969,131487.0,1.0
12:06:33.322649,202454.421875,197283.84375,223232.96875,210974.375,223672.578125,179199.671875,-705744.375,181607.578125,0.044677734375,0.99755859375,-0.16796875,-5.706786632537842,-2.319335699081421,-0.5798339247703552,86.66667175292969,131488.0,1.0
12:06:33.324544,202423.578125,197255.578125,223211.59375,210964.453125,223626.890625,179177.5,-705751.1875,181597.921875,0.045166015625,1.002685546875,-0.16748046875,-5.706786632537842,-1.8005369901657104,-0.5798339247703552,86.66667175292969,131489.0,1.0
12:06:33.342742,202439.578125,197266.9375,223220.890625,210985.8125,223638.609375,179190.1875,-705745.75,181607.84375,0.04736328125,1.00146484375,-0.170166015625,-5.950927257537842,-1.2207030057907104,-0.8239745497703552,86.66667175292969,131490.0,1.0
12:06:33.342774,202469.890625,197287.953125,223239.671875,210991.8125,223680.71875,179210.125,-705740.375,181617.59375,0.046630859375,1.00048828125,-0.169189453125,-5.889892101287842,-0.6103515028953552,-1.0681151151657104,86.66667175292969,131491.0,1.0
12:06:33.360471,202451.65625,197290.28125,223237.703125,210973.390625,223684.5625,179216.46875,-705741.6875,181618.75,0.046630859375,0.998291015625,-0.1669921875,-5.767821788787842,0.2136230319738388,-1.3122557401657104,86.66667175292969,131492.0,1.0
12:06:33.360489,202436.359375,197287.140625,223230.375,210984.734375,223648.078125,179203.0625,-705750.5625,181620.09375,0.04296875,0.99609375,-0.166748046875,-5.859374523162842,0.8850097060203552,-1.6784666776657104,86.66667175292969,131493.0,1.0
12:06:33.360492,202447.53125,197310.5625,223233.40625,211016.484375,223643.78125,179205.65625,-705754.5,181623.484375,0.040771484375,0.99267578125,-0.16552734375,-5.767821788787842,1.5258787870407104,-2.044677495956421,86.66667175292969,131494.0,1.0
12:06:33.360495,202475.796875,197337.75,223247.625,211001.90625,223682.953125,179229.703125,-705748.875,181631.09375,0.038330078125,0.994140625,-0.16552734375,-5.584716320037842,2.197265386581421,-2.471923589706421,86.66667175292969,131495.0,1.0
12:06:33.360498,202474.09375,197328.265625,223252.625,210986.078125,223699.84375,179239.453125,-705742.0625,181639.140625,0.037109375,0.998046875,-0.16455078125,-5.584716320037842,2.868652105331421,-2.685546636581421,86.66667175292969,131496.0,1.0
12:06:33.367039,202452.453125,197304.3125,223238.859375,210986.703125,223660.328125,179212.890625,-705746.0,181640.46875,0.03173828125,0.998046875,-0.163818359375,-5.676269054412842,3.479003667831421,-2.746581792831421,86.66667175292969,131497.0,1.0
12:06:33.367054,202446.203125,197317.546875,223230.8125,210979.734375,223643.875,179209.671875,-705750.0,181634.390625,0.028076171875,0.996826171875,-0.158935546875,-5.645751476287842,3.906249761581421,-2.929687261581421,86.66667175292969,131498.0,1.0
12:06:33.367058,202465.515625,197322.640625,223234.125,210978.65625,223667.5625,179203.78125,-705745.875,181637.96875,0.02197265625,0.99560546875,-0.155029296875,-5.645751476287842,4.272460460662842,-3.021239995956421,86.66667175292969,131499.0,1.0
12:06:33.369628,202454.15625,197312.984375,223231.4375,210981.34375,223681.15625,179205.125,-705741.375,181641.375,0.01416015625,0.998046875,-0.158447265625,-5.828856945037842,4.577636241912842,-2.868652105331421,86.66667175292969,131500.0,1.0
12:06:33.399603,202423.9375,197271.40625,223208.015625,210972.9375,223638.25,179172.84375,-705745.5625,181634.046875,0.008056640625,0.999267578125,-0.155517578125,-5.798339366912842,4.669188976287842,-2.807616949081421,86.66667175292969,131501.0,1.0
12:06:33.402059,202412.40625,197257.640625,223191.296875,210965.078125,223607.84375,179157.28125,-705746.0,181625.546875,0.001708984375,1.00048828125,-0.156494140625,-5.767821788787842,4.638671398162842,-2.563476324081421,86.66667175292969,131502.0,1.0
12:06:33.407225,202436.984375,197292.234375,223203.71875,210963.734375,223639.40625,179180.625,-705733.625,181635.5625,-0.002685546875,0.998779296875,-0.155029296875,-5.737304210662842,4.547118663787842,-2.532958745956421,86.66667175292969,131503.0,1.0
12:06:33.410846,202466.9375,197324.609375,223223.125,210971.953125,223670.609375,179195.546875,-705736.1875,181647.8125,-0.00537109375,0.997802734375,-0.15380859375,-5.706786632537842,4.394530773162842,-2.471923589706421,86.66667175292969,131504.0,1.0
12:06:33.410890,202439.84375,197307.0,223209.984375,210971.234375,223641.90625,179174.71875,-705738.5,181651.109375,-0.0068359375,0.99951171875,-0.1552734375,-5.676269054412842,4.455565929412842,-2.563476324081421,86.66667175292969,131505.0,1.0
12:06:33.410901,202398.0,197292.328125,223187.0,210960.953125,223606.765625,179166.3125,-705740.8125,181649.953125,-0.007080078125,1.00439453125,-0.154296875,-5.523681163787842,4.302978038787842,-2.532958745956421,86.66667175292969,131506.0,1.0
12:06:33.413894,202434.84375,197316.375,223205.328125,210971.0625,223638.421875,179189.109375,-705736.25,181666.5,-0.0078125,1.005126953125,-0.153564453125,-5.462646007537842,4.089354991912842,-2.319335699081421,86.66667175292969,131507.0,1.0
12:06:33.413951,202448.609375,197301.71875,223209.890625,210957.109375,223664.984375,179194.75,-705742.3125,181668.453125,-0.00634765625,1.006103515625,-0.15087890625,-5.615233898162842,3.814697027206421,-2.105712652206421,86.66667175292969,131508.0,1.0
12:06:33.415837,202427.6875,197290.09375,223198.1875,210936.90625,223642.09375,179175.25,-705749.6875,181664.609375,-0.006591796875,1.0029296875,-0.15185546875,-5.615233898162842,3.753661870956421,-1.9836424589157104,86.66667175292969,131509.0,1.0
12:06:33.418881,202421.515625,197297.421875,223192.90625,210944.59375,223611.421875,179162.734375,-705757.8125,181669.71875,-0.002197265625,1.001220703125,-0.1513671875,-5.615233898162842,3.662109136581421,-1.8310545682907104,86.66667175292969,131510.0,1.0
12:06:33.418913,202441.640625,197325.328125,223204.359375,210955.5,223631.984375,179184.28125,-705758.875,181680.625,-0.002197265625,0.99951171875,-0.14892578125,-5.615233898162842,3.631591558456421,-1.7395018339157104,86.66667175292969,131511.0,1.0
12:06:33.420799,202478.5625,197347.5,223230.09375,210974.015625,223677.3125,179200.921875,-705751.375,181697.609375,-0.00439453125,0.99609375,-0.150146484375,-5.432128429412842,3.631591558456421,-1.4648436307907104,86.66667175292969,131512.0,1.0
12:06:33.423243,202475.609375,197349.375,223232.78125,210974.28125,223673.828125,179192.875,-705752.0625,181699.65625,-0.005615234375,0.9921875,-0.148681640625,-5.310058116912842,3.540038824081421,-1.0375975370407104,86.66667175292969,131513.0,1.0
12:06:33.425751,202453.890625,197333.71875,223214.28125,210963.1875,223630.828125,179174.09375,-705754.5,181691.34375,-0.007080078125,0.99365234375,-0.151611328125,-5.035399913787842,3.417968511581421,-0.7324218153953552,86.66667175292969,131514.0,1.0
12:06:33.429867,202452.453125,197327.375,223213.46875,210966.765625,223640.75,179188.484375,-705758.25,181697.421875,-0.011474609375,0.998291015625,-0.149169921875,-4.943847179412842,3.265380620956421,-0.4577636420726776,86.66667175292969,131515.0,1.0
12:06:33.445197,202479.640625,197346.78125,223231.890625,210969.546875,223686.25,179208.609375,-705751.8125,181712.71875,-0.014404296875,0.99853515625,-0.144287109375,-4.913329601287842,2.990722417831421,-0.0915527269244194,86.66667175292969,131516.0,1.0
12:06:33.445239,202474.0,197342.75,223232.6875,210958.359375,223688.765625,179200.5625,-705753.4375,181711.5625,-0.015869140625,0.998291015625,-0.14453125,-5.004882335662842,2.685546636581421,0.1220703050494194,86.66667175292969,131517.0,1.0
12:06:33.447648,202458.0,197329.53125,223221.421875,210953.09375,223649.234375,179183.578125,-705758.125,181706.09375,-0.016357421875,0.995361328125,-0.145751953125,-5.004882335662842,2.258300542831421,0.3356933295726776,86.66667175292969,131518.0,1.0
12:06:33.447669,202460.953125,197331.671875,223217.40625,210947.8125,223640.484375,179182.765625,-705754.3125,181698.140625,-0.015625,0.99365234375,-0.146484375,-4.821776866912842,2.014159917831421,0.5493163466453552,86.66667175292969,131519.0,1.0
12:06:33.449913,202481.0625,197346.953125,223228.578125,210952.015625,223676.15625,179197.875,-705745.75,181706.1875,-0.013916015625,0.98876953125,-0.146728515625,-4.577636241912842,1.8310545682907104,0.9155272841453552,86.66667175292969,131520.0,1.0
12:06:33.452090,202480.53125,197345.53125,223231.0,210947.453125,223687.234375,179196.171875,-705744.375,181704.84375,-0.0146484375,0.986328125,-0.144287109375,-4.333495616912842,1.6174315214157104,1.0986326932907104,86.66667175292969,131521.0,1.0
12:06:33.458245,202455.671875,197329.96875,223214.09375,210937.71875,223646.015625,179172.84375,-705749.125,181691.265625,-0.01513671875,0.983154296875,-0.144287109375,-3.997802495956421,1.3122557401657104,1.3427733182907104,86.66667175292969,131522.0,1.0
12:06:33.462628,202447.0,197326.03125,223204.265625,210932.171875,223625.90625,179166.671875,-705747.25,181679.71875,-0.01611328125,0.981689453125,-0.14111328125,-3.601073980331421,1.0070799589157104,1.7089842557907104,86.66667175292969,131523.0,1.0
12:06:33.462635,202468.28125,197343.828125,223216.78125,210939.5,223660.15625,179185.265625,-705744.0,181683.921875,-0.0166015625,0.9814453125,-0.1435546875,-3.173827886581421,0.7019042372703552,1.9226073026657104,86.66667175292969,131524.0,1.0
12:06:33.472043,202471.140625,197342.9375,223217.671875,210920.546875,223676.15625,179183.75,-705736.5,181677.046875,-0.0146484375,0.981689453125,-0.144287109375,-2.807616949081421,0.3967284858226776,1.9226073026657104,86.66667175292969,131525.0,1.0
12:06:33.476497,202444.9375,197319.328125,223199.25,210908.296875,223635.5625,179156.65625,-705741.375,181664.078125,-0.010986328125,0.98388671875,-0.1455078125,-2.380370855331421,0.1525878757238388,2.075195074081421,86.66667175292969,131526.0,1.0
12:06:33.476506,202430.8125,197309.859375,223186.921875,210906.15625,223607.84375,179148.34375,-705748.0625,181654.515625,-0.01123046875,0.988037109375,-0.1435546875,-2.044677495956421,-0.1220703050494194,2.075195074081421,86.66667175292969,131527.0,1.0
12:06:33.485872,202448.515625,197320.3125,223196.390625,210904.90625,223637.4375,179161.9375,-705753.75,181655.234375,-0.010498046875,0.99169921875,-0.143310546875,-1.9226073026657104,-0.3051757514476776,2.105712652206421,86.66667175292969,131528.0,1.0
12:06:33.488857,202455.5,197323.796875,223204.0,210898.640625,223664.34375,179167.484375,-705754.5625,181652.546875,-0.005859375,0.993896484375,-0.143310546875,-1.6784666776657104,-0.4882812201976776,2.014159917831421,86.66667175292969,131529.0,1.0
12:06:33.488866,202429.75,197300.640625,223186.46875,210887.46875,223629.125,179139.765625,-705760.5625,181637.4375,-0.0029296875,0.99609375,-0.143310546875,-1.5258787870407104,-0.6408690810203552,2.105712652206421,86.66667175292969,131530.0,1.0
12:06:33.492037,202413.65625,197292.421875,223170.828125,210887.28125,223591.484375,179121.609375,-705768.5,181624.5625,-0.00146484375,0.995849609375,-0.1455078125,-1.4648436307907104,-0.7324218153953552,2.105712652206421,86.66667175292969,131531.0,1.0
12:06:33.507599,202432.0625,197304.21875,223176.640625,210883.171875,223613.125,179137.96875,-705765.1875,181623.578125,-0.000732421875,0.99658203125,-0.146240234375,-1.4343260526657104,-0.7629393935203552,2.197265386581421,86.66667175292969,131532.0,1.0
12:06:33.507615,202448.078125,197318.890625,223193.0,210890.5,223652.640625,179157.109375,-705751.0625,181638.328125,0.001708984375,0.9970703125,-0.146240234375,-1.2512205839157104,-0.7629393935203552,2.227782964706421,86.66667175292969,131533.0,1.0
12:06:33.512600,202434.125,197299.21875,223186.734375,210891.671875,223633.6875,179132.4375,-705758.5,181633.6875,0.003662109375,0.996826171875,-0.145751953125,-1.2512205839157104,-0.8850097060203552,2.227782964706421,86.66667175292969,131534.0,1.0
12:06:33.512604,202416.15625,197284.734375,223171.09375,210884.15625,223591.9375,179111.59375,-705766.75,181624.828125,0.005859375,0.997802734375,-0.14599609375,-1.1596678495407104,-0.8239745497703552,2.197265386581421,86.66667175292969,131535.0,1.0
12:06:33.514493,202420.453125,197291.171875,223166.4375,210866.1875,223598.71875,179123.578125,-705758.75,181614.453125,0.007080078125,1.0009765625,-0.146484375,-1.0375975370407104,-0.7934569716453552,2.288818120956421,86.66667175292969,131536.0,1.0
12:06:33.519494,202440.5625,197308.515625,223180.65625,210866.28125,223637.078125,179140.5625,-705760.5,181620.359375,0.00634765625,0.99951171875,-0.146484375,-0.9155272841453552,-0.8239745497703552,2.105712652206421,86.66667175292969,131537.0,1.0
12:06:33.522024,202434.578125,197306.546875,223184.0625,210871.015625,223633.953125,179135.203125,-705770.125,181620.71875,0.010009765625,0.999755859375,-0.144775390625,-0.8239745497703552,-0.6408690810203552,2.227782964706421,86.66667175292969,131538.0,1.0
12:06:33.525763,202420.09375,197291.078125,223176.1875,210877.8125,223596.671875,179113.5625,-705774.625,181615.703125,0.0107421875,0.998046875,-0.14453125,-0.7934569716453552,-0.5798339247703552,2.197265386581421,86.66667175292969,131539.0,1.0
12:06:33.529575,202429.828125,197301.71875,223182.359375,210881.296875,223605.15625,179124.921875,-705767.25,181614.546875,0.00830078125,0.997802734375,-0.143310546875,-0.7629393935203552,-0.5187987685203552,2.258300542831421,86.66667175292969,131540.0,1.0
12:06:33.536368,202455.671875,197313.4375,223197.015625,210891.21875,223643.78125,179138.953125,-705766.8125,181626.0,0.012939453125,0.997802734375,-0.15087890625,-0.7019042372703552,-0.4272460639476776,2.105712652206421,86.66667175292969,131541.0,1.0
12:06:33.536379,202460.40625,197318.53125,223205.25,210894.359375,223653.0,179141.375,-705770.375,181632.25,0.0107421875,0.99951171875,-0.15185546875,-0.7019042372703552,-0.2746581733226776,1.9531248807907104,86.66667175292969,131542.0,1.0
12:06:33.543282,202433.59375,197300.734375,223188.609375,210881.03125,223610.96875,179115.796875,-705766.8125,181628.578125,0.011474609375,0.998779296875,-0.15087890625,-0.5187987685203552,-0.2441406100988388,1.6784666776657104,86.66667175292969,131543.0,1.0
12:06:33.547628,202438.421875,197310.75,223189.875,210887.28125,223608.203125,179122.328125,-705767.0,181628.9375,0.014892578125,1.002197265625,-0.150390625,-0.4577636420726776,-0.0915527269244194,1.6784666776657104,86.66667175292969,131544.0,1.0
12:06:33.547634,202462.828125,197330.859375,223204.890625,210889.25,223650.40625,179145.65625,-705763.875,181639.9375,0.01611328125,1.002685546875,-0.1494140625,-0.4577636420726776,0.03051757626235485,1.5258787870407104,86.66667175292969,131545.0,1.0
12:06:33.553327,202455.3125,197328.265625,223205.0625,210876.734375,223661.046875,179144.40625,-705757.625,181636.90625,0.017578125,1.0009765625,-0.150390625,-0.4882812201976776,0.1831054538488388,1.4953612089157104,86.66667175292969,131546.0,1.0
12:06:33.563928,202438.0625,197307.0,223191.5625,210879.59375,223618.390625,179118.21875,-705754.0625,181630.90625,0.0185546875,0.99853515625,-0.153564453125,-0.4577636420726776,0.3967284858226776,1.4343260526657104,86.66667175292969,131547.0,1.0
12:06:33.563948,202432.25,197309.859375,223184.765625,210883.796875,223600.421875,179115.796875,-705758.6875,181625.1875,0.01806640625,0.998046875,-0.152587890625,-0.3967284858226776,0.6713866591453552,1.2817381620407104,86.66667175292969,131548.0,1.0
12:06:33.570216,202463.09375,197334.703125,223205.328125,210895.6875,223643.15625,179148.25,-705753.5,181636.625,0.015869140625,0.998291015625,-0.154296875,-0.3356933295726776,0.7019042372703552,1.1901854276657104,86.66667175292969,131549.0,1.0
12:06:33.570261,202465.328125,197332.921875,223213.03125,210886.84375,223668.015625,179153.359375,-705761.9375,181640.296875,0.015625,0.99951171875,-0.154541015625,-0.3051757514476776,0.9460448622703552,1.0375975370407104,86.66667175292969,131550.0,1.0
12:06:33.573920,202445.65625,197309.140625,223202.203125,210887.5625,223634.671875,179129.65625,-705767.875,181637.25,0.015380859375,1.000732421875,-0.156005859375,-0.2746581733226776,1.0070799589157104,0.9765624403953552,86.66667175292969,131551.0,1.0
12:06:33.573936,202439.578125,197302.703125,223193.0,210886.3125,223608.5625,179121.96875,-705761.625,181630.828125,0.014404296875,1.00244140625,-0.15478515625,-0.2746581733226776,1.1901854276657104,0.9460448622703552,86.66667175292969,131552.0,1.0
12:06:33.583293,202460.140625,197328.546875,223204.0,210887.640625,223639.40625,179148.078125,-705750.1875,181638.859375,0.015869140625,1.0029296875,-0.155517578125,-0.2441406100988388,1.2512205839157104,0.8850097060203552,86.66667175292969,131553.0,1.0
12:06:33.587636,202467.828125,197335.15625,223214.28125,210880.578125,223669.265625,179159.796875,-705746.375,181639.765625,0.015869140625,1.002197265625,-0.155517578125,-0.2746581733226776,1.3427733182907104,0.7934569716453552,86.66667175292969,131554.0,1.0
12:06:33.587647,202441.453125,197313.875,223201.9375,210873.34375,223639.578125,179132.15625,-705748.0625,181632.4375,0.01611328125,1.000732421875,-0.153076171875,-0.2746581733226776,1.5258787870407104,0.5187987685203552,86.66667175292969,131555.0,1.0
12:06:33.594540,202433.59375,197310.484375,223196.578125,210881.5625,223612.9375,179125.71875,-705746.6875,181633.5,0.01171875,1.00048828125,-0.153076171875,-0.2441406100988388,1.6479490995407104,0.4882812201976776,86.66667175292969,131556.0,1.0
12:06:33.601390,202460.859375,197338.734375,223211.421875,210894.359375,223639.234375,179149.59375,-705742.625,181640.828125,0.01171875,0.99951171875,-0.156494140625,-0.2441406100988388,1.7089842557907104,0.2136230319738388,86.66667175292969,131557.0,1.0
12:06:33.601402,202480.265625,197354.015625,223222.234375,210888.453125,223670.875,179162.296875,-705738.125,181640.125,0.01171875,0.997802734375,-0.155517578125,-0.3051757514476776,1.8615721464157104,0.1525878757238388,86.66667175292969,131558.0,1.0
12:06:33.607644,202444.5,197322.28125,223204.53125,210870.65625,223649.6875,179145.65625,-705739.8125,181633.328125,0.010986328125,0.99951171875,-0.15771484375,-0.2746581733226776,1.9226073026657104,0.0610351525247097,86.66667175292969,131559.0,1.0
12:06:33.607661,202423.21875,197296.265625,223188.34375,210863.5,223610.078125,179125.640625,-705740.5625,181626.796875,0.01171875,1.00048828125,-0.15673828125,-0.2441406100988388,2.075195074081421,-0.0915527269244194,86.66667175292969,131560.0,1.0
12:06:33.658297,202441.546875,197319.0625,223197.640625,210872.625,223625.734375,179141.46875,-705735.4375,181627.6875,0.009033203125,1.00146484375,-0.15478515625,-0.1831054538488388,2.105712652206421,0.0,86.66667175292969,131561.0,1.0
12:06:33.675816,202478.203125,197342.125,223219.640625,210892.5625,223666.671875,179157.5625,-705741.1875,181640.46875,0.00830078125,0.99951171875,-0.1572265625,-0.2441406100988388,2.075195074081421,-0.0915527269244194,86.66667175292969,131562.0,1.0
12:06:33.678701,202458.359375,197321.390625,223211.59375,210881.828125,223658.09375,179142.984375,-705745.75,181636.90625,0.008056640625,0.99951171875,-0.15576171875,-0.1831054538488388,2.136230230331421,-0.2136230319738388,86.66667175292969,131563.0,1.0
12:06:33.680916,202420.0,197298.671875,223186.46875,210861.359375,223610.53125,179122.15625,-705744.8125,181623.40625,0.006103515625,1.001220703125,-0.156494140625,-0.1831054538488388,2.075195074081421,-0.2441406100988388,86.66667175292969,131564.0,1.0
12:06:33.683431,202432.25,197310.75,223186.828125,210860.640625,223612.765625,179135.375,-705738.5,181618.921875,0.006103515625,1.00244140625,-0.1572265625,-0.0915527269244194,2.044677495956421,-0.3051757514476776,86.66667175292969,131565.0,1.0
12:06:33.685786,202459.78125,197331.84375,223205.421875,210872.453125,223654.609375,179154.421875,-705736.875,181630.546875,0.00732421875,1.001953125,-0.157958984375,-0.2746581733226776,2.014159917831421,-0.2441406100988388,86.66667175292969,131566.0,1.0
12:06:33.688345,202463.71875,197329.875,223212.046875,210872.71875,223661.9375,179148.875,-705737.9375,181633.328125,0.007568359375,1.000732421875,-0.156494140625,-0.3967284858226776,1.9836424589157104,-0.2136230319738388,86.66667175292969,131567.0,1.0
12:06:33.690782,202437.796875,197313.875,223196.125,210864.21875,223620.0,179128.3125,-705737.6875,181627.328125,0.006103515625,1.001220703125,-0.158447265625,-0.3967284858226776,1.9531248807907104,-0.2746581733226776,86.66667175292969,131568.0,1.0
12:06:33.695857,202442.796875,197327.46875,223196.9375,210868.875,223615.890625,179136.1875,-705733.625,181627.78125,0.005859375,1.000732421875,-0.16064453125,-0.4272460639476776,1.9531248807907104,-0.2136230319738388,86.66667175292969,131569.0,1.0
12:06:33.698357,202467.390625,197341.421875,223210.4375,210870.296875,223654.609375,179158.265625,-705734.625,181631.625,0.0048828125,1.001220703125,-0.15771484375,-0.4272460639476776,2.014159917831421,-0.2441406100988388,86.66667175292969,131570.0,1.0
12:06:33.700802,202470.875,197342.3125,223217.765625,210870.921875,223670.703125,179158.265625,-705739.9375,181634.671875,0.001953125,1.001953125,-0.158203125,-0.4882812201976776,1.9836424589157104,-0.1831054538488388,86.66667175292969,131571.0,1.0
12:06:33.703290,202438.234375,197310.125,223198.453125,210867.796875,223628.234375,179126.984375,-705749.3125,181628.671875,0.001220703125,1.0029296875,-0.158447265625,-0.5798339247703552,1.9531248807907104,-0.1831054538488388,86.66667175292969,131572.0,1.0
12:06:33.705787,202440.109375,197312.53125,223196.9375,210875.21875,223615.4375,179128.9375,-705742.625,181630.375,0.001220703125,1.001220703125,-0.15869140625,-0.5798339247703552,1.8310545682907104,0.03051757626235485,86.66667175292969,131573.0,1.0
12:06:33.708273,202465.859375,197333.015625,223212.046875,210876.65625,223652.109375,179152.1875,-705740.0625,181637.796875,0.001220703125,1.001220703125,-0.154541015625,-0.6103515028953552,1.7089842557907104,0.1831054538488388,86.66667175292969,131574.0,1.0
12:06:33.710776,202469.171875,197339.453125,223216.875,210868.328125,223672.75,179160.6875,-705744.3125,181636.71875,0.002685546875,1.00341796875,-0.15380859375,-0.6408690810203552,1.7089842557907104,0.0915527269244194,86.66667175292969,131575.0,1.0
12:06:33.715847,202448.515625,197320.40625,223204.0,210866.640625,223638.15625,179134.40625,-705748.25,181629.75,0.001708984375,1.003662109375,-0.15625,-0.6408690810203552,1.6174315214157104,0.2136230319738388,86.66667175292969,131576.0,1.0
12:06:33.718259,202443.25,197321.03125,223197.640625,210868.609375,223614.109375,179130.828125,-705752.0,181626.625,-0.00048828125,1.001953125,-0.15625,-0.7629393935203552,1.5563963651657104,0.2441406100988388,86.66667175292969,131577.0,1.0
12:06:33.723340,202462.015625,197345.171875,223207.125,210868.515625,223642.984375,179153.984375,-705748.9375,181633.140625,0.0,1.0009765625,-0.15478515625,-0.7629393935203552,1.4343260526657104,0.2746581733226776,86.66667175292969,131578.0,1.0
12:06:33.725772,202471.671875,197353.125,223217.859375,210867.53125,223673.296875,179162.921875,-705740.25,181637.25,0.000244140625,1.001953125,-0.1552734375,-0.8239745497703552,1.4343260526657104,0.3662109076976776,86.66667175292969,131579.0,1.0
12:06:33.729510,202448.34375,197325.40625,223203.28125,210857.15625,223644.765625,179138.328125,-705742.75,181628.5,0.000732421875,1.003173828125,-0.1572265625,-0.8544921278953552,1.3122557401657104,0.4882812201976776,86.66667175292969,131580.0,1.0
12:06:33.729518,202428.671875,197306.8125,223183.15625,210850.359375,223604.359375,179120.453125,-705756.125,181615.359375,0.001708984375,1.003662109375,-0.156005859375,-0.9460448622703552,1.2207030057907104,0.4577636420726776,86.66667175292969,131581.0,1.0
12:06:33.729520,202444.140625,197324.25,223190.765625,210853.5,223626.625,179138.15625,-705753.6875,181617.765625,-0.00048828125,1.003173828125,-0.155029296875,-1.0375975370407104,1.0986326932907104,0.5187987685203552,86.66667175292969,131582.0,1.0
12:06:33.732670,202458.796875,197335.875,223204.0,210856.171875,223662.5625,179153.53125,-705747.9375,181626.0,0.001220703125,1.002685546875,-0.15625,-1.0986326932907104,1.0070799589157104,0.5187987685203552,86.66667175292969,131583.0,1.0
12:06:33.732677,202446.28125,197315.046875,223199.53125,210857.875,223646.46875,179132.078125,-705743.0625,181623.9375,0.000244140625,1.001953125,-0.1533203125,-1.0986326932907104,1.0070799589157104,0.5187987685203552,86.66667175292969,131584.0,1.0
12:06:33.735214,202435.375,197313.078125,223190.765625,210856.984375,223609.640625,179119.109375,-705735.6875,181616.421875,-0.000732421875,1.002197265625,-0.15576171875,-1.1901854276657104,0.8544921278953552,0.7019042372703552,86.66667175292969,131585.0,1.0
12:06:33.735262,202446.203125,197329.078125,223197.28125,210856.171875,223624.828125,179139.5,-705734.5625,181615.171875,-0.002685546875,1.00146484375,-0.155029296875,-1.1901854276657104,0.7324218153953552,0.7629393935203552,86.66667175292969,131586.0,1.0
12:06:33.737273,202460.953125,197328.265625,223205.328125,210857.25,223658.984375,179145.03125,-705743.5,181619.828125,-0.001708984375,1.003173828125,-0.154296875,-1.1901854276657104,0.7019042372703552,0.8544921278953552,86.66667175292969,131587.0,1.0
12:06:33.740089,202452.90625,197324.609375,223204.890625,210858.40625,223655.046875,179135.5625,-705751.5625,181617.3125,-0.001220703125,1.0029296875,-0.156005859375,-1.2817381620407104,0.6408690810203552,0.8544921278953552,86.66667175292969,131588.0,1.0
12:06:33.740096,202436.546875,197313.609375,223193.171875,210848.578125,223614.8125,179119.109375,-705754.75,181611.59375,0.0,1.00439453125,-0.15625,-1.3122557401657104,0.5187987685203552,0.8544921278953552,86.66667175292969,131589.0,1.0
12:06:33.742113,202435.375,197316.109375,223188.96875,210844.640625,223614.546875,179126.359375,-705760.625,181609.0,0.000732421875,1.002197265625,-0.156982421875,-1.3427733182907104,0.3356933295726776,0.8239745497703552,86.66667175292969,131590.0,1.0
12:06:33.744538,202455.21875,197330.421875,223202.828125,210848.75,223654.609375,179145.484375,-705752.25,181616.0625,0.0029296875,1.002197265625,-0.15478515625,-1.3732908964157104,0.3356933295726776,0.7934569716453552,86.66667175292969,131591.0,1.0
12:06:33.747116,202454.25,197327.203125,223206.40625,210847.859375,223661.671875,179137.796875,-705755.1875,181615.171875,0.002685546875,1.001708984375,-0.154296875,-1.4953612089157104,0.2746581733226776,0.8544921278953552,86.66667175292969,131592.0,1.0
12:06:33.749555,202433.59375,197312.359375,223190.3125,210844.015625,223617.046875,179114.28125,-705767.75,181603.375,0.003662109375,1.000244140625,-0.1572265625,-1.5258787870407104,0.2441406100988388,0.8850097060203552,86.66667175292969,131593.0,1.0
12:06:33.752065,202436.71875,197317.71875,223189.78125,210848.3125,223611.25,179119.734375,-705756.125,181602.84375,0.003173828125,1.000732421875,-0.15625,-1.4648436307907104,0.1525878757238388,0.8850097060203552,86.66667175292969,131594.0,1.0
12:06:33.755216,202460.5,197335.515625,223205.515625,210854.203125,223653.71875,179147.453125,-705742.125,181616.34375,0.00537109375,1.0009765625,-0.15576171875,-1.6174315214157104,0.0915527269244194,0.8544921278953552,86.66667175292969,131595.0,1.0
12:06:33.755224,202459.609375,197331.40625,223207.484375,210853.046875,223665.875,179141.734375,-705739.9375,181616.25,0.004638671875,1.00048828125,-0.154052734375,-1.6784666776657104,0.1525878757238388,0.8850097060203552,86.66667175292969,131596.0,1.0
12:06:33.757159,202441.640625,197311.734375,223194.96875,210857.515625,223627.6875,179119.734375,-705745.25,181610.96875,0.004150390625,1.00146484375,-0.154541015625,-1.6784666776657104,0.0915527269244194,0.9155272841453552,86.66667175292969,131597.0,1.0
12:06:33.764007,202438.0625,197317.984375,223189.234375,210846.515625,223611.6875,179125.375,-705750.1875,181603.46875,0.004150390625,1.002685546875,-0.15625,-1.8005369901657104,0.0,0.9155272841453552,86.66667175292969,131598.0,1.0
12:06:33.764055,202459.15625,197335.15625,223202.109375,210847.140625,223647.453125,179144.6875,-705745.25,181611.78125,0.0048828125,1.0068359375,-0.1552734375,-1.7700194120407104,-0.0610351525247097,0.7934569716453552,86.66667175292969,131599.0,1.0
12:06:33.770812,202469.171875,197342.75,223214.90625,210854.828125,223676.234375,179154.34375,-705739.8125,181620.53125,0.008544921875,1.004150390625,-0.154052734375,-1.8310545682907104,-0.1525878757238388,0.8239745497703552,86.66667175292969,131600.0,1.0
12:06:33.778829,202454.25,197334.078125,223207.125,210855.546875,223648.4375,179140.5625,-705741.6875,181616.96875,0.00732421875,1.001708984375,-0.1552734375,-1.9226073026657104,0.0,0.7629393935203552,86.66667175292969,131601.0,1.0
12:06:33.778839,202446.203125,197330.0625,223200.15625,210856.0,223624.390625,179136.640625,-705749.125,181612.484375,0.00634765625,1.003173828125,-0.15283203125,-2.044677495956421,0.1220703050494194,0.7629393935203552,86.66667175292969,131602.0,1.0
12:06:33.781386,202463.359375,197344.90625,223209.8125,210856.625,223653.71875,179157.828125,-705740.25,181617.234375,0.0068359375,1.001220703125,-0.15283203125,-2.105712652206421,0.03051757626235485,0.7324218153953552,86.66667175292969,131603.0,1.0
12:06:33.781406,202472.484375,197350.53125,223218.65625,210855.734375,223685.890625,179165.875,-705735.6875,181623.671875,0.0068359375,1.00048828125,-0.15283203125,-2.105712652206421,-0.03051757626235485,0.7324218153953552,86.66667175292969,131604.0,1.0
12:06:33.793417,202457.640625,197338.015625,223213.375,210856.078125,223666.765625,179151.828125,-705727.375,181622.953125,0.005126953125,1.00146484375,-0.15234375,-2.197265386581421,0.0,0.6713866591453552,86.66667175292969,131605.0,1.0
12:06:33.800225,202436.265625,197322.46875,223194.609375,210847.859375,223626.078125,179134.578125,-705727.1875,181610.96875,0.003173828125,1.00244140625,-0.155029296875,-2.166747808456421,-0.0610351525247097,0.7324218153953552,86.66667175292969,131606.0,1.0
12:06:33.800274,202445.125,197331.484375,223194.875,210847.6875,223639.140625,179142.625,-705728.5625,181610.078125,0.004150390625,1.0,-0.15283203125,-2.166747808456421,-0.0610351525247097,0.7629393935203552,86.66667175292969,131607.0,1.0
12:06:33.806569,202454.59375,197330.328125,223198.984375,210845.71875,223665.0625,179145.75,-705730.8125,181610.703125,0.00390625,1.00146484375,-0.150146484375,-2.227782964706421,-0.1525878757238388,0.6408690810203552,86.66667175292969,131608.0,1.0
12:06:33.806706,202434.3125,197311.546875,223187.546875,210843.125,223644.6875,179121.796875,-705734.0,181606.234375,0.0009765625,1.001708984375,-0.150146484375,-2.075195074081421,-0.0915527269244194,0.5493163466453552,86.66667175292969,131609.0,1.0
12:06:33.808919,202429.75,197305.46875,223178.6875,210839.28125,223606.5,179105.078125,-705746.875,181600.25,0.0009765625,1.0048828125,-0.15087890625,-2.136230230331421,-0.1220703050494194,0.4882812201976776,86.66667175292969,131610.0,1.0
12:06:33.808947,202422.59375,197300.734375,223169.84375,210820.140625,223608.03125,179108.65625,-705755.125,181588.703125,-0.000244140625,1.007080078125,-0.15185546875,-2.136230230331421,-0.2441406100988388,0.4882812201976776,86.66667175292969,131611.0,1.0
12:06:33.831107,202437.25,197314.234375,223182.984375,210827.828125,223646.734375,179128.765625,-705751.1875,181599.796875,0.001220703125,1.006591796875,-0.150390625,-2.227782964706421,-0.1831054538488388,0.3967284858226776,86.66667175292969,131612.0,1.0
12:06:33.857460,202436.71875,197314.328125,223189.78125,210831.953125,223649.0625,179127.25,-705743.5,181602.03125,0.001953125,1.006103515625,-0.149169921875,-2.258300542831421,-0.1831054538488388,0.4272460639476776,86.66667175292969,131613.0,1.0
12:06:33.857546,202421.515625,197303.328125,223179.046875,210834.265625,223608.921875,179110.703125,-705749.125,181596.578125,0.002685546875,1.00439453125,-0.15234375,-2.410888433456421,-0.1831054538488388,0.3967284858226776,86.66667175292969,131614.0,1.0
12:06:33.857574,202429.296875,197306.28125,223178.25,210838.109375,223609.015625,179116.421875,-705739.5625,181595.953125,0.003662109375,1.0009765625,-0.151123046875,-2.349853277206421,-0.2441406100988388,0.4882812201976776,86.66667175292969,131615.0,1.0
12:06:33.857594,202452.71875,197326.3125,223194.25,210842.3125,223650.671875,179138.25,-705733.3125,181604.265625,0.00390625,0.996826171875,-0.151123046875,-2.227782964706421,-0.2441406100988388,0.5187987685203552,86.66667175292969,131616.0,1.0
12:06:33.857614,202457.546875,197327.46875,223204.359375,210854.5625,223663.546875,179140.65625,-705732.5625,181612.765625,0.00390625,0.995361328125,-0.153564453125,-2.075195074081421,-0.2746581733226776,0.5493163466453552,86.66667175292969,131617.0,1.0
12:06:33.857639,202433.046875,197310.03125,223185.484375,210842.9375,223616.609375,179113.828125,-705739.625,181599.53125,0.00634765625,0.994140625,-0.153076171875,-1.8615721464157104,-0.3051757514476776,0.5493163466453552,86.66667175292969,131618.0,1.0
12:06:33.860198,202429.390625,197312.359375,223177.265625,210836.328125,223601.859375,179112.859375,-705739.5625,181588.984375,0.00341796875,0.99365234375,-0.154296875,-1.7395018339157104,-0.2441406100988388,0.6408690810203552,86.66667175292969,131619.0,1.0
12:06:33.860272,202453.796875,197323.359375,223193.71875,210847.5,223644.765625,179135.03125,-705738.375,181607.3125,0.006591796875,0.994873046875,-0.154296875,-1.7089842557907104,-0.1831054538488388,0.6713866591453552,86.66667175292969,131620.0,1.0
12:06:33.863445,202453.796875,197322.015625,223200.953125,210842.3125,223664.890625,179141.109375,-705739.75,181610.078125,0.0068359375,0.99609375,-0.15283203125,-1.5869139432907104,-0.2441406100988388,0.8239745497703552,86.66667175292969,131621.0,1.0
12:06:33.863517,202436.546875,197303.15625,223190.140625,210843.921875,223626.4375,179115.890625,-705739.3125,181604.71875,0.005859375,0.998291015625,-0.153564453125,-1.5258787870407104,-0.2136230319738388,0.9155272841453552,86.66667175292969,131622.0,1.0
12:06:33.863543,202439.21875,197313.96875,223186.734375,210846.34375,223608.296875,179120.09375,-705737.4375,181600.25,0.00537109375,0.995849609375,-0.15087890625,-1.4648436307907104,-0.2136230319738388,1.0681151151657104,86.66667175292969,131623.0,1.0
12:06:33.868284,202454.59375,197325.328125,223193.265625,210845.984375,223637.171875,179136.640625,-705743.6875,181603.8125,0.005615234375,0.995849609375,-0.1533203125,-1.2512205839157104,-0.1525878757238388,1.1291502714157104,86.66667175292969,131624.0,1.0
12:06:33.870826,202463.453125,197335.78125,223205.421875,210848.75,223665.78125,179147.71875,-705745.125,181611.328125,0.00830078125,0.9970703125,-0.15234375,-1.1901854276657104,0.03051757626235485,1.1901854276657104,86.66667175292969,131625.0,1.0
12:06:33.873321,202451.109375,197329.53125,223201.484375,210845.796875,223641.015625,179133.5,-705745.5625,181607.390625,0.008544921875,0.994873046875,-0.153564453125,-1.1291502714157104,0.0,1.2207030057907104,86.66667175292969,131626.0,1.0
12:06:33.877076,202436.890625,197313.515625,223185.21875,210840.078125,223607.3125,179117.328125,-705746.0,181597.296875,0.008056640625,0.994384765625,-0.15380859375,-1.0681151151657104,0.03051757626235485,1.3122557401657104,86.66667175292969,131627.0,1.0
12:06:33.884040,202461.484375,197333.640625,223198.453125,210853.84375,223635.828125,179135.828125,-705737.6875,181605.78125,0.00830078125,0.99267578125,-0.155029296875,-0.9155272841453552,0.0610351525247097,1.2207030057907104,86.66667175292969,131628.0,1.0
12:06:33.884120,202478.921875,197340.796875,223213.828125,210856.078125,223672.671875,179152.453125,-705729.875,181616.875,0.008544921875,0.996337890625,-0.156005859375,-0.8239745497703552,0.0915527269244194,1.3122557401657104,86.66667175292969,131629.0,1.0
12:06:33.898263,202452.453125,197322.015625,223204.796875,210849.640625,223652.546875,179134.578125,-705733.5625,181617.859375,0.01025390625,0.9970703125,-0.1552734375,-0.7324218153953552,0.2136230319738388,1.4038084745407104,86.66667175292969,131630.0,1.0
12:06:33.901985,202443.0625,197322.640625,223197.015625,210851.96875,223621.875,179128.046875,-705733.5,181615.53125,0.010986328125,0.99853515625,-0.156982421875,-0.6713866591453552,0.1831054538488388,1.3427733182907104,86.66667175292969,131631.0,1.0
