Timestamp,Fz,FC3,FCz,FC4,Cz,C3,C4
12:10:35.229728,201990.578125,196128.703125,218403.203125,207891.171875,219684.21875,180032.484375,-705653.625,179539.140625,0.0068359375,0.9716796875,-0.279296875,-1.8615721464157104,0.3051757514476776,0.9765624403953552,86.66667175292969,192006.0,1.0
12:10:35.236644,202012.21875,196142.46875,218417.140625,207896.796875,219722.75,180049.390625,-705652.5625,179548.703125,0.00830078125,0.97265625,-0.279296875,-1.8920897245407104,0.3662109076976776,0.9765624403953552,86.66667175292969,192007.0,1.0
12:10:35.240989,202007.390625,196136.03125,218418.9375,207896.359375,219726.234375,180042.953125,-705652.3125,179549.421875,0.00830078125,0.97216796875,-0.28173828125,-1.9531248807907104,0.3662109076976776,1.0375975370407104,86.66667175292969,192008.0,1.0
12:10:35.240999,201984.140625,196118.953125,218402.578125,207891.53125,219684.671875,180020.875,-705654.0625,179542.453125,0.008056640625,0.97314453125,-0.281005859375,-2.014159917831421,0.2441406100988388,0.9460448622703552,86.66667175292969,192009.0,1.0
12:10:35.250391,201987.625,196126.828125,218400.96875,207892.953125,219683.0625,180030.171875,-705648.8125,179541.109375,0.00927734375,0.9736328125,-0.2802734375,-2.044677495956421,0.2441406100988388,0.9765624403953552,86.66667175292969,192010.0,1.0
12:10:35.258475,202011.40625,196142.015625,218415.71875,207897.875,219723.5625,180050.109375,-705643.375,179551.84375,0.00927734375,0.97265625,-0.282958984375,-2.136230230331421,0.1831054538488388,0.8850097060203552,86.66667175292969,192011.0,1.0
12:10:35.258489,202010.6875,196137.734375,218418.9375,207895.28125,219734.109375,180048.140625,-705654.375,179550.671875,0.010009765625,0.971923828125,-0.281005859375,-2.166747808456421,0.1525878757238388,0.8544921278953552,86.66667175292969,192012.0,1.0
12:10:35.261011,201994.15625,196123.25,218408.65625,207894.296875,219697.90625,180028.828125,-705656.9375,179546.46875,0.010986328125,0.971923828125,-0.280029296875,-2.227782964706421,0.1831054538488388,0.8239745497703552,86.66667175292969,192013.0,1.0
12:10:35.261013,201997.375,196131.734375,218409.90625,207896.453125,219689.765625,180035.703125,-705659.25,179545.84375,0.01220703125,0.9736328125,-0.27880859375,-2.288818120956421,0.2441406100988388,0.8544921278953552,86.66667175292969,192014.0,1.0
12:10:35.262882,202025.09375,196154.8125,218429.75,207906.015625,219732.234375,180061.28125,-705656.4375,179558.28125,0.0126953125,0.9736328125,-0.279541015625,-2.380370855331421,0.2136230319738388,0.7934569716453552,86.66667175292969,192015.0,1.0
12:10:35.270385,202037.96875,196163.484375,218445.125,207911.203125,219760.21875,180071.03125,-705655.0,179566.859375,0.012939453125,0.974365234375,-0.27880859375,-2.441406011581421,0.0915527269244194,0.9155272841453552,86.66667175292969,192016.0,1.0
12:10:35.281003,202019.90625,196146.765625,218435.921875,207910.03125,219727.046875,180049.65625,-705654.1875,179562.390625,0.01416015625,0.976318359375,-0.280517578125,-2.441406011581421,0.2441406100988388,0.9155272841453552,86.66667175292969,192017.0,1.0
12:10:35.281018,202012.578125,196145.6875,218427.875,207908.609375,219704.515625,180045.359375,-705646.75,179555.6875,0.01171875,0.974853515625,-0.27880859375,-2.593993902206421,0.1525878757238388,0.8239745497703552,86.66667175292969,192018.0,1.0
12:10:35.283490,202033.5,196162.671875,218438.515625,207913.515625,219733.75,180062.4375,-705646.8125,179561.9375,0.01123046875,0.974853515625,-0.27880859375,-2.655029058456421,0.1220703050494194,1.0070799589157104,86.66667175292969,192019.0,1.0
12:10:35.283501,202044.578125,196169.921875,218448.4375,207916.296875,219762.1875,180073.171875,-705649.0625,179568.46875,0.011962890625,0.9765625,-0.277587890625,-2.746581792831421,0.2746581733226776,0.9460448622703552,86.66667175292969,192020.0,1.0
12:10:35.292987,202027.234375,196152.484375,218440.65625,207915.9375,219737.59375,180056.0,-705648.4375,179567.3125,0.012451171875,0.976806640625,-0.277099609375,-2.716064214706421,0.2441406100988388,0.8239745497703552,86.66667175292969,192021.0,1.0
12:10:35.322545,202019.8125,196152.65625,218434.9375,207917.546875,219713.09375,180052.875,-705648.25,179566.234375,0.0126953125,0.974609375,-0.275146484375,-2.838134527206421,0.3051757514476776,0.9155272841453552,86.66667175292969,192022.0,1.0
12:10:35.322627,202039.390625,196170.09375,218444.859375,207922.546875,219738.578125,180072.71875,-705646.0625,179571.0625,0.0107421875,0.974365234375,-0.27734375,-2.838134527206421,0.3051757514476776,0.7019042372703552,86.66667175292969,192023.0,1.0
12:10:35.325632,202057.546875,196183.953125,218460.0625,207927.5625,219776.75,180091.140625,-705644.9375,179581.609375,0.01123046875,0.973388671875,-0.276611328125,-2.899169683456421,0.3051757514476776,0.6713866591453552,86.66667175292969,192024.0,1.0
12:10:35.325702,202041.453125,196171.34375,218455.046875,207924.703125,219760.84375,180078.8125,-705645.5625,179579.5625,0.00927734375,0.974365234375,-0.27685546875,-2.960204839706421,0.3051757514476776,0.6713866591453552,86.66667175292969,192025.0,1.0
12:10:35.326922,202016.953125,196155.515625,218435.734375,207915.765625,219719.359375,180062.0,-705651.6875,179568.375,0.0087890625,0.974365234375,-0.27734375,-2.960204839706421,0.3356933295726776,0.7019042372703552,86.66667175292969,192026.0,1.0
12:10:35.329261,202014.453125,196152.296875,218426.53125,207905.296875,219720.703125,180061.375,-705652.375,179559.625,0.00830078125,0.97265625,-0.279296875,-3.021239995956421,0.0915527269244194,0.7629393935203552,86.66667175292969,192027.0,1.0
12:10:35.331729,202022.9375,196151.046875,218430.640625,207900.015625,219746.71875,180064.234375,-705647.625,179560.328125,0.00732421875,0.970458984375,-0.27685546875,-2.929687261581421,0.03051757626235485,0.5493163466453552,86.66667175292969,192028.0,1.0
12:10:35.334158,202007.921875,196134.6875,218423.140625,207894.390625,219732.953125,180045.640625,-705651.875,179554.171875,0.0087890625,0.9697265625,-0.2763671875,-3.021239995956421,0.0610351525247097,0.5187987685203552,86.66667175292969,192029.0,1.0
12:10:35.336710,201985.578125,196117.609375,218405.25,207887.421875,219688.875,180023.109375,-705661.9375,179544.421875,0.008056640625,0.970458984375,-0.275634765625,-2.929687261581421,0.03051757626235485,0.4272460639476776,86.66667175292969,192030.0,1.0
12:10:35.339209,201986.109375,196119.3125,218399.53125,207881.96875,219687.078125,180025.609375,-705675.25,179537.53125,0.005859375,0.96875,-0.27587890625,-2.868652105331421,0.0,0.5187987685203552,86.66667175292969,192031.0,1.0
12:10:35.341611,202004.890625,196131.734375,218410.890625,207884.5625,219723.375,180041.875,-705677.0,179544.953125,0.0068359375,0.96923828125,-0.278076171875,-2.838134527206421,0.0,0.5493163466453552,86.66667175292969,192032.0,1.0
12:10:35.344297,202006.3125,196133.796875,218418.03125,207887.59375,219730.796875,180042.953125,-705672.3125,179548.53125,0.00732421875,0.96923828125,-0.27880859375,-2.716064214706421,-0.1831054538488388,0.6103515028953552,86.66667175292969,192033.0,1.0
12:10:35.347368,201989.0625,196122.34375,218407.3125,207887.234375,219693.15625,180027.3125,-705676.0,179544.6875,0.0087890625,0.96728515625,-0.277099609375,-2.716064214706421,-0.1831054538488388,0.6408690810203552,86.66667175292969,192034.0,1.0
12:10:35.347382,201992.1875,196131.109375,218407.84375,207889.203125,219691.734375,180035.984375,-705671.0625,179544.78125,0.00927734375,0.96826171875,-0.277587890625,-2.655029058456421,-0.2136230319738388,0.4882812201976776,86.66667175292969,192035.0,1.0
12:10:35.351121,202013.203125,196145.328125,218419.5625,207893.234375,219728.03125,180053.234375,-705672.3125,179552.90625,0.01025390625,0.969482421875,-0.27783203125,-2.593993902206421,-0.1525878757238388,0.5798339247703552,86.66667175292969,192036.0,1.0
12:10:35.351139,202012.21875,196141.9375,218422.0625,207891.4375,219738.578125,180051.53125,-705673.5,179552.90625,0.009521484375,0.970947265625,-0.278076171875,-2.471923589706421,-0.3051757514476776,0.6713866591453552,86.66667175292969,192037.0,1.0
12:10:35.364315,201987.984375,196123.421875,218406.859375,207885.625,219698.609375,180029.09375,-705662.25,179544.78125,0.011474609375,0.9697265625,-0.277099609375,-2.410888433456421,-0.3051757514476776,0.6408690810203552,86.66667175292969,192038.0,1.0
12:10:35.367831,201987.09375,196129.234375,218403.734375,207884.5625,219686.640625,180034.640625,-705653.1875,179541.109375,0.01025390625,0.970703125,-0.275146484375,-2.380370855331421,-0.4272460639476776,0.7019042372703552,86.66667175292969,192039.0,1.0
12:10:35.367851,202011.328125,196147.296875,218418.21875,207890.90625,219723.5625,180056.09375,-705649.25,179549.875,0.0107421875,0.970947265625,-0.275146484375,-2.227782964706421,-0.3662109076976776,0.7019042372703552,86.66667175292969,192040.0,1.0
12:10:35.367856,202019.640625,196152.578125,218428.5,207894.203125,219746.171875,180062.4375,-705655.6875,179555.140625,0.01318359375,0.970947265625,-0.27587890625,-2.197265386581421,-0.2441406100988388,0.7019042372703552,86.66667175292969,192041.0,1.0
12:10:35.370484,201996.484375,196131.734375,218413.65625,207889.03125,219708.890625,180038.75,-705663.5625,179546.75,0.013427734375,0.971923828125,-0.27294921875,-2.136230230331421,-0.2746581733226776,0.7324218153953552,86.66667175292969,192042.0,1.0
12:10:35.376688,201988.171875,196130.84375,218403.90625,207885.8125,219683.421875,180035.078125,-705660.875,179538.78125,0.0146484375,0.970703125,-0.272216796875,-2.044677495956421,-0.2136230319738388,0.7324218153953552,86.66667175292969,192043.0,1.0
12:10:35.423599,202008.734375,196146.84375,218414.46875,207890.71875,219712.5625,180052.78125,-705655.0,179543.875,0.015380859375,0.970703125,-0.276123046875,-2.014159917831421,-0.1525878757238388,0.8239745497703552,86.66667175292969,192044.0,1.0
12:10:35.423633,202021.875,196156.0625,218426.53125,207893.578125,219741.890625,180062.625,-705651.5625,179550.046875,0.012939453125,0.969482421875,-0.274169921875,-1.8920897245407104,-0.0610351525247097,0.8239745497703552,86.66667175292969,192045.0,1.0
12:10:35.425508,202002.640625,196138.171875,218417.765625,207889.65625,219715.0625,180043.046875,-705656.5625,179545.40625,0.01318359375,0.968017578125,-0.275390625,-1.7700194120407104,-0.03051757626235485,0.9155272841453552,86.66667175292969,192046.0,1.0
12:10:35.427946,201990.578125,196133.796875,218407.671875,207887.234375,219686.359375,180036.78125,-705658.8125,179540.484375,0.013427734375,0.96875,-0.279052734375,-1.7700194120407104,-0.0610351525247097,0.8239745497703552,86.66667175292969,192047.0,1.0
12:10:35.430418,202009.0,196149.984375,218414.46875,207891.890625,219707.90625,180053.234375,-705655.625,179544.515625,0.0166015625,0.969482421875,-0.278076171875,-1.6174315214157104,0.1525878757238388,0.9460448622703552,86.66667175292969,192048.0,1.0
12:10:35.432958,202026.25,196161.25,218428.765625,207895.90625,219743.140625,180067.265625,-705652.5625,179553.625,0.016845703125,0.970703125,-0.27978515625,-1.5258787870407104,0.1831054538488388,1.0070799589157104,86.66667175292969,192049.0,1.0
12:10:35.435382,202015.609375,196151.140625,218427.78125,207896.796875,219730.359375,180054.578125,-705644.1875,179555.6875,0.01806640625,0.968994140625,-0.279052734375,-1.3732908964157104,0.2441406100988388,1.0375975370407104,86.66667175292969,192050.0,1.0
12:10:35.437931,201999.078125,196139.703125,218414.1875,207894.65625,219692.71875,180040.453125,-705648.8125,179548.703125,0.018310546875,0.96728515625,-0.280029296875,-1.2817381620407104,0.3967284858226776,1.0375975370407104,86.66667175292969,192051.0,1.0
12:10:35.440370,202011.59375,196151.5,218419.5625,207897.78125,219707.375,180055.109375,-705646.5,179550.59375,0.018798828125,0.965087890625,-0.28076171875,-1.0681151151657104,0.4882812201976776,1.0070799589157104,86.66667175292969,192052.0,1.0
12:10:35.442855,202030.546875,196164.375,218433.140625,207901.28125,219745.46875,180072.09375,-705647.8125,179559.078125,0.0166015625,0.9638671875,-0.27880859375,-0.9765624403953552,0.4577636420726776,1.0681151151657104,86.66667175292969,192053.0,1.0
12:10:35.445367,202018.5625,196151.3125,218427.78125,207897.078125,219736.078125,180059.5,-705646.125,179555.859375,0.013916015625,0.961181640625,-0.278564453125,-0.7019042372703552,0.6103515028953552,0.8239745497703552,86.66667175292969,192054.0,1.0
12:10:35.447890,201997.640625,196136.921875,218413.5625,207895.28125,219697.0,180041.078125,-705644.6875,179552.203125,0.0126953125,0.960205078125,-0.279296875,-0.5798339247703552,0.4577636420726776,0.7019042372703552,86.66667175292969,192055.0,1.0
12:10:35.450543,202003.09375,196144.875,218411.328125,207894.296875,219699.6875,180050.28125,-705643.5625,179549.25,0.01025390625,0.96435546875,-0.278564453125,-0.3662109076976776,0.5798339247703552,0.4577636420726776,86.66667175292969,192056.0,1.0
12:10:35.452932,202024.375,196158.375,218425.546875,207898.140625,219739.03125,180068.703125,-705640.3125,179559.4375,0.0087890625,0.96337890625,-0.27978515625,-0.3356933295726776,0.5187987685203552,0.4577636420726776,86.66667175292969,192057.0,1.0
12:10:35.455976,202020.984375,196154.71875,218428.5,207896.359375,219742.953125,180066.375,-705639.875,179560.875,0.008544921875,0.9658203125,-0.2783203125,-0.2746581733226776,0.5187987685203552,0.3051757514476776,86.66667175292969,192058.0,1.0
12:10:35.455985,201999.78125,196138.265625,218413.921875,207891.265625,219701.75,180046.4375,-705638.5,179553.1875,0.00830078125,0.96923828125,-0.27734375,-0.2441406100988388,0.5187987685203552,0.1831054538488388,86.66667175292969,192059.0,1.0
12:10:35.455986,202000.140625,196144.609375,218409.984375,207887.859375,219696.109375,180052.609375,-705636.0,179547.640625,0.008544921875,0.969970703125,-0.279052734375,-0.1525878757238388,0.4577636420726776,-0.03051757626235485,86.66667175292969,192060.0,1.0
12:10:35.458484,202022.765625,196159.09375,218423.046875,207892.0625,219734.015625,180072.015625,-705646.5625,179555.6875,0.007568359375,0.970703125,-0.27978515625,-0.2136230319738388,0.3967284858226776,-0.2136230319738388,86.66667175292969,192061.0,1.0
12:10:35.458491,202021.78125,196156.140625,218427.34375,207889.46875,219746.09375,180072.453125,-705651.0625,179556.125,0.00732421875,0.973388671875,-0.279296875,-0.2746581733226776,0.2746581733226776,-0.3356933295726776,86.66667175292969,192062.0,1.0
12:10:35.460435,201999.96875,196138.4375,218412.9375,207886.96875,219706.125,180051.171875,-705645.9375,179549.15625,0.007568359375,0.97412109375,-0.279541015625,-0.2136230319738388,0.2441406100988388,-0.3662109076976776,86.66667175292969,192063.0,1.0
12:10:35.466046,202000.953125,196146.046875,218411.78125,207890.546875,219696.46875,180057.53125,-705646.1875,179548.53125,0.00732421875,0.97705078125,-0.28173828125,-0.2441406100988388,0.1831054538488388,-0.3356933295726776,86.66667175292969,192064.0,1.0
12:10:35.466050,202025.625,196164.109375,218428.046875,207898.6875,219735.359375,180078.984375,-705643.1875,179560.78125,0.010986328125,0.978759765625,-0.280517578125,-0.4272460639476776,0.2136230319738388,-0.3662109076976776,86.66667175292969,192065.0,1.0
12:10:35.467885,202028.578125,196163.65625,218433.421875,207895.640625,219753.953125,180079.96875,-705643.25,179561.671875,0.0126953125,0.97900390625,-0.282470703125,-0.4577636420726776,0.3051757514476776,-0.3051757514476776,86.66667175292969,192066.0,1.0
12:10:35.483646,202003.28125,196139.609375,218417.5,207889.828125,219714.4375,180052.078125,-705646.1875,179553.453125,0.011962890625,0.9794921875,-0.27978515625,-0.5187987685203552,0.3356933295726776,-0.3967284858226776,86.66667175292969,192067.0,1.0
12:10:35.483661,201996.5625,196139.0625,218409.453125,207888.9375,219689.859375,180047.875,-705641.625,179548.078125,0.01220703125,0.97998046875,-0.279296875,-0.5187987685203552,0.3967284858226776,-0.3662109076976776,86.66667175292969,192068.0,1.0
12:10:35.485912,202018.203125,196154.984375,218419.921875,207893.3125,219719.09375,180065.75,-705639.125,179553.359375,0.013427734375,0.97900390625,-0.2822265625,-0.7324218153953552,0.4272460639476776,-0.2746581733226776,86.66667175292969,192069.0,1.0
12:10:35.489151,202028.84375,196162.40625,218430.640625,207895.28125,219748.140625,180076.03125,-705639.125,179560.875,0.0107421875,0.979736328125,-0.28076171875,-0.8239745497703552,0.4882812201976776,-0.1525878757238388,86.66667175292969,192070.0,1.0
12:10:35.490443,202009.53125,196145.15625,218420.09375,207893.859375,219721.0625,180055.640625,-705640.75,179557.734375,0.01123046875,0.9794921875,-0.28173828125,-1.0070799589157104,0.5187987685203552,-0.1525878757238388,86.66667175292969,192071.0,1.0
12:10:35.501057,201997.015625,196138.984375,218408.5625,207892.609375,219691.015625,180045.8125,-705640.6875,179551.921875,0.009765625,0.978515625,-0.281982421875,-1.0375975370407104,0.5493163466453552,-0.03051757626235485,86.66667175292969,192072.0,1.0
12:10:35.501137,202013.109375,196153.46875,218417.0625,207896.171875,219715.328125,180063.15625,-705640.125,179558.09375,0.009033203125,0.978515625,-0.283203125,-1.1291502714157104,0.5187987685203552,0.0610351525247097,86.66667175292969,192073.0,1.0
12:10:35.503618,202025.359375,196161.421875,218427.0625,207895.1875,219747.96875,180075.9375,-705636.75,179562.921875,0.006591796875,0.979736328125,-0.279296875,-1.3427733182907104,0.5798339247703552,0.1831054538488388,86.66667175292969,192074.0,1.0
12:10:35.503669,202013.109375,196150.25,218424.921875,207895.640625,219733.390625,180063.6875,-705634.4375,179563.375,0.0048828125,0.97900390625,-0.276611328125,-1.5258787870407104,0.4272460639476776,0.2136230319738388,86.66667175292969,192075.0,1.0
12:10:35.510585,201996.125,196140.40625,218412.578125,207893.5,219697.984375,180048.765625,-705637.8125,179558.359375,0.003662109375,0.978515625,-0.278564453125,-1.6784666776657104,0.4272460639476776,0.3356933295726776,86.66667175292969,192076.0,1.0
12:10:35.518507,202008.453125,196154.09375,218415.53125,207894.65625,219710.859375,180063.15625,-705642.1875,179558.546875,0.001708984375,0.977294921875,-0.275390625,-1.7395018339157104,0.4272460639476776,0.3662109076976776,86.66667175292969,192077.0,1.0
12:10:35.518517,202027.0625,196166.609375,218428.671875,207897.875,219747.78125,180079.15625,-705641.5,179567.3125,0.001220703125,0.977294921875,-0.2763671875,-1.9226073026657104,0.2136230319738388,0.3356933295726776,86.66667175292969,192078.0,1.0
12:10:35.524768,202016.5,196156.0625,218426.078125,207895.28125,219740.640625,180069.5,-705648.8125,179565.078125,-0.00048828125,0.977294921875,-0.2763671875,-2.044677495956421,0.1831054538488388,0.5187987685203552,86.66667175292969,192079.0,1.0
12:10:35.524770,201994.421875,196139.96875,218410.34375,207889.828125,219697.90625,180050.109375,-705646.75,179556.3125,-0.0009765625,0.9775390625,-0.27734375,-2.197265386581421,0.0610351525247097,0.5798339247703552,86.66667175292969,192080.0,1.0
12:10:35.534193,202000.0625,196148.546875,218410.625,207888.75,219703.625,180059.84375,-705645.3125,179554.34375,-0.00244140625,0.97802734375,-0.27734375,-2.288818120956421,-0.0915527269244194,0.5798339247703552,86.66667175292969,192081.0,1.0
12:10:35.538571,202017.21875,196159.1875,218418.484375,207888.75,219737.6875,180073.34375,-705645.5,179558.453125,-0.001708984375,0.976318359375,-0.2783203125,-2.471923589706421,-0.2441406100988388,0.5798339247703552,86.66667175292969,192082.0,1.0
12:10:35.538589,202007.46875,196149.4375,218413.921875,207882.046875,219735.0,180063.78125,-705644.5,179553.359375,0.0009765625,0.977294921875,-0.27734375,-2.532958745956421,-0.2746581733226776,0.6408690810203552,86.66667175292969,192083.0,1.0
12:10:35.546134,201984.859375,196130.390625,218398.375,207878.5625,219692.265625,180041.515625,-705643.625,179546.75,0.000732421875,0.977783203125,-0.278564453125,-2.563476324081421,-0.4272460639476776,0.6713866591453552,86.66667175292969,192084.0,1.0
12:10:35.546154,201988.96875,196137.734375,218397.296875,207880.0,219688.0625,180048.3125,-705642.3125,179543.796875,0.00439453125,0.9755859375,-0.27734375,-2.563476324081421,-0.6408690810203552,0.7324218153953552,86.66667175292969,192085.0,1.0
12:10:35.547982,202012.390625,196153.375,218411.25,207884.5625,219725.34375,180066.640625,-705649.8125,179552.828125,0.006103515625,0.974609375,-0.27685546875,-2.655029058456421,-0.6408690810203552,0.7019042372703552,86.66667175292969,192086.0,1.0
12:10:35.554257,202011.40625,196148.375,218413.03125,207881.421875,219735.359375,180063.25,-705654.8125,179551.84375,0.007080078125,0.9736328125,-0.278076171875,-2.685546636581421,-0.5798339247703552,0.8239745497703552,86.66667175292969,192087.0,1.0
12:10:35.564847,201989.234375,196126.90625,218397.828125,207878.921875,219695.21875,180038.296875,-705650.3125,179544.6875,0.009033203125,0.973388671875,-0.278076171875,-2.746581792831421,-0.5798339247703552,1.0070799589157104,86.66667175292969,192088.0,1.0
12:10:35.564867,201988.078125,196130.671875,218393.984375,207879.90625,219681.890625,180041.25,-705655.6875,179541.640625,0.009033203125,0.972412109375,-0.27783203125,-2.807616949081421,-0.5798339247703552,1.0070799589157104,86.66667175292969,192089.0,1.0
12:10:35.574744,202005.59375,196142.734375,218401.9375,207880.625,219710.5,180056.28125,-705649.5,179545.3125,0.00927734375,0.97021484375,-0.279052734375,-2.807616949081421,-0.5798339247703552,1.1596678495407104,86.66667175292969,192090.0,1.0
12:10:35.574756,202009.984375,196143.09375,218408.375,207879.09375,219728.296875,180057.4375,-705643.8125,179546.203125,0.0107421875,0.969970703125,-0.27734375,-2.746581792831421,-0.5798339247703552,1.1596678495407104,86.66667175292969,192091.0,1.0
12:10:35.577309,201993.96875,196127.09375,218399.625,207879.28125,219695.390625,180035.984375,-705649.0,179543.875,0.011962890625,0.97021484375,-0.277587890625,-2.563476324081421,-0.5493163466453552,1.1901854276657104,86.66667175292969,192092.0,1.0
12:10:35.577369,201986.734375,196126.109375,218392.921875,207879.8125,219674.46875,180032.40625,-705652.75,179540.125,0.01025390625,0.970703125,-0.27783203125,-2.593993902206421,-0.5187987685203552,1.3122557401657104,86.66667175292969,192093.0,1.0
12:10:35.579286,202007.390625,196142.015625,218404.359375,207885.984375,219705.234375,180049.921875,-705649.1875,179547.375,0.01416015625,0.969482421875,-0.277587890625,-2.593993902206421,-0.3662109076976776,1.3122557401657104,86.66667175292969,192094.0,1.0
12:10:35.595516,202015.796875,196145.15625,218413.203125,207884.734375,219732.671875,180055.46875,-705654.0625,179551.03125,0.014404296875,0.968505859375,-0.27587890625,-2.441406011581421,-0.3662109076976776,1.3732908964157104,86.66667175292969,192095.0,1.0
12:10:35.598567,201999.4375,196132.28125,218406.421875,207882.765625,219710.421875,180040.265625,-705654.5,179549.421875,0.01416015625,0.967529296875,-0.27587890625,-2.288818120956421,-0.2746581733226776,1.3732908964157104,86.66667175292969,192096.0,1.0
12:10:35.598630,201990.046875,196129.765625,218397.03125,207881.96875,219681.984375,180034.8125,-705654.1875,179545.84375,0.015380859375,0.9677734375,-0.278564453125,-2.227782964706421,-0.2136230319738388,1.4038084745407104,86.66667175292969,192097.0,1.0
12:10:35.598656,202011.046875,196148.453125,218410.890625,207891.703125,219710.140625,180055.921875,-705658.5625,179554.96875,0.015869140625,0.968017578125,-0.281982421875,-2.136230230331421,-0.1525878757238388,1.4343260526657104,86.66667175292969,192098.0,1.0
12:10:35.600524,202029.109375,196160.703125,218426.984375,207897.96875,219747.875,180072.1875,-705656.4375,179564.625,0.014892578125,0.968017578125,-0.27783203125,-2.014159917831421,-0.03051757626235485,1.4038084745407104,86.66667175292969,192099.0,1.0
12:10:35.606782,202016.0625,196146.9375,218422.234375,207896.53125,219731.703125,180057.53125,-705658.5625,179562.125,0.013916015625,0.968017578125,-0.27734375,-1.8310545682907104,0.0610351525247097,1.4343260526657104,86.66667175292969,192100.0,1.0
12:10:35.611531,201998.0,196134.875,218407.671875,207892.6875,219694.953125,180042.0625,-705662.125,179554.796875,0.013427734375,0.96484375,-0.275146484375,-1.7700194120407104,0.1831054538488388,1.3427733182907104,86.66667175292969,192101.0,1.0
12:10:35.611619,202011.59375,196150.0625,218414.28125,207894.75,219711.40625,180059.21875,-705653.625,179558.453125,0.012451171875,0.965576171875,-0.27685546875,-1.7395018339157104,0.2441406100988388,1.2207030057907104,86.66667175292969,192102.0,1.0
12:10:35.618887,202032.875,196164.640625,218431.1875,207900.640625,219752.171875,180078.453125,-705646.75,179570.25,0.012939453125,0.966796875,-0.277587890625,-1.6784666776657104,0.3356933295726776,1.1901854276657104,86.66667175292969,192103.0,1.0
12:10:35.626276,202021.875,196153.90625,218427.6875,207896.171875,219744.03125,180065.03125,-705646.125,179564.625,0.011962890625,0.9677734375,-0.277587890625,-1.6479490995407104,0.2441406100988388,1.1596678495407104,86.66667175292969,192104.0,1.0
12:10:35.626369,202002.921875,196141.125,218415.359375,207894.390625,219705.234375,180047.25,-705651.5625,179558.71875,0.01318359375,0.96630859375,-0.27685546875,-1.4648436307907104,0.3967284858226776,1.0375975370407104,86.66667175292969,192105.0,1.0
12:10:35.628318,202008.90625,196151.765625,218415.796875,207893.859375,219709.34375,180060.390625,-705652.1875,179556.9375,0.01513671875,0.96728515625,-0.279541015625,-1.3427733182907104,0.4577636420726776,1.0070799589157104,86.66667175292969,192106.0,1.0
12:10:35.639890,202025.265625,196162.578125,218426.984375,207893.046875,219744.125,180077.203125,-705648.8125,179561.578125,0.015869140625,0.96826171875,-0.278564453125,-1.4038084745407104,0.4882812201976776,0.8544921278953552,86.66667175292969,192107.0,1.0
12:10:35.639978,202015.171875,196152.125,218424.921875,207887.328125,219744.390625,180069.0625,-705644.8125,179557.03125,0.01708984375,0.971923828125,-0.276611328125,-1.2512205839157104,0.5493163466453552,0.7934569716453552,86.66667175292969,192108.0,1.0
12:10:35.642355,201993.0,196134.15625,218408.375,207883.65625,219702.375,180048.046875,-705651.5,179550.5,0.015380859375,0.9716796875,-0.275634765625,-1.2512205839157104,0.5493163466453552,0.7019042372703552,86.66667175292969,192109.0,1.0
12:10:35.642441,201996.21875,196142.203125,218406.859375,207883.921875,219698.796875,180055.921875,-705656.4375,179549.15625,0.01513671875,0.9716796875,-0.274658203125,-1.1596678495407104,0.5798339247703552,0.6713866591453552,86.66667175292969,192110.0,1.0
12:10:35.649296,202014.0,196152.65625,218417.0625,207884.734375,219731.609375,180071.296875,-705655.6875,179555.234375,0.016357421875,0.968994140625,-0.27978515625,-1.0986326932907104,0.8239745497703552,0.5798339247703552,86.66667175292969,192111.0,1.0
12:10:35.653022,202012.296875,196150.0625,218419.375,207881.78125,219741.625,180069.15625,-705650.25,179554.796875,0.015625,0.97021484375,-0.277587890625,-1.0986326932907104,0.8544921278953552,0.5798339247703552,86.66667175292969,192112.0,1.0
12:10:35.664072,201988.609375,196130.3125,218403.546875,207877.84375,219702.375,180045.015625,-705653.625,179547.375,0.016357421875,0.970458984375,-0.2822265625,-1.0070799589157104,0.8850097060203552,0.4272460639476776,86.66667175292969,192113.0,1.0
12:10:35.664131,201981.8125,196130.21875,218395.421875,207874.265625,219686.71875,180043.84375,-705655.0625,179541.296875,0.017333984375,0.971435546875,-0.2783203125,-0.9460448622703552,0.9460448622703552,0.4577636420726776,86.66667175292969,192114.0,1.0
12:10:35.665598,202000.140625,196142.828125,218404.359375,207876.859375,219717.921875,180059.578125,-705647.625,179547.8125,0.01806640625,0.973388671875,-0.279052734375,-0.9155272841453552,0.9460448622703552,0.3967284858226776,86.66667175292969,192115.0,1.0
12:10:35.674343,202006.21875,196145.15625,218412.140625,207878.03125,219739.109375,180063.25,-705656.125,179551.84375,0.01611328125,0.97412109375,-0.27978515625,-0.8544921278953552,1.0986326932907104,0.4577636420726776,86.66667175292969,192116.0,1.0
12:10:35.677785,201986.734375,196128.25,218398.734375,207874.265625,219702.1875,180040.1875,-705655.3125,179543.875,0.0126953125,0.97119140625,-0.27880859375,-0.8239745497703552,1.1596678495407104,0.4272460639476776,86.66667175292969,192117.0,1.0
12:10:35.677836,201980.125,196130.578125,218390.765625,207872.21875,219678.140625,180039.109375,-705655.4375,179537.171875,0.012939453125,0.9716796875,-0.27880859375,-0.7934569716453552,1.2512205839157104,0.3356933295726776,86.66667175292969,192118.0,1.0
12:10:35.683094,202002.375,196148.09375,218404.625,207878.296875,219711.3125,180060.125,-705657.9375,179544.515625,0.01171875,0.97021484375,-0.278564453125,-0.7324218153953552,1.1596678495407104,0.2441406100988388,86.66667175292969,192119.0,1.0
12:10:35.685400,202017.671875,196159.28125,218419.5625,207883.125,219743.3125,180072.90625,-705652.125,179552.109375,0.009521484375,0.968994140625,-0.28076171875,-0.7324218153953552,1.1596678495407104,0.2441406100988388,86.66667175292969,192120.0,1.0
12:10:35.689293,202000.59375,196142.828125,218411.25,207879.640625,219716.765625,180053.328125,-705651.5,179546.921875,0.00927734375,0.968994140625,-0.279541015625,-0.6713866591453552,1.1291502714157104,0.1831054538488388,86.66667175292969,192121.0,1.0
12:10:35.699793,201988.078125,196136.65625,218400.15625,207877.21875,219685.734375,180043.578125,-705656.25,179541.5625,0.006591796875,0.9677734375,-0.28125,-0.5798339247703552,1.1291502714157104,0.2136230319738388,86.66667175292969,192122.0,1.0
12:10:35.699814,202004.25,196151.9375,218406.6875,207879.015625,219706.390625,180060.828125,-705652.0,179542.984375,0.0048828125,0.968017578125,-0.278564453125,-0.6103515028953552,0.9460448622703552,0.0915527269244194,86.66667175292969,192123.0,1.0
12:10:35.701826,202015.34375,196157.9375,218413.84375,207876.59375,219735.453125,180072.640625,-705650.0625,179544.0625,0.004150390625,0.9677734375,-0.280517578125,-0.5187987685203552,0.8239745497703552,0.0915527269244194,86.66667175292969,192124.0,1.0
12:10:35.705539,202000.40625,196143.1875,218406.140625,207874.1875,219718.640625,180058.953125,-705649.0,179541.734375,0.006103515625,0.967041015625,-0.277587890625,-0.4577636420726776,0.8239745497703552,0.0610351525247097,86.66667175292969,192125.0,1.0
12:10:35.713574,201984.671875,196133.609375,218394.703125,207871.765625,219681.53125,180046.625,-705642.4375,179537.09375,0.005859375,0.96875,-0.283935546875,-0.3967284858226776,0.7629393935203552,0.03051757626235485,86.66667175292969,192126.0,1.0
12:10:35.713598,201998.265625,196147.828125,218400.78125,207875.4375,219695.75,180062.171875,-705642.3125,179538.703125,0.006103515625,0.970458984375,-0.28173828125,-0.3051757514476776,0.6408690810203552,0.0915527269244194,86.66667175292969,192127.0,1.0
12:10:35.719296,202017.3125,196160.53125,218414.375,207878.75,219735.09375,180078.453125,-705649.625,179547.375,0.005126953125,0.970703125,-0.2822265625,-0.2136230319738388,0.4882812201976776,0.0610351525247097,86.66667175292969,192128.0,1.0
12:10:35.726031,202007.921875,196152.578125,218413.484375,207877.578125,219729.546875,180068.4375,-705643.375,179546.46875,0.005615234375,0.97119140625,-0.280029296875,-0.2136230319738388,0.3051757514476776,0.1220703050494194,86.66667175292969,192129.0,1.0
12:10:35.726050,201989.5,196140.328125,218400.0625,207876.15625,219690.75,180051.265625,-705651.25,179542.359375,0.008056640625,0.97119140625,-0.281982421875,-0.1831054538488388,0.2746581733226776,0.1525878757238388,86.66667175292969,192130.0,1.0
12:10:35.735955,201998.625,196152.484375,218405.4375,207880.703125,219699.15625,180063.96875,-705654.5,179546.46875,0.0078125,0.97119140625,-0.280517578125,-0.2441406100988388,0.3662109076976776,0.2441406100988388,86.66667175292969,192131.0,1.0
12:10:35.735966,202019.453125,196165.71875,218419.296875,207885.71875,219736.34375,180078.625,-705650.5,179556.671875,0.00830078125,0.974853515625,-0.280517578125,-0.2136230319738388,0.2136230319738388,0.3356933295726776,86.66667175292969,192132.0,1.0
12:10:35.737929,202017.671875,196162.3125,218423.84375,207886.078125,219742.421875,180074.875,-705650.75,179559.078125,0.00830078125,0.9736328125,-0.277587890625,-0.2136230319738388,0.1831054538488388,0.3662109076976776,86.66667175292969,192133.0,1.0
12:10:35.741767,201993.96875,196142.015625,218406.0625,207879.453125,219698.4375,180049.296875,-705657.6875,179550.59375,0.007080078125,0.97509765625,-0.282470703125,-0.3051757514476776,0.1220703050494194,0.4272460639476776,86.66667175292969,192134.0,1.0
12:10:35.747896,201991.734375,196144.96875,218399.171875,207875.796875,219688.875,180052.078125,-705652.3125,179544.859375,0.00634765625,0.974853515625,-0.281982421875,-0.3967284858226776,0.1525878757238388,0.4577636420726776,86.66667175292969,192135.0,1.0
12:10:35.794954,202010.875,196156.953125,218410.890625,207880.0,219726.0625,180070.21875,-705652.1875,179552.5625,0.007080078125,0.9736328125,-0.281982421875,-0.5493163466453552,-0.03051757626235485,0.5187987685203552,86.66667175292969,192136.0,1.0
12:10:35.794995,202013.734375,196157.125,218417.140625,207879.640625,219740.015625,180072.453125,-705656.125,179553.984375,0.00537109375,0.975830078125,-0.281982421875,-0.5493163466453552,0.03051757626235485,0.6103515028953552,86.66667175292969,192137.0,1.0
12:10:35.818557,201995.234375,196141.75,218404.1875,207876.6875,219700.3125,180051.71875,-705658.375,179548.359375,0.00732421875,0.9765625,-0.2841796875,-0.6408690810203552,-0.03051757626235485,0.7019042372703552,86.66667175292969,192138.0,1.0
12:10:35.818633,201988.796875,196141.75,218394.53125,207873.296875,219681.09375,180051.265625,-705657.3125,179540.84375,0.007080078125,0.97607421875,-0.28076171875,-0.7934569716453552,-0.1525878757238388,0.5798339247703552,86.66667175292969,192139.0,1.0
12:10:35.820441,202004.609375,196155.15625,218402.84375,207875.4375,219713.90625,180069.0625,-705656.5625,179545.21875,0.006103515625,0.9765625,-0.2841796875,-0.8850097060203552,-0.0915527269244194,0.6713866591453552,86.66667175292969,192140.0,1.0
12:10:35.823112,202009.984375,196158.65625,218410.53125,207873.828125,219735.8125,180075.140625,-705649.1875,179546.75,0.0078125,0.97705078125,-0.282958984375,-1.0375975370407104,-0.1220703050494194,0.7934569716453552,86.66667175292969,192141.0,1.0
12:10:35.825443,201988.796875,196139.34375,218399.078125,207869.984375,219703.53125,180054.3125,-705657.3125,179540.9375,0.007568359375,0.977783203125,-0.280029296875,-1.1596678495407104,-0.1220703050494194,0.8544921278953552,86.66667175292969,192142.0,1.0
12:10:35.827965,201979.21875,196135.3125,218389.875,207867.921875,219680.90625,180048.765625,-705664.4375,179534.9375,0.008544921875,0.97509765625,-0.281005859375,-1.2207030057907104,-0.1831054538488388,0.9765624403953552,86.66667175292969,192143.0,1.0
12:10:35.831579,201998.09375,196148.453125,218399.171875,207870.875,219708.71875,180065.484375,-705654.5,179539.328125,0.010498046875,0.975341796875,-0.27978515625,-1.2207030057907104,-0.2441406100988388,0.9460448622703552,86.66667175292969,192144.0,1.0
12:10:35.832979,202011.765625,196155.515625,218411.78125,207872.578125,219739.203125,180075.765625,-705652.3125,179544.78125,0.009521484375,0.97607421875,-0.2822265625,-1.3427733182907104,-0.2441406100988388,0.8239745497703552,86.66667175292969,192145.0,1.0
12:10:35.835525,201994.328125,196139.96875,218406.421875,207870.15625,219715.6875,180058.421875,-705657.5625,179541.921875,0.0087890625,0.974609375,-0.28564453125,-1.4648436307907104,-0.3356933295726776,0.8239745497703552,86.66667175292969,192146.0,1.0
12:10:35.837946,201981.453125,196135.140625,218394.796875,207868.546875,219683.140625,180049.21875,-705655.3125,179535.03125,0.010009765625,0.973876953125,-0.2822265625,-1.5869139432907104,-0.2746581733226776,0.7934569716453552,86.66667175292969,192147.0,1.0
12:10:35.840706,201995.765625,196146.3125,218400.15625,207870.25,219703.078125,180063.421875,-705657.125,179538.078125,0.010009765625,0.97509765625,-0.282470703125,-1.6479490995407104,-0.2441406100988388,0.7934569716453552,86.66667175292969,192148.0,1.0
12:10:35.842928,202010.875,196156.0625,218412.234375,207871.953125,219736.703125,180075.59375,-705657.5,179544.953125,0.01123046875,0.974853515625,-0.282470703125,-1.8005369901657104,-0.3662109076976776,0.6713866591453552,86.66667175292969,192149.0,1.0
12:10:35.845522,202000.6875,196147.5625,218408.65625,207871.953125,219724.1875,180065.21875,-705655.25,179544.515625,0.0126953125,0.9755859375,-0.28125,-1.8615721464157104,-0.2441406100988388,0.6713866591453552,86.66667175292969,192150.0,1.0
12:10:35.847907,201983.15625,196136.828125,218395.78125,207869.265625,219688.515625,180050.90625,-705661.25,179538.703125,0.01318359375,0.97509765625,-0.28173828125,-1.9531248807907104,-0.3051757514476776,0.6408690810203552,86.66667175292969,192151.0,1.0
12:10:35.850477,201997.640625,196153.640625,218404.53125,207874.8125,219706.125,180069.328125,-705660.0625,179544.0625,0.01220703125,0.97314453125,-0.282470703125,-2.044677495956421,-0.3356933295726776,0.6408690810203552,86.66667175292969,192152.0,1.0
12:10:35.852936,202016.328125,196167.234375,218417.5,207877.84375,219744.03125,180087.125,-705650.125,179553.265625,0.01318359375,0.973876953125,-0.279541015625,-2.075195074081421,-0.1525878757238388,0.6713866591453552,86.66667175292969,192153.0,1.0
12:10:35.855486,202003.90625,196155.34375,218412.578125,207873.296875,219734.90625,180075.59375,-705655.8125,179550.234375,0.012451171875,0.97412109375,-0.2802734375,-2.075195074081421,-0.1220703050494194,0.7019042372703552,86.66667175292969,192154.0,1.0
12:10:35.858056,201987.265625,196142.203125,218400.6875,207874.0,219697.546875,180058.78125,-705655.6875,179547.8125,0.0126953125,0.9736328125,-0.28076171875,-2.197265386581421,-0.1831054538488388,0.6713866591453552,86.66667175292969,192155.0,1.0
12:10:35.861199,201992.015625,196148.71875,218400.515625,207874.1875,219700.140625,180066.375,-705645.75,179546.03125,0.014892578125,0.974365234375,-0.279296875,-2.166747808456421,-0.0915527269244194,0.6103515028953552,86.66667175292969,192156.0,1.0
12:10:35.861250,202010.0625,196160.796875,218413.75,207877.046875,219737.59375,180081.3125,-705651.25,179553.984375,0.01513671875,0.973876953125,-0.280029296875,-2.258300542831421,0.0,0.5493163466453552,86.66667175292969,192157.0,1.0
12:10:35.864750,202004.4375,196154.265625,218414.109375,207874.90625,219740.28125,180074.0625,-705657.375,179553.71875,0.013427734375,0.970947265625,-0.282470703125,-2.288818120956421,-0.03051757626235485,0.5493163466453552,86.66667175292969,192158.0,1.0
12:10:35.864797,201982.0,196134.875,218397.46875,207870.421875,219696.203125,180049.75,-705655.4375,179546.203125,0.012451171875,0.97216796875,-0.28173828125,-2.349853277206421,0.0610351525247097,0.4577636420726776,86.66667175292969,192159.0,1.0
12:10:35.864816,201981.09375,196138.4375,218391.75,207867.921875,219685.03125,180053.328125,-705651.3125,179540.125,0.0107421875,0.970458984375,-0.27978515625,-2.319335699081421,0.0,0.4272460639476776,86.66667175292969,192160.0,1.0
12:10:35.864835,201999.15625,196148.453125,218401.859375,207870.515625,219717.03125,180066.640625,-705653.875,179546.46875,0.009521484375,0.97119140625,-0.28076171875,-2.410888433456421,0.0,0.3662109076976776,86.66667175292969,192161.0,1.0
12:10:35.866678,201995.671875,196142.375,218404.359375,207866.40625,219728.296875,180061.90625,-705661.875,179545.484375,0.009521484375,0.973388671875,-0.28271484375,-2.410888433456421,0.0610351525247097,0.3967284858226776,86.66667175292969,192162.0,1.0
12:10:35.869795,201974.21875,196123.0625,218390.59375,207861.75,219689.40625,180038.296875,-705670.6875,179537.171875,0.009521484375,0.971923828125,-0.282470703125,-2.349853277206421,-0.0610351525247097,0.4577636420726776,86.66667175292969,192163.0,1.0
12:10:35.869825,201970.015625,196123.0625,218383.703125,207859.515625,219673.484375,180036.96875,-705671.0,179530.296875,0.007080078125,0.97314453125,-0.279541015625,-2.349853277206421,-0.03051757626235485,0.3967284858226776,86.66667175292969,192164.0,1.0
12:10:35.872293,201993.625,196141.75,218397.390625,207865.875,219707.46875,180057.4375,-705663.375,179537.09375,0.00634765625,0.9736328125,-0.281494140625,-2.441406011581421,0.03051757626235485,0.3662109076976776,86.66667175292969,192165.0,1.0
12:10:35.872326,202005.515625,196150.78125,218408.109375,207867.125,219731.25,180066.828125,-705660.5,179539.859375,0.0068359375,0.974365234375,-0.280517578125,-2.410888433456421,0.03051757626235485,0.4272460639476776,86.66667175292969,192166.0,1.0
12:10:35.874152,201984.40625,196134.0625,218397.46875,207863.8125,219699.859375,180047.6875,-705660.9375,179534.046875,0.009033203125,0.9736328125,-0.27880859375,-2.502441167831421,0.0,0.2746581733226776,86.66667175292969,192167.0,1.0
12:10:35.881732,201976.546875,196135.046875,218392.109375,207864.53125,219679.125,180048.046875,-705658.5625,179531.359375,0.00830078125,0.973876953125,-0.276123046875,-2.532958745956421,-0.0610351525247097,0.1831054538488388,86.66667175292969,192168.0,1.0
12:10:35.886034,202001.578125,196155.4375,218406.859375,207873.375,219712.390625,180072.1875,-705662.75,179541.203125,0.007568359375,0.9755859375,-0.27685546875,-2.532958745956421,-0.1220703050494194,0.2746581733226776,86.66667175292969,192169.0,1.0
12:10:35.886090,202019.640625,196168.84375,218425.375,207880.078125,219749.046875,180089.0,-705657.9375,179551.484375,0.008544921875,0.974853515625,-0.278076171875,-2.593993902206421,-0.03051757626235485,0.3662109076976776,86.66667175292969,192170.0,1.0
12:10:35.892453,202005.953125,196156.765625,218421.34375,207880.984375,219729.1875,180075.140625,-705649.0,179550.765625,0.009521484375,0.975341796875,-0.276123046875,-2.685546636581421,-0.1525878757238388,0.4272460639476776,86.66667175292969,192171.0,1.0
12:10:35.892561,201993.078125,196150.78125,218411.0625,207878.75,219700.21875,180066.828125,-705646.9375,179545.671875,0.00830078125,0.9755859375,-0.27392578125,-2.746581792831421,-0.0915527269244194,0.3356933295726776,86.66667175292969,192172.0,1.0
12:10:35.894158,202003.90625,196159.640625,218413.125,207876.953125,219715.78125,180077.375,-705642.3125,179544.328125,0.00927734375,0.9755859375,-0.2763671875,-2.777099370956421,-0.2136230319738388,0.3051757514476776,86.66667175292969,192173.0,1.0
12:10:35.900491,202010.515625,196157.75,218415.625,207871.140625,219739.734375,180077.828125,-705648.0625,179542.546875,0.00927734375,0.973876953125,-0.27490234375,-2.746581792831421,-0.3051757514476776,0.3356933295726776,86.66667175292969,192174.0,1.0
12:10:35.916027,201991.390625,196136.828125,218403.828125,207865.515625,219717.296875,180055.921875,-705653.875,179535.484375,0.007080078125,0.97509765625,-0.274169921875,-2.777099370956421,-0.2746581733226776,0.2746581733226776,86.66667175292969,192175.0,1.0
12:10:35.916044,201970.546875,196122.0,218385.859375,207860.765625,219677.0625,180038.03125,-705655.9375,179527.34375,0.006591796875,0.973876953125,-0.278076171875,-2.807616949081421,-0.3356933295726776,0.4577636420726776,86.66667175292969,192176.0,1.0
12:10:35.916049,201981.1875,196132.8125,218388.4375,207865.25,219689.859375,180051.09375,-705655.625,179532.625,0.00537109375,0.97412109375,-0.276611328125,-2.746581792831421,-0.3662109076976776,0.5798339247703552,86.66667175292969,192177.0,1.0
12:10:35.917957,201998.0,196143.09375,218400.15625,207868.375,219725.703125,180063.78125,-705662.5625,179540.9375,0.005859375,0.973388671875,-0.27392578125,-2.777099370956421,-0.3356933295726776,0.5493163466453552,86.66667175292969,192178.0,1.0
12:10:35.922087,201993.265625,196137.8125,218402.921875,207869.796875,219723.5625,180058.6875,-705665.25,179542.8125,0.00537109375,0.97119140625,-0.274658203125,-2.685546636581421,-0.3662109076976776,0.6713866591453552,86.66667175292969,192179.0,1.0
12:10:35.933506,201978.0625,196126.828125,218391.75,207870.34375,219685.828125,180045.015625,-705668.6875,179540.9375,0.009033203125,0.970947265625,-0.277099609375,-2.655029058456421,-0.3662109076976776,0.7324218153953552,86.66667175292969,192180.0,1.0
12:10:35.933585,201988.078125,196140.40625,218396.84375,207873.734375,219694.5,180059.84375,-705665.8125,179543.796875,0.00830078125,0.968994140625,-0.276123046875,-2.593993902206421,-0.4577636420726776,0.7629393935203552,86.66667175292969,192181.0,1.0
12:10:35.934855,202009.359375,196155.4375,218410.796875,207877.84375,219734.203125,180078.53125,-705658.125,179553.1875,0.0078125,0.96875,-0.27392578125,-2.410888433456421,-0.4882812201976776,0.8850097060203552,86.66667175292969,192182.0,1.0
12:10:35.934929,202003.09375,196147.46875,218408.109375,207872.390625,219734.640625,180071.828125,-705657.5,179548.890625,0.0078125,0.9677734375,-0.27197265625,-2.380370855331421,-0.3967284858226776,0.9460448622703552,86.66667175292969,192183.0,1.0
12:10:35.961886,201982.984375,196130.125,218392.640625,207869.4375,219691.734375,180050.828125,-705656.5625,179543.34375,0.00927734375,0.9697265625,-0.271728515625,-2.258300542831421,-0.4272460639476776,1.0681151151657104,86.66667175292969,192184.0,1.0
12:10:35.973563,201981.453125,196132.453125,218386.03125,207865.421875,219680.203125,180052.34375,-705658.3125,179536.015625,0.009765625,0.969482421875,-0.273193359375,-2.197265386581421,-0.3051757514476776,1.0986326932907104,86.66667175292969,192185.0,1.0
12:10:35.973579,201997.734375,196143.1875,218394.25,207865.78125,219711.9375,180066.640625,-705660.8125,179539.140625,0.010986328125,0.97021484375,-0.275390625,-2.075195074081421,-0.3051757514476776,1.1596678495407104,86.66667175292969,192186.0,1.0
12:10:35.973582,201995.234375,196139.78125,218396.671875,207859.796875,219723.109375,180063.25,-705657.125,179536.46875,0.013671875,0.9697265625,-0.276123046875,-1.8920897245407104,-0.2746581733226776,1.0986326932907104,86.66667175292969,192187.0,1.0
12:10:35.977335,201973.140625,196121.28125,218384.0625,207855.40625,219685.734375,180041.171875,-705655.25,179530.375,0.013427734375,0.97119140625,-0.275634765625,-1.8310545682907104,-0.2746581733226776,1.1291502714157104,86.66667175292969,192188.0,1.0
12:10:35.977354,201967.25,196123.0625,218377.53125,207852.8125,219669.828125,180042.234375,-705658.125,179524.65625,0.01318359375,0.9697265625,-0.27392578125,-1.7700194120407104,-0.2136230319738388,1.1901854276657104,86.66667175292969,192189.0,1.0
12:10:35.977358,201987.09375,196136.390625,218388.265625,207854.875,219701.46875,180061.1875,-705658.375,179530.375,0.013916015625,0.96826171875,-0.275390625,-1.6784666776657104,-0.1525878757238388,1.2512205839157104,86.66667175292969,192190.0,1.0
12:10:35.977362,201994.875,196140.328125,218396.84375,207854.96875,219724.71875,180067.8125,-705659.6875,179534.671875,0.013916015625,0.967529296875,-0.274658203125,-1.6479490995407104,-0.03051757626235485,1.2512205839157104,86.66667175292969,192191.0,1.0
12:10:35.979843,201974.578125,196121.8125,218384.875,207851.5625,219691.46875,180044.734375,-705660.625,179530.03125,0.014404296875,0.96630859375,-0.275390625,-1.5563963651657104,0.0,1.2817381620407104,86.66667175292969,192192.0,1.0
12:10:35.979869,201963.578125,196116.359375,218372.625,207848.171875,219663.484375,180035.171875,-705657.1875,179521.359375,0.01513671875,0.967041015625,-0.276611328125,-1.3732908964157104,0.1220703050494194,1.2512205839157104,86.66667175292969,192193.0,1.0
12:10:35.979873,201985.03125,196132.453125,218383.53125,207853.359375,219690.65625,180052.25,-705650.625,179526.625,0.017822265625,0.9658203125,-0.27783203125,-1.1596678495407104,0.1220703050494194,1.2207030057907104,86.66667175292969,192194.0,1.0
12:10:35.981702,202001.046875,196140.765625,218398.734375,207859.25,219724.625,180063.34375,-705653.75,179535.65625,0.020751953125,0.967041015625,-0.277587890625,-0.9155272841453552,0.3662109076976776,1.2207030057907104,86.66667175292969,192195.0,1.0
12:10:35.993081,201982.4375,196122.53125,218390.6875,207858.359375,219699.0625,180044.109375,-705653.875,179532.703125,0.02099609375,0.97021484375,-0.277099609375,-0.8850097060203552,0.5187987685203552,1.3122557401657104,86.66667175292969,192196.0,1.0
12:10:35.996108,201969.84375,196116.8125,218379.59375,207855.9375,219665.625,180034.8125,-705659.375,179525.109375,0.020751953125,0.9677734375,-0.277099609375,-0.7934569716453552,0.5493163466453552,1.2207030057907104,86.66667175292969,192197.0,1.0
12:10:35.996120,201990.671875,196136.03125,218391.390625,207863.09375,219691.109375,180055.921875,-705660.9375,179532.265625,0.023193359375,0.967041015625,-0.27734375,-0.7629393935203552,0.6408690810203552,1.2207030057907104,86.66667175292969,192198.0,1.0
12:10:36.000458,202005.59375,196144.875,218405.34375,207867.03125,219727.046875,180069.15625,-705655.4375,179542.0,0.02001953125,0.963623046875,-0.277587890625,-0.5493163466453552,0.7934569716453552,1.0375975370407104,86.66667175292969,192199.0,1.0
12:10:36.006667,201994.609375,196133.53125,218402.390625,207869.09375,219712.390625,180056.453125,-705648.875,179542.625,0.0185546875,0.965576171875,-0.279296875,-0.3356933295726776,0.8850097060203552,0.9460448622703552,86.66667175292969,192200.0,1.0
12:10:36.010972,201980.75,196124.859375,218391.3125,207870.421875,219676.265625,180043.21875,-705651.5625,179538.96875,0.017578125,0.96484375,-0.27734375,-0.1525878757238388,1.0070799589157104,0.8544921278953552,86.66667175292969,192201.0,1.0
12:10:36.010985,201996.5625,196141.75,218400.34375,207877.484375,219693.703125,180061.1875,-705656.6875,179544.953125,0.01513671875,0.96533203125,-0.2783203125,0.0,1.0681151151657104,0.7019042372703552,86.66667175292969,192202.0,1.0
12:10:36.018067,202014.8125,196152.75,218412.671875,207880.703125,219731.515625,180076.21875,-705650.4375,179554.078125,0.012939453125,0.966552734375,-0.2783203125,0.03051757626235485,1.0986326932907104,0.4272460639476776,86.66667175292969,192203.0,1.0
12:10:36.026090,202003.8125,196141.125,218408.5625,207877.578125,219724.625,180064.765625,-705646.5,179551.21875,0.010009765625,0.968994140625,-0.276611328125,0.1831054538488388,1.0375975370407104,0.3051757514476776,86.66667175292969,192204.0,1.0
12:10:36.026099,201984.5,196128.515625,218395.6875,207876.6875,219686.015625,180049.84375,-705652.375,179546.5625,0.0087890625,0.970703125,-0.2763671875,0.0915527269244194,0.9765624403953552,0.1220703050494194,86.66667175292969,192205.0,1.0
12:10:36.032379,201989.234375,196138.890625,218396.765625,207877.3125,219690.484375,180061.015625,-705645.0625,179545.484375,0.005615234375,0.9736328125,-0.27783203125,0.0610351525247097,0.9155272841453552,-0.2136230319738388,86.66667175292969,192206.0,1.0
12:10:36.032390,202009.078125,196149.359375,218408.203125,207880.625,219726.421875,180076.5625,-705645.5625,179553.265625,0.006103515625,0.974609375,-0.27685546875,0.03051757626235485,0.8850097060203552,-0.3662109076976776,86.66667175292969,192207.0,1.0
12:10:36.039260,202007.203125,196143.71875,218411.59375,207880.078125,219732.234375,180072.28125,-705653.125,179553.890625,0.00537109375,0.973388671875,-0.278564453125,-0.03051757626235485,0.7629393935203552,-0.4577636420726776,86.66667175292969,192208.0,1.0
12:10:36.046175,201987.1875,196127.53125,218397.65625,207877.765625,219691.90625,180051.453125,-705649.875,179547.09375,0.0068359375,0.9765625,-0.278076171875,-0.0610351525247097,0.6713866591453552,-0.6713866591453552,86.66667175292969,192209.0,1.0
12:10:36.046200,201982.625,196127.71875,218388.265625,207872.484375,219677.0625,180051.453125,-705655.0,179536.640625,0.007568359375,0.979248046875,-0.278076171875,-0.1220703050494194,0.5493163466453552,-0.7019042372703552,86.66667175292969,192210.0,1.0
12:10:36.052306,202003.546875,196140.5,218399.0,207876.234375,219711.671875,180067.453125,-705654.5,179542.90625,0.01025390625,0.979248046875,-0.27734375,-0.1831054538488388,0.4272460639476776,-0.7324218153953552,86.66667175292969,192211.0,1.0
12:10:36.052319,202003.625,196138.171875,218403.640625,207873.296875,219726.875,180067.265625,-705653.75,179544.15625,0.0107421875,0.979736328125,-0.276123046875,-0.3051757514476776,0.4577636420726776,-0.6713866591453552,86.66667175292969,192212.0,1.0
12:10:36.057997,201976.546875,196113.59375,218384.953125,207865.15625,219684.484375,180040.265625,-705652.125,179534.578125,0.01123046875,0.980224609375,-0.27734375,-0.4882812201976776,0.4272460639476776,-0.5798339247703552,86.66667175292969,192213.0,1.0
12:10:36.073603,201971.53125,196113.671875,218376.90625,207862.65625,219666.515625,180039.734375,-705651.375,179530.46875,0.01025390625,0.9794921875,-0.27880859375,-0.7019042372703552,0.3967284858226776,-0.5798339247703552,86.66667175292969,192214.0,1.0
12:10:36.073617,201990.125,196125.84375,218385.859375,207864.796875,219698.34375,180056.09375,-705653.25,179536.1875,0.0078125,0.979736328125,-0.27880859375,-0.7629393935203552,0.4272460639476776,-0.6103515028953552,86.66667175292969,192215.0,1.0
12:10:36.073619,201996.21875,196126.375,218392.828125,207865.25,219721.40625,180059.5,-705650.25,179539.6875,0.008544921875,0.979736328125,-0.28076171875,-0.8239745497703552,0.4272460639476776,-0.4882812201976776,86.66667175292969,192216.0,1.0
12:10:36.075971,201974.125,196105.71875,218377.984375,207862.109375,219686.1875,180033.921875,-705651.6875,179533.78125,0.00830078125,0.9814453125,-0.280517578125,-0.9765624403953552,0.4577636420726776,-0.3356933295726776,86.66667175292969,192217.0,1.0
12:10:36.075983,201958.84375,196095.890625,218361.359375,207854.78125,219653.109375,180020.421875,-705652.625,179523.40625,0.005126953125,0.980224609375,-0.28076171875,-1.0986326932907104,0.3662109076976776,-0.3356933295726776,86.66667175292969,192218.0,1.0
12:10:36.077976,201982.078125,196113.234375,218374.140625,207863.546875,219681.8125,180040.0,-705645.3125,179532.265625,0.00537109375,0.979736328125,-0.2783203125,-1.3427733182907104,0.3662109076976776,-0.2136230319738388,86.66667175292969,192219.0,1.0
12:10:36.088057,201995.9375,196121.71875,218387.546875,207867.75,219713.90625,180050.734375,-705639.625,179540.484375,0.001953125,0.9794921875,-0.28076171875,-1.4343260526657104,0.3356933295726776,0.0,86.66667175292969,192220.0,1.0
12:10:36.092344,201978.515625,196105.09375,218380.125,207866.21875,219690.296875,180032.21875,-705651.6875,179537.09375,0.001953125,0.98046875,-0.27978515625,-1.6479490995407104,0.1831054538488388,0.0915527269244194,86.66667175292969,192221.0,1.0
12:10:36.092358,201964.203125,196096.609375,218368.421875,207863.09375,219657.390625,180019.96875,-705652.375,179529.484375,0.00146484375,0.97998046875,-0.278564453125,-1.7700194120407104,0.03051757626235485,0.2441406100988388,86.66667175292969,192222.0,1.0
12:10:36.104334,201983.609375,196112.78125,218378.4375,207868.640625,219679.03125,180037.5,-705644.8125,179533.515625,-0.0009765625,0.980224609375,-0.27685546875,-1.8615721464157104,-0.1525878757238388,0.3356933295726776,86.66667175292969,192223.0,1.0
12:10:36.107452,202001.046875,196122.796875,218391.484375,207871.59375,219713.453125,180050.46875,-705647.75,179540.3125,-0.000244140625,0.978515625,-0.281982421875,-1.9836424589157104,-0.1831054538488388,0.5798339247703552,86.66667175292969,192224.0,1.0
12:10:36.107477,201988.609375,196110.90625,218388.0,207870.609375,219701.46875,180038.296875,-705646.1875,179538.703125,0.0,0.976318359375,-0.277587890625,-2.166747808456421,-0.3051757514476776,0.6103515028953552,86.66667175292969,192225.0,1.0
12:10:36.109177,201972.875,196102.234375,218378.078125,207870.421875,219668.84375,180026.6875,-705644.4375,179536.1875,-0.001220703125,0.97802734375,-0.278076171875,-2.319335699081421,-0.5493163466453552,0.5187987685203552,86.66667175292969,192226.0,1.0
12:10:36.113182,201987.71875,196115.90625,218383.609375,207875.078125,219682.609375,180042.0625,-705641.1875,179539.234375,-0.00341796875,0.9775390625,-0.276123046875,-2.380370855331421,-0.8239745497703552,0.6408690810203552,86.66667175292969,192227.0,1.0
12:10:36.141492,202008.453125,196128.609375,218397.46875,207880.4375,219720.25,180059.21875,-705641.9375,179548.703125,-0.002197265625,0.977294921875,-0.277587890625,-2.441406011581421,-0.9155272841453552,0.7019042372703552,86.66667175292969,192228.0,1.0
12:10:36.141577,201997.90625,196117.703125,218395.234375,207878.5625,219715.15625,180049.484375,-705646.75,179546.75,-0.002197265625,0.976318359375,-0.2783203125,-2.593993902206421,-0.9765624403953552,0.7934569716453552,86.66667175292969,192229.0,1.0
12:10:36.164198,201976.984375,196100.171875,218380.671875,207876.515625,219675.015625,180028.640625,-705652.5625,179541.015625,0.0009765625,0.97509765625,-0.280517578125,-2.746581792831421,-1.1596678495407104,0.8544921278953552,86.66667175292969,192230.0,1.0
12:10:36.166979,201980.828125,196105.71875,218379.328125,207876.59375,219676.703125,180036.34375,-705646.5,179539.765625,0.00244140625,0.973876953125,-0.27978515625,-2.746581792831421,-1.2817381620407104,0.8239745497703552,86.66667175292969,192231.0,1.0
12:10:36.169173,201998.890625,196115.828125,218390.6875,207879.546875,219712.65625,180051.453125,-705651.6875,179547.8125,0.0029296875,0.973876953125,-0.279052734375,-2.777099370956421,-1.3122557401657104,0.8850097060203552,86.66667175292969,192232.0,1.0
12:10:36.171711,201992.09375,196106.96875,218388.09375,207874.0,219712.203125,180042.953125,-705650.75,179543.34375,0.00537109375,0.97509765625,-0.278564453125,-2.838134527206421,-1.2817381620407104,0.9765624403953552,86.66667175292969,192233.0,1.0
12:10:36.174153,201968.859375,196087.296875,218370.5625,207869.359375,219669.921875,180019.625,-705653.75,179536.546875,0.007568359375,0.975830078125,-0.277587890625,-2.899169683456421,-1.3122557401657104,1.0986326932907104,86.66667175292969,192234.0,1.0
12:10:36.176715,201965.546875,196087.75,218363.953125,207868.109375,219659.453125,180020.15625,-705653.75,179532.078125,0.009521484375,0.974365234375,-0.276611328125,-2.899169683456421,-1.2512205839157104,1.1596678495407104,86.66667175292969,192235.0,1.0
12:10:36.179160,201984.046875,196097.140625,218373.15625,207871.5,219690.84375,180032.84375,-705650.75,179537.984375,0.01171875,0.974853515625,-0.27685546875,-2.929687261581421,-1.2207030057907104,1.3122557401657104,86.66667175292969,192236.0,1.0
12:10:36.181761,201988.609375,196096.6875,218381.375,207873.296875,219707.734375,180032.671875,-705653.4375,179541.5625,0.015869140625,0.97412109375,-0.280029296875,-2.960204839706421,-1.1291502714157104,1.2512205839157104,86.66667175292969,192237.0,1.0
12:10:36.184191,201969.03125,196077.828125,218370.828125,207874.1875,219672.15625,180009.328125,-705660.875,179540.03125,0.0166015625,0.9716796875,-0.27734375,-2.838134527206421,-1.0375975370407104,1.3732908964157104,86.66667175292969,192238.0,1.0
12:10:36.186773,201957.5,196069.421875,218354.921875,207867.203125,219643.984375,179999.046875,-705665.25,179528.328125,0.017333984375,0.97021484375,-0.278564453125,-2.777099370956421,-0.9765624403953552,1.4038084745407104,86.66667175292969,192239.0,1.0
12:10:36.189124,201979.578125,196081.9375,218364.9375,207873.375,219673.765625,180012.828125,-705657.9375,179535.125,0.016845703125,0.9697265625,-0.27978515625,-2.716064214706421,-0.9155272841453552,1.5869139432907104,86.66667175292969,192240.0,1.0
12:10:36.191708,201989.234375,196085.0625,218377.71875,207879.375,219702.015625,180018.71875,-705651.9375,179544.953125,0.01708984375,0.96923828125,-0.278564453125,-2.624511480331421,-0.8239745497703552,1.5563963651657104,86.66667175292969,192241.0,1.0
12:10:36.194136,201968.859375,196065.3125,218366.359375,207877.40625,219670.09375,179994.9375,-705657.6875,179540.125,0.017333984375,0.966796875,-0.27880859375,-2.563476324081421,-0.6408690810203552,1.5258787870407104,86.66667175292969,192242.0,1.0
12:10:36.197303,201959.015625,196062.09375,218356.078125,207874.625,219643.453125,179987.703125,-705663.125,179532.796875,0.015625,0.966064453125,-0.27978515625,-2.410888433456421,-0.4272460639476776,1.5869139432907104,86.66667175292969,192243.0,1.0
12:10:36.197309,201977.53125,196075.59375,218364.578125,207879.28125,219669.734375,180002.625,-705663.5625,179538.875,0.015380859375,0.9658203125,-0.278564453125,-2.258300542831421,-0.3051757514476776,1.6174315214157104,86.66667175292969,192244.0,1.0
12:10:36.200325,201989.0625,196081.578125,218374.859375,207881.875,219699.328125,180012.109375,-705666.5,179545.40625,0.015869140625,0.966552734375,-0.27978515625,-2.166747808456421,-0.2441406100988388,1.5869139432907104,86.66667175292969,192245.0,1.0
12:10:36.200408,201972.15625,196064.0625,218367.34375,207880.984375,219676.171875,179993.328125,-705674.3125,179541.5625,0.01611328125,0.967041015625,-0.27685546875,-2.136230230331421,-0.0915527269244194,1.4953612089157104,86.66667175292969,192246.0,1.0
12:10:36.204174,201954.546875,196051.453125,218352.859375,207876.328125,219640.328125,179977.859375,-705676.1875,179532.890625,0.016357421875,0.968505859375,-0.276611328125,-1.9836424589157104,-0.03051757626235485,1.3732908964157104,86.66667175292969,192247.0,1.0
12:10:36.207229,201965.984375,196061.28125,218356.796875,207877.21875,219656.953125,179990.203125,-705659.4375,179535.03125,0.01416015625,0.96875,-0.27734375,-1.9226073026657104,0.0610351525247097,1.1901854276657104,86.66667175292969,192248.0,1.0
12:10:36.207239,201980.296875,196068.96875,218366.453125,207877.765625,219688.421875,180001.921875,-705660.9375,179541.109375,0.015869140625,0.97021484375,-0.278564453125,-1.8615721464157104,0.2746581733226776,1.0986326932907104,86.66667175292969,192249.0,1.0
12:10:36.209140,201963.75,196051.265625,218357.6875,207872.65625,219670.8125,179985.015625,-705670.875,179535.75,0.015869140625,0.967041015625,-0.280517578125,-1.8005369901657104,0.2746581733226776,1.0681151151657104,86.66667175292969,192250.0,1.0
12:10:36.212252,201942.296875,196035.453125,218340.25,207867.03125,219631.015625,179968.125,-705668.0,179526.890625,0.016357421875,0.967041015625,-0.277099609375,-1.7089842557907104,0.2441406100988388,0.9460448622703552,86.66667175292969,192251.0,1.0
12:10:36.212255,201950.4375,196045.109375,218341.5,207868.109375,219641.03125,179979.734375,-705663.75,179526.8125,0.01708984375,0.967529296875,-0.28076171875,-1.6479490995407104,0.3662109076976776,0.9155272841453552,86.66667175292969,192252.0,1.0
12:10:36.221662,201968.140625,196055.5625,218354.296875,207871.234375,219677.78125,179993.15625,-705659.5625,179533.953125,0.017578125,0.971435546875,-0.28173828125,-1.5258787870407104,0.5187987685203552,0.8544921278953552,86.66667175292969,192253.0,1.0
12:10:36.224737,201959.109375,196047.421875,218354.109375,207868.640625,219675.1875,179984.125,-705664.125,179532.703125,0.01708984375,0.971923828125,-0.281005859375,-1.4343260526657104,0.7019042372703552,0.7324218153953552,86.66667175292969,192254.0,1.0
12:10:36.224747,201934.96875,196028.65625,218335.515625,207863.359375,219630.390625,179961.328125,-705670.1875,179523.671875,0.01611328125,0.97119140625,-0.279296875,-1.3427733182907104,0.7934569716453552,0.6103515028953552,86.66667175292969,192255.0,1.0
12:10:36.232895,201941.9375,196037.6875,218336.140625,207866.21875,219631.203125,179970.984375,-705668.8125,179522.6875,0.017578125,0.971435546875,-0.28076171875,-1.3732908964157104,0.8544921278953552,0.5187987685203552,86.66667175292969,192256.0,1.0
12:10:36.237345,201965.640625,196053.78125,218351.78125,207874.0,219671.171875,179991.0,-705663.0,179533.25,0.015869140625,0.97021484375,-0.278564453125,-1.3122557401657104,0.9765624403953552,0.5187987685203552,86.66667175292969,192257.0,1.0
12:10:36.237416,201962.140625,196047.875,218352.765625,207872.9375,219675.71875,179985.734375,-705662.6875,179532.265625,0.0146484375,0.9716796875,-0.28125,-1.3122557401657104,1.0070799589157104,0.5798339247703552,86.66667175292969,192258.0,1.0
12:10:36.243492,201941.765625,196030.4375,218339.546875,207872.3125,219635.046875,179965.796875,-705666.25,179527.25,0.01513671875,0.9697265625,-0.2802734375,-1.2512205839157104,0.9765624403953552,0.3967284858226776,86.66667175292969,192259.0,1.0
12:10:36.243516,201938.546875,196031.78125,218332.5625,207869.796875,219624.5,179966.953125,-705667.375,179522.0625,0.014404296875,0.970703125,-0.279296875,-1.1291502714157104,1.1291502714157104,0.4272460639476776,86.66667175292969,192260.0,1.0
12:10:36.245489,201958.03125,196043.046875,218342.484375,207872.578125,219658.203125,179981.53125,-705667.75,179529.484375,0.01416015625,0.97119140625,-0.280029296875,-1.0375975370407104,1.2207030057907104,0.3662109076976776,86.66667175292969,192261.0,1.0
12:10:36.262919,201957.765625,196038.75,218347.3125,207871.234375,219673.9375,179979.734375,-705668.3125,179531.09375,0.015380859375,0.97265625,-0.2763671875,-0.9460448622703552,1.1901854276657104,0.3967284858226776,86.66667175292969,192262.0,1.0
12:10:36.269902,201933.265625,196016.578125,218332.65625,207867.5625,219634.875,179954.4375,-705670.875,179526.0,0.012939453125,0.97314453125,-0.28173828125,-0.9765624403953552,1.2512205839157104,0.4272460639476776,86.66667175292969,192263.0,1.0
12:10:36.269975,201929.78125,196018.734375,218325.859375,207867.5625,219617.25,179954.703125,-705670.0,179521.703125,0.011962890625,0.97119140625,-0.27978515625,-1.0375975370407104,1.3427733182907104,0.3967284858226776,86.66667175292969,192264.0,1.0
12:10:36.270002,201953.296875,196036.15625,218341.15625,207874.1875,219652.75,179975.1875,-705670.625,179530.109375,0.009765625,0.9716796875,-0.280029296875,-0.8544921278953552,1.2512205839157104,0.2746581733226776,86.66667175292969,192265.0,1.0
12:10:36.272297,201957.3125,196036.78125,218347.859375,207872.484375,219673.3125,179978.578125,-705667.125,179532.171875,0.008056640625,0.96923828125,-0.281005859375,-0.8544921278953552,1.2207030057907104,0.2746581733226776,86.66667175292969,192266.0,1.0
12:10:36.272356,201935.421875,196016.5,218333.90625,207868.8125,219640.140625,179956.5,-705668.0,179526.453125,0.005859375,0.9697265625,-0.28173828125,-0.7324218153953552,1.1596678495407104,0.1525878757238388,86.66667175292969,192267.0,1.0
12:10:36.281793,201925.21875,196011.75,218324.15625,207866.671875,219614.21875,179950.0625,-705673.3125,179519.5625,0.00341796875,0.968505859375,-0.2822265625,-0.7324218153953552,1.1901854276657104,0.1525878757238388,86.66667175292969,192268.0,1.0
12:10:36.286018,201945.703125,196028.921875,218336.40625,207873.109375,219643.546875,179970.796875,-705674.1875,179526.359375,0.0029296875,0.9677734375,-0.27978515625,-0.6713866591453552,1.1596678495407104,0.2441406100988388,86.66667175292969,192269.0,1.0
12:10:36.286064,201957.046875,196035.359375,218347.3125,207872.390625,219674.75,179980.71875,-705667.6875,179531.546875,0.00439453125,0.96875,-0.279541015625,-0.7019042372703552,1.0070799589157104,0.3051757514476776,86.66667175292969,192270.0,1.0
12:10:36.296070,201934.25,196013.28125,218334.71875,207865.25,219649.4375,179957.390625,-705667.375,179524.75,0.003173828125,0.9697265625,-0.28125,-0.6103515028953552,0.7324218153953552,0.3356933295726776,86.66667175292969,192271.0,1.0
12:10:36.296101,201918.15625,196003.625,218319.15625,207860.6875,219612.25,179942.8125,-705666.4375,179515.359375,0.002685546875,0.968994140625,-0.281494140625,-0.5187987685203552,0.7019042372703552,0.3356933295726776,86.66667175292969,192272.0,1.0
12:10:36.305987,201928.890625,196012.65625,218320.765625,207859.609375,219625.921875,179954.078125,-705668.375,179514.5625,0.00390625,0.968994140625,-0.280517578125,-0.4577636420726776,0.4882812201976776,0.2746581733226776,86.66667175292969,192273.0,1.0
12:10:36.306015,201943.90625,196019.984375,218331.21875,207861.21875,219660.078125,179965.796875,-705667.5,179520.8125,0.0068359375,0.9697265625,-0.27978515625,-0.4882812201976776,0.4272460639476776,0.2441406100988388,86.66667175292969,192274.0,1.0
12:10:36.308480,201931.75,196007.375,218325.6875,207859.4375,219644.171875,179950.6875,-705662.25,179518.046875,0.00634765625,0.971923828125,-0.2783203125,-0.4882812201976776,0.3356933295726776,0.2746581733226776,86.66667175292969,192275.0,1.0
12:10:36.308502,201912.078125,195992.890625,218310.75,207856.390625,219603.3125,179932.625,-705662.0625,179511.15625,0.006591796875,0.97314453125,-0.279296875,-0.4577636420726776,0.2136230319738388,0.2746581733226776,86.66667175292969,192276.0,1.0
12:10:36.314151,201922.71875,196003.265625,218314.5,207859.515625,219613.59375,179943.890625,-705667.3125,179513.84375,0.00732421875,0.9736328125,-0.27978515625,-0.3967284858226776,0.2136230319738388,0.3967284858226776,86.66667175292969,192277.0,1.0
12:10:36.324879,201940.25,196013.09375,218325.859375,207861.125,219648.90625,179955.6875,-705675.25,179521.171875,0.00634765625,0.97509765625,-0.281494140625,-0.4577636420726776,0.1831054538488388,0.5798339247703552,86.66667175292969,192278.0,1.0
12:10:36.324899,201928.0,196001.46875,218322.28125,207855.9375,219642.828125,179943.53125,-705681.6875,179516.4375,0.00732421875,0.97705078125,-0.2822265625,-0.4882812201976776,0.1220703050494194,0.5798339247703552,86.66667175292969,192279.0,1.0
12:10:36.334766,201909.9375,195989.40625,218310.75,207855.5,219604.015625,179926.546875,-705680.875,179511.421875,0.009521484375,0.97802734375,-0.28369140625,-0.7019042372703552,0.0915527269244194,0.5187987685203552,86.66667175292969,192280.0,1.0
12:10:36.334789,201919.953125,196001.03125,218314.0625,207859.4375,219607.515625,179937.90625,-705677.625,179511.34375,0.010009765625,0.976806640625,-0.281494140625,-0.7324218153953552,0.0610351525247097,0.5493163466453552,86.66667175292969,192281.0,1.0
12:10:36.334795,201944.796875,196017.75,218331.5,207866.40625,219649.4375,179958.734375,-705672.125,179521.703125,0.009765625,0.976318359375,-0.281005859375,-0.8239745497703552,-0.0610351525247097,0.6103515028953552,86.66667175292969,192282.0,1.0
12:10:36.340970,201943.734375,196015.234375,218335.15625,207865.25,219657.125,179956.234375,-705672.125,179520.8125,0.007568359375,0.976806640625,-0.279296875,-0.9460448622703552,-0.0915527269244194,0.7019042372703552,86.66667175292969,192283.0,1.0
12:10:36.340981,201926.109375,196000.578125,218323.0,207864.890625,219618.6875,179935.84375,-705674.4375,179516.171875,0.00830078125,0.97607421875,-0.281005859375,-1.0375975370407104,-0.0915527269244194,0.8544921278953552,86.66667175292969,192284.0,1.0
12:10:36.353023,201928.171875,196007.375,218320.9375,207864.53125,219612.25,179941.5625,-705670.6875,179511.15625,0.007080078125,0.9765625,-0.283935546875,-1.1596678495407104,-0.1831054538488388,0.7934569716453552,86.66667175292969,192285.0,1.0
12:10:36.357379,201955.078125,196027.9375,218340.078125,207874.71875,219654.53125,179968.03125,-705671.875,179522.96875,0.006591796875,0.977294921875,-0.28271484375,-1.4038084745407104,-0.2136230319738388,0.9460448622703552,86.66667175292969,192286.0,1.0
12:10:36.357399,201959.546875,196030.4375,218348.484375,207876.234375,219674.390625,179973.9375,-705667.5625,179526.890625,0.007568359375,0.97802734375,-0.28125,-1.4343260526657104,-0.2441406100988388,1.0986326932907104,86.66667175292969,192287.0,1.0
12:10:36.357405,201938.09375,196011.75,218336.234375,207874.265625,219638.890625,179952.390625,-705669.5625,179523.59375,0.0078125,0.978515625,-0.282470703125,-1.6174315214157104,-0.3051757514476776,1.0375975370407104,86.66667175292969,192288.0,1.0
12:10:36.366075,201932.640625,196012.375,218329.703125,207874.1875,219622.34375,179951.9375,-705677.875,179521.265625,0.00927734375,0.977783203125,-0.280517578125,-1.7395018339157104,-0.3356933295726776,0.8850097060203552,86.66667175292969,192289.0,1.0
12:10:36.371095,201951.6875,196025.34375,218339.0,207878.203125,219653.640625,179968.5625,-705683.4375,179529.046875,0.009521484375,0.978271484375,-0.282958984375,-1.8920897245407104,-0.3967284858226776,0.8544921278953552,86.66667175292969,192290.0,1.0
12:10:36.371136,201953.921875,196022.75,218342.21875,207874.1875,219674.125,179969.90625,-705679.625,179530.203125,0.010986328125,0.979248046875,-0.282470703125,-1.9836424589157104,-0.4272460639476776,0.8850097060203552,86.66667175292969,192291.0,1.0
12:10:36.373522,201932.203125,196003.34375,218331.3125,207872.390625,219643.71875,179948.359375,-705677.25,179529.3125,0.012939453125,0.976806640625,-0.283203125,-2.075195074081421,-0.4577636420726776,0.8850097060203552,86.66667175292969,192292.0,1.0
12:10:36.373566,201921.46875,195998.703125,218322.28125,207869.796875,219618.0625,179942.1875,-705672.5625,179525.28125,0.011962890625,0.976806640625,-0.27978515625,-2.136230230331421,-0.3967284858226776,0.8850097060203552,86.66667175292969,192293.0,1.0
12:10:36.384176,201934.875,196008.796875,218326.9375,207870.421875,219641.484375,179955.875,-705674.5625,179528.421875,0.013916015625,0.974609375,-0.279296875,-2.227782964706421,-0.3662109076976776,0.7324218153953552,86.66667175292969,192294.0,1.0
12:10:36.388462,201942.484375,196011.21875,218333.640625,207868.28125,219667.859375,179961.140625,-705675.0625,179531.71875,0.014892578125,0.9755859375,-0.283447265625,-2.288818120956421,-0.4882812201976776,0.7934569716453552,86.66667175292969,192295.0,1.0
12:10:36.388472,201923.796875,195993.78125,218323.53125,207862.375,219643.265625,179941.5625,-705677.125,179526.71875,0.014404296875,0.9736328125,-0.283935546875,-2.227782964706421,-0.4882812201976776,0.9155272841453552,86.66667175292969,192296.0,1.0
12:10:36.395414,201909.84375,195987.703125,218312.09375,207860.421875,219609.5625,179930.296875,-705678.25,179521.171875,0.01513671875,0.974609375,-0.2841796875,-2.258300542831421,-0.4272460639476776,0.8239745497703552,86.66667175292969,192297.0,1.0
12:10:36.402292,201923.34375,196000.3125,218317.8125,207862.65625,219627.53125,179943.53125,-705682.625,179523.59375,0.015869140625,0.974365234375,-0.281494140625,-2.288818120956421,-0.4272460639476776,0.7629393935203552,86.66667175292969,192298.0,1.0
12:10:36.402299,201937.65625,196007.90625,218327.640625,207863.28125,219659.640625,179954.796875,-705680.4375,179527.25,0.01513671875,0.974853515625,-0.281005859375,-2.380370855331421,-0.3051757514476776,0.6713866591453552,86.66667175292969,192299.0,1.0
12:10:36.413607,201923.96875,195993.78125,218321.84375,207860.59375,219644.703125,179939.59375,-705679.1875,179521.53125,0.014892578125,0.973876953125,-0.281494140625,-2.563476324081421,-0.2441406100988388,0.6408690810203552,86.66667175292969,192300.0,1.0
12:10:36.413633,201904.5625,195979.5625,218306.640625,207854.78125,219604.109375,179922.15625,-705678.0625,179511.25,0.014892578125,0.970947265625,-0.279052734375,-2.563476324081421,-0.2746581733226776,0.6713866591453552,86.66667175292969,192301.0,1.0
12:10:36.416139,201915.65625,195992.71875,218308.78125,207854.25,219612.0625,179935.03125,-705676.0625,179508.921875,0.01513671875,0.969482421875,-0.278564453125,-2.532958745956421,-0.1525878757238388,0.7019042372703552,86.66667175292969,192302.0,1.0
12:10:36.416170,201934.96875,196006.65625,218321.84375,207857.28125,219649.34375,179953.546875,-705673.375,179517.328125,0.013427734375,0.97021484375,-0.27734375,-2.532958745956421,-0.1220703050494194,0.6713866591453552,86.66667175292969,192303.0,1.0
12:10:36.423186,201926.65625,195998.796875,218321.203125,207854.515625,219647.5625,179946.65625,-705687.6875,179515.546875,0.014404296875,0.97119140625,-0.2744140625,-2.502441167831421,-0.0610351525247097,0.7629393935203552,86.66667175292969,192304.0,1.0
12:10:36.427392,201909.046875,195984.671875,218307.53125,207853.0,219609.390625,179929.671875,-705687.0,179511.421875,0.015869140625,0.9736328125,-0.277587890625,-2.563476324081421,0.0,0.7324218153953552,86.66667175292969,192305.0,1.0
12:10:36.427414,201914.140625,195993.15625,218307.625,207852.453125,219611.984375,179939.421875,-705680.0,179509.1875,0.013671875,0.9736328125,-0.280029296875,-2.532958745956421,-0.0915527269244194,0.7629393935203552,86.66667175292969,192306.0,1.0
12:10:36.436779,201936.75,196008.796875,218324.078125,207858.359375,219651.765625,179958.734375,-705670.1875,179518.765625,0.01416015625,0.972412109375,-0.278076171875,-2.624511480331421,0.0,0.6103515028953552,86.66667175292969,192307.0,1.0
12:10:36.443590,201935.140625,196006.03125,218329.4375,207858.8125,219660.078125,179958.90625,-705666.875,179520.28125,0.0126953125,0.97509765625,-0.278564453125,-2.655029058456421,0.0610351525247097,0.5187987685203552,86.66667175292969,192308.0,1.0
12:10:36.443598,201915.65625,195991.734375,218317.640625,207857.546875,219622.34375,179939.859375,-705675.8125,179515.984375,0.012939453125,0.97314453125,-0.2783203125,-2.593993902206421,0.1525878757238388,0.4882812201976776,86.66667175292969,192309.0,1.0
12:10:36.446049,201919.046875,195999.234375,218316.203125,207858.1875,219614.390625,179944.609375,-705684.75,179512.5,0.011962890625,0.974609375,-0.27587890625,-2.563476324081421,0.1831054538488388,0.4577636420726776,86.66667175292969,192310.0,1.0
12:10:36.446056,201952.046875,196023.734375,218339.8125,207871.859375,219659.90625,179971.34375,-705682.5,179528.765625,0.01171875,0.97216796875,-0.275146484375,-2.593993902206421,0.1525878757238388,0.4272460639476776,86.66667175292969,192311.0,1.0
12:10:36.455500,201958.125,196026.953125,218349.109375,207875.171875,219679.125,179974.734375,-705670.625,179533.78125,0.011474609375,0.9736328125,-0.27099609375,-2.532958745956421,0.1831054538488388,0.3051757514476776,86.66667175292969,192312.0,1.0
12:10:36.466053,201936.484375,196007.90625,218335.15625,207872.9375,219640.859375,179951.3125,-705668.6875,179528.6875,0.009765625,0.97216796875,-0.272705078125,-2.502441167831421,0.1525878757238388,0.4272460639476776,86.66667175292969,192313.0,1.0
12:10:36.466069,201935.765625,196011.9375,218332.125,207874.1875,219625.125,179954.4375,-705674.9375,179526.890625,0.009033203125,0.97216796875,-0.275390625,-2.441406011581421,0.1220703050494194,0.3662109076976776,86.66667175292969,192314.0,1.0
12:10:36.469990,201959.546875,196031.25,218348.75,207882.765625,219662.3125,179978.484375,-705673.5,179539.40625,0.007080078125,0.97216796875,-0.274658203125,-2.441406011581421,0.1220703050494194,0.2746581733226776,86.66667175292969,192315.0,1.0
12:10:36.470005,201964.65625,196034.546875,218355.28125,207881.34375,219683.953125,179982.953125,-705680.875,179541.109375,0.00830078125,0.9697265625,-0.273193359375,-2.349853277206421,0.0610351525247097,0.3051757514476776,86.66667175292969,192316.0,1.0
12:10:36.476024,201942.75,196015.234375,218343.296875,207877.578125,219652.03125,179962.125,-705667.6875,179536.46875,0.009765625,0.97216796875,-0.272216796875,-2.288818120956421,-0.03051757626235485,0.3967284858226776,86.66667175292969,192317.0,1.0
12:10:36.476079,201934.609375,196013.546875,218334.796875,207878.65625,219627.625,179960.15625,-705666.75,179534.234375,0.008056640625,0.970458984375,-0.273193359375,-2.319335699081421,0.03051757626235485,0.3356933295726776,86.66667175292969,192318.0,1.0
12:10:36.481735,201953.296875,196026.78125,218342.3125,207882.859375,219652.484375,179976.34375,-705672.4375,179538.875,0.0087890625,0.969482421875,-0.2724609375,-2.197265386581421,0.03051757626235485,0.2746581733226776,86.66667175292969,192319.0,1.0
12:10:36.531376,201963.84375,196030.984375,218351.15625,207882.59375,219680.828125,179983.671875,-705670.0,179542.71875,0.01025390625,0.9697265625,-0.273193359375,-2.197265386581421,-0.03051757626235485,0.2136230319738388,86.66667175292969,192320.0,1.0
12:10:36.531435,201943.640625,196011.046875,218340.875,207878.921875,219656.0625,179962.671875,-705670.5625,179538.15625,0.00927734375,0.968505859375,-0.276123046875,-2.227782964706421,-0.0915527269244194,0.2746581733226776,86.66667175292969,192321.0,1.0
12:10:36.571059,201925.9375,196000.125,218325.5,207874.265625,219619.40625,179949.34375,-705674.75,179530.109375,0.008544921875,0.97021484375,-0.275390625,-2.166747808456421,-0.1525878757238388,0.1525878757238388,86.66667175292969,192322.0,1.0
12:10:36.571074,201939.4375,196013.09375,218331.21875,207876.59375,219638.359375,179964.546875,-705676.25,179533.0625,0.0078125,0.973876953125,-0.275146484375,-2.044677495956421,-0.0915527269244194,0.2441406100988388,86.66667175292969,192323.0,1.0
12:10:36.601806,201955.4375,196023.640625,218343.65625,207878.921875,219673.046875,179977.6875,-705675.75,179541.828125,0.009521484375,0.973876953125,-0.272705078125,-1.9226073026657104,-0.2136230319738388,0.4577636420726776,86.66667175292969,192324.0,1.0
12:10:36.626640,201943.734375,196013.09375,218339.8125,207877.578125,219660.265625,179965.265625,-705678.875,179540.125,0.00927734375,0.97509765625,-0.270263671875,-1.9226073026657104,-0.1220703050494194,0.5187987685203552,86.66667175292969,192325.0,1.0
12:10:36.635632,201924.953125,196000.9375,218324.515625,207873.640625,219621.359375,179949.515625,-705672.75,179533.25,0.0126953125,0.975830078125,-0.27197265625,-1.8615721464157104,-0.0915527269244194,0.5493163466453552,86.66667175292969,192326.0,1.0
12:10:36.638132,201931.03125,196008.171875,218323.796875,207873.46875,219628.515625,179958.28125,-705672.5,179533.0625,0.01171875,0.973876953125,-0.273681640625,-1.8310545682907104,-0.03051757626235485,0.6103515028953552,86.66667175292969,192327.0,1.0
12:10:36.640599,201945.96875,196017.5625,218332.75,207874.453125,219661.875,179971.875,-705668.9375,179539.765625,0.010009765625,0.974609375,-0.272216796875,-1.8310545682907104,-0.03051757626235485,0.7324218153953552,86.66667175292969,192328.0,1.0
12:10:36.642919,201934.078125,196005.671875,218328.359375,207870.25,219657.484375,179960.96875,-705665.375,179537.359375,0.009765625,0.972900390625,-0.272705078125,-1.6784666776657104,-0.0915527269244194,0.7324218153953552,86.66667175292969,192329.0,1.0
12:10:36.645363,201914.765625,195990.03125,218315.21875,207869.625,219618.421875,179942.453125,-705668.6875,179533.875,0.010986328125,0.97216796875,-0.27001953125,-1.5869139432907104,-0.1220703050494194,0.7019042372703552,86.66667175292969,192330.0,1.0
12:10:36.647874,201919.046875,195997.359375,218313.96875,207869.890625,219617.4375,179950.328125,-705670.4375,179531.984375,0.01123046875,0.972412109375,-0.271728515625,-1.5869139432907104,-0.0610351525247097,0.8239745497703552,86.66667175292969,192331.0,1.0
12:10:36.650626,201929.953125,195998.25,218318.171875,207864.53125,219645.5,179955.421875,-705670.625,179532.171875,0.012451171875,0.972900390625,-0.272216796875,-1.6174315214157104,-0.0610351525247097,0.7934569716453552,86.66667175292969,192332.0,1.0
12:10:36.652957,201920.9375,195986.0,218315.578125,207856.296875,219646.484375,179943.265625,-705674.3125,179525.28125,0.011962890625,0.971923828125,-0.272705078125,-1.6174315214157104,-0.03051757626235485,0.7934569716453552,86.66667175292969,192333.0,1.0
12:10:36.655407,201896.515625,195965.171875,218298.40625,207849.859375,219602.40625,179916.4375,-705676.875,179514.734375,0.01123046875,0.971923828125,-0.27294921875,-1.4953612089157104,-0.03051757626235485,0.9155272841453552,86.66667175292969,192334.0,1.0
12:10:36.658063,201895.09375,195969.203125,218293.21875,207848.078125,219590.515625,179918.40625,-705677.875,179507.40625,0.01025390625,0.972412109375,-0.276123046875,-1.3732908964157104,-0.03051757626235485,0.9765624403953552,86.66667175292969,192335.0,1.0
12:10:36.661127,201913.875,195979.125,218301.984375,207849.421875,219620.296875,179930.484375,-705680.5625,179510.890625,0.00927734375,0.971923828125,-0.275390625,-1.3732908964157104,0.03051757626235485,0.9460448622703552,86.66667175292969,192336.0,1.0
12:10:36.661136,201921.828125,195984.671875,218311.375,207852.90625,219640.59375,179935.390625,-705686.5625,179516.078125,0.009765625,0.969970703125,-0.2763671875,-1.2512205839157104,-0.0610351525247097,0.9155272841453552,86.66667175292969,192337.0,1.0
12:10:36.663511,201908.6875,195973.484375,218306.1875,207857.015625,219611.265625,179921.1875,-705684.5625,179516.609375,0.01025390625,0.970703125,-0.275146484375,-1.1291502714157104,-0.03051757626235485,0.8544921278953552,86.66667175292969,192338.0,1.0
12:10:36.663519,201911.453125,195983.953125,218308.15625,207863.640625,219601.421875,179929.234375,-705677.875,179519.390625,0.01123046875,0.971435546875,-0.276123046875,-1.0986326932907104,0.03051757626235485,0.9765624403953552,86.66667175292969,192339.0,1.0
12:10:36.666089,201941.671875,196008.265625,218327.734375,207876.0625,219641.21875,179956.578125,-705671.9375,179532.265625,0.0126953125,0.970947265625,-0.274658203125,-0.9460448622703552,0.03051757626235485,1.0375975370407104,86.66667175292969,192340.0,1.0
12:10:36.666095,201952.578125,196015.59375,218339.359375,207878.828125,219667.859375,179965.703125,-705673.375,179537.359375,0.01220703125,0.972412109375,-0.276611328125,-0.8544921278953552,0.0915527269244194,0.9155272841453552,86.66667175292969,192341.0,1.0
12:10:36.668513,201931.65625,195997.1875,218328.90625,207875.703125,219637.8125,179943.53125,-705666.625,179533.78125,0.013916015625,0.971435546875,-0.27490234375,-0.9155272841453552,0.1831054538488388,0.8850097060203552,86.66667175292969,192342.0,1.0
12:10:36.668531,201917.53125,195990.296875,218315.578125,207871.6875,219607.515625,179932.71875,-705661.4375,179526.453125,0.015380859375,0.971923828125,-0.276611328125,-0.7934569716453552,0.2441406100988388,0.9460448622703552,86.66667175292969,192343.0,1.0
12:10:36.670543,201936.3125,196006.390625,218325.0625,207875.4375,219633.53125,179950.6875,-705664.25,179531.71875,0.014404296875,0.972412109375,-0.275634765625,-0.7934569716453552,0.3051757514476776,0.9765624403953552,86.66667175292969,192344.0,1.0
12:10:36.673022,201947.84375,196012.109375,218334.171875,207875.53125,219663.203125,179959.359375,-705666.0625,179537.09375,0.015869140625,0.973876953125,-0.27490234375,-0.7019042372703552,0.2746581733226776,0.9460448622703552,86.66667175292969,192345.0,1.0
12:10:36.675397,201929.515625,195993.96875,218324.15625,207872.03125,219639.96875,179939.234375,-705668.375,179533.0625,0.014892578125,0.97216796875,-0.274169921875,-0.6408690810203552,0.3051757514476776,0.9155272841453552,86.66667175292969,192346.0,1.0
12:10:36.677999,201914.765625,195986.453125,218311.828125,207869.71875,219607.0625,179927.4375,-705663.0,179527.25,0.015869140625,0.971923828125,-0.273681640625,-0.6103515028953552,0.4577636420726776,0.9765624403953552,86.66667175292969,192347.0,1.0
12:10:36.680466,201929.328125,196001.828125,218316.296875,207870.78125,219625.21875,179942.1875,-705663.5,179527.875,0.0166015625,0.972900390625,-0.275634765625,-0.7019042372703552,0.5798339247703552,0.9155272841453552,86.66667175292969,192348.0,1.0
12:10:36.682980,201944.890625,196010.234375,218327.640625,207871.328125,219658.828125,179955.328125,-705660.0,179532.796875,0.0146484375,0.970458984375,-0.275146484375,-0.5798339247703552,0.4882812201976776,0.9765624403953552,86.66667175292969,192349.0,1.0
12:10:36.686316,201929.15625,195994.765625,218322.8125,207865.15625,219646.3125,179940.765625,-705661.25,179528.421875,0.014404296875,0.9677734375,-0.275146484375,-0.6103515028953552,0.6103515028953552,0.8850097060203552,86.66667175292969,192350.0,1.0
12:10:36.691496,201910.296875,195983.765625,218309.59375,207861.3125,219609.03125,179926.640625,-705668.5,179523.046875,0.01416015625,0.966064453125,-0.279052734375,-0.4882812201976776,0.7019042372703552,0.8544921278953552,86.66667175292969,192351.0,1.0
12:10:36.691572,201916.546875,195992.0,218307.078125,207857.90625,219612.875,179935.3125,-705671.3125,179518.40625,0.0166015625,0.969482421875,-0.27880859375,-0.3356933295726776,0.6713866591453552,0.7934569716453552,86.66667175292969,192352.0,1.0
12:10:36.693108,201934.875,196002.453125,218318.34375,207858.1875,219647.46875,179948.453125,-705673.0625,179523.671875,0.020751953125,0.970458984375,-0.2783203125,-0.3051757514476776,0.7629393935203552,0.7934569716453552,86.66667175292969,192353.0,1.0
12:10:36.695561,201926.03125,195992.984375,218317.90625,207855.3125,219645.6875,179939.515625,-705669.75,179522.421875,0.020751953125,0.969970703125,-0.27783203125,-0.2136230319738388,0.8544921278953552,0.7934569716453552,86.66667175292969,192354.0,1.0
12:10:36.698020,201902.953125,195975.453125,218301.359375,207850.40625,219602.6875,179918.671875,-705670.875,179513.484375,0.02099609375,0.96826171875,-0.278076171875,-0.0610351525247097,0.8544921278953552,0.8850097060203552,86.66667175292969,192355.0,1.0
12:10:36.700505,201908.59375,195986.90625,218300.46875,207850.3125,219602.5,179930.5625,-705675.375,179510.984375,0.01806640625,0.968017578125,-0.28076171875,0.03051757626235485,0.9460448622703552,0.8544921278953552,86.66667175292969,192356.0,1.0
12:10:36.703567,201930.671875,196001.828125,218313.875,207854.78125,219640.671875,179949.34375,-705680.75,179518.9375,0.016845703125,0.96533203125,-0.279296875,0.1525878757238388,1.1291502714157104,0.7934569716453552,86.66667175292969,192357.0,1.0
12:10:36.703635,201927.8125,195995.484375,218316.46875,207851.828125,219647.65625,179944.25,-705684.5,179517.5,0.014892578125,0.9638671875,-0.281982421875,0.2746581733226776,1.1291502714157104,0.8239745497703552,86.66667175292969,192358.0,1.0
12:10:36.703662,201904.484375,195976.890625,218301.546875,207846.375,219605.546875,179920.640625,-705684.1875,179508.921875,0.013671875,0.965087890625,-0.279541015625,0.3662109076976776,1.1901854276657104,0.6408690810203552,86.66667175292969,192359.0,1.0
12:10:36.705485,201905.640625,195985.109375,218296.359375,207844.953125,219593.734375,179926.015625,-705683.4375,179502.484375,0.011962890625,0.965576171875,-0.278076171875,0.4882812201976776,1.1901854276657104,0.3967284858226776,86.66667175292969,192360.0,1.0
12:10:36.708614,201931.84375,196005.3125,218312.53125,207852.640625,219632.359375,179948.625,-705675.375,179513.3125,0.010009765625,0.966552734375,-0.27734375,0.4882812201976776,1.0681151151657104,0.2746581733226776,86.66667175292969,192361.0,1.0
12:10:36.708686,201936.75,196008.796875,218320.578125,207853.171875,219651.671875,179953.359375,-705672.4375,179516.796875,0.00830078125,0.968994140625,-0.281005859375,0.4272460639476776,1.0070799589157104,-0.03051757626235485,86.66667175292969,192362.0,1.0
12:10:36.711130,201920.125,195997.625,218309.3125,207850.765625,219616.09375,179936.203125,-705666.125,179511.875,0.005859375,0.972412109375,-0.27734375,0.3356933295726776,0.9460448622703552,-0.1831054538488388,86.66667175292969,192363.0,1.0
12:10:36.711200,201915.484375,196000.484375,218302.34375,207848.25,219595.171875,179936.828125,-705672.3125,179506.0625,0.001708984375,0.974365234375,-0.280517578125,0.2441406100988388,0.7629393935203552,-0.4272460639476776,86.66667175292969,192364.0,1.0
12:10:36.717420,201935.140625,196015.6875,218313.96875,207853.53125,219626.375,179955.953125,-705674.3125,179513.75,0.002685546875,0.974853515625,-0.2802734375,0.2136230319738388,0.5187987685203552,-0.7629393935203552,86.66667175292969,192365.0,1.0
12:10:36.717447,201941.671875,196021.40625,218320.765625,207852.09375,219651.859375,179964.71875,-705678.5,179516.34375,0.002685546875,0.977294921875,-0.28369140625,0.0915527269244194,0.4577636420726776,-0.7629393935203552,86.66667175292969,192366.0,1.0
12:10:36.717452,201923.515625,196008.359375,218311.375,207849.859375,219622.96875,179949.171875,-705674.1875,179513.21875,0.004638671875,0.97802734375,-0.281005859375,-0.0610351525247097,0.2746581733226776,-0.7629393935203552,86.66667175292969,192367.0,1.0
12:10:36.717457,201914.578125,196006.84375,218304.046875,207848.96875,219597.859375,179946.65625,-705670.875,179509.734375,0.00537109375,0.979736328125,-0.28125,-0.1831054538488388,0.0,-0.7629393935203552,86.66667175292969,192368.0,1.0
12:10:36.717461,201930.5,196022.21875,218313.078125,207851.828125,219626.28125,179967.40625,-705667.5,179515.71875,0.00439453125,0.980712890625,-0.280029296875,-0.3051757514476776,-0.0915527269244194,-0.7324218153953552,86.66667175292969,192369.0,1.0
12:10:36.717466,201942.5625,196030.53125,218322.1875,207850.484375,219656.0625,179979.296875,-705667.25,179520.546875,0.005615234375,0.982421875,-0.2841796875,-0.4577636420726776,-0.2746581733226776,-0.5798339247703552,86.66667175292969,192370.0,1.0
12:10:36.717470,201927.015625,196016.671875,218315.84375,207847.890625,219635.3125,179962.9375,-705659.0,179517.328125,0.010498046875,0.981201171875,-0.283447265625,-0.7019042372703552,-0.2441406100988388,-0.6103515028953552,86.66667175292969,192371.0,1.0
12:10:36.717475,201915.390625,196012.203125,218307.265625,207847.359375,219603.578125,179954.625,-705658.5625,179513.578125,0.011474609375,0.98193359375,-0.282470703125,-0.8544921278953552,-0.3356933295726776,-0.3662109076976776,86.66667175292969,192372.0,1.0
12:10:36.717479,201933.625,196031.25,218315.9375,207851.296875,219623.875,179973.65625,-705658.625,179517.5,0.01220703125,0.9833984375,-0.28076171875,-0.9765624403953552,-0.3051757514476776,-0.3356933295726776,86.66667175292969,192373.0,1.0
12:10:36.717483,201954.71875,196046.890625,218332.828125,207857.28125,219663.65625,179992.265625,-705653.75,179527.515625,0.010986328125,0.982421875,-0.279296875,-1.0986326932907104,-0.3356933295726776,-0.3356933295726776,86.66667175292969,192374.0,1.0
12:10:36.717488,201949.890625,196042.421875,218337.296875,207861.40625,219659.0,179985.734375,-705646.375,179532.265625,0.0107421875,0.980224609375,-0.27978515625,-1.2512205839157104,-0.3356933295726776,-0.1831054538488388,86.66667175292969,192375.0,1.0
12:10:36.719684,201933.453125,196033.390625,218326.03125,207858.1875,219621.8125,179970.265625,-705647.125,179526.625,0.009521484375,0.980712890625,-0.28125,-1.5258787870407104,-0.3662109076976776,-0.0610351525247097,86.66667175292969,192376.0,1.0
12:10:36.721709,201944.796875,196046.359375,218330.15625,207859.25,219631.828125,179983.5,-705648.25,179527.078125,0.00732421875,0.981689453125,-0.2822265625,-1.6784666776657104,-0.3356933295726776,0.0915527269244194,86.66667175292969,192377.0,1.0
12:10:36.724203,201963.671875,196058.421875,218342.765625,207860.953125,219668.390625,179998.0625,-705645.9375,179533.78125,0.006591796875,0.980712890625,-0.2822265625,-1.7700194120407104,-0.4577636420726776,0.2136230319738388,86.66667175292969,192378.0,1.0
12:10:36.726699,201957.3125,196051.984375,218344.90625,207860.953125,219669.015625,179991.1875,-705650.0625,179534.046875,0.00439453125,0.9814453125,-0.2802734375,-1.9226073026657104,-0.4882812201976776,0.3356933295726776,86.66667175292969,192379.0,1.0
12:10:36.730530,201937.828125,196035.359375,218331.5,207860.140625,219629.5,179971.609375,-705656.3125,179528.421875,0.003173828125,0.98046875,-0.279052734375,-2.105712652206421,-0.5187987685203552,0.5493163466453552,86.66667175292969,192380.0,1.0
12:10:36.739836,201941.5,196043.140625,218328.09375,207858.359375,219626.46875,179979.03125,-705655.875,179523.234375,0.0048828125,0.981201171875,-0.278076171875,-2.258300542831421,-0.4882812201976776,0.5493163466453552,86.66667175292969,192381.0,1.0
12:10:36.739968,201963.9375,196059.9375,218339.890625,207861.046875,219662.671875,179998.96875,-705660.3125,179528.421875,0.0029296875,0.982177734375,-0.279052734375,-2.380370855331421,-0.6713866591453552,0.7934569716453552,86.66667175292969,192382.0,1.0
12:10:36.741735,201962.421875,196058.421875,218345.96875,207859.609375,219674.828125,179998.78125,-705663.0,179529.3125,0.00146484375,0.97998046875,-0.28125,-2.593993902206421,-0.7934569716453552,0.9155272841453552,86.66667175292969,192383.0,1.0
12:10:36.747336,201940.875,196043.3125,218333.453125,207855.3125,219635.765625,179978.3125,-705662.6875,179522.421875,0.000732421875,0.97998046875,-0.277587890625,-2.685546636581421,-0.8850097060203552,0.8544921278953552,86.66667175292969,192384.0,1.0
12:10:36.747415,201943.640625,196050.5625,218330.78125,207854.78125,219626.1875,179983.3125,-705669.3125,179516.25,0.000732421875,0.978271484375,-0.279296875,-2.746581792831421,-1.0681151151657104,0.9155272841453552,86.66667175292969,192385.0,1.0
12:10:36.754829,201966.796875,196066.921875,218344.28125,207860.140625,219662.9375,180002.546875,-705666.6875,179524.125,0.00244140625,0.97607421875,-0.279541015625,-2.929687261581421,-1.1291502714157104,0.8544921278953552,86.66667175292969,192386.0,1.0
12:10:36.754895,201969.75,196067.984375,218350.0,207858.453125,219680.203125,180005.84375,-705660.3125,179526.625,0.0029296875,0.976318359375,-0.28125,-2.990722417831421,-1.1596678495407104,1.0375975370407104,86.66667175292969,192387.0,1.0
12:10:36.757324,201948.640625,196050.640625,218336.859375,207854.515625,219642.203125,179984.5625,-705660.625,179520.1875,0.005126953125,0.974609375,-0.2783203125,-2.960204839706421,-1.1901854276657104,1.0681151151657104,86.66667175292969,192388.0,1.0
12:10:36.757378,201942.921875,196052.796875,218328.546875,207850.9375,219620.65625,179983.671875,-705668.375,179512.6875,0.0068359375,0.97314453125,-0.27685546875,-3.051757574081421,-1.2512205839157104,1.0681151151657104,86.66667175292969,192389.0,1.0
12:10:36.764220,201962.859375,196070.234375,218339.984375,207854.15625,219651.140625,180004.59375,-705669.3125,179517.6875,0.010986328125,0.97265625,-0.278076171875,-3.173827886581421,-1.1291502714157104,1.0681151151657104,86.66667175292969,192390.0,1.0
12:10:36.768057,201969.5625,196074.96875,218348.65625,207853.265625,219677.25,180012.734375,-705663.1875,179522.609375,0.013916015625,0.97412109375,-0.27783203125,-3.173827886581421,-1.2512205839157104,1.1596678495407104,86.66667175292969,192391.0,1.0
12:10:36.794280,201946.328125,196056.90625,218335.515625,207849.328125,219646.671875,179992.34375,-705664.875,179517.6875,0.012939453125,0.973388671875,-0.276611328125,-3.143310308456421,-1.1901854276657104,1.2512205839157104,86.66667175292969,192392.0,1.0
12:10:36.794296,201933.453125,196052.796875,218324.34375,207845.75,219618.6875,179986.0,-705665.6875,179512.59375,0.0146484375,0.9716796875,-0.27392578125,-3.082275152206421,-1.0375975370407104,1.1596678495407104,86.66667175292969,192393.0,1.0
12:10:36.794299,201950.4375,196068.703125,218331.671875,207846.734375,219642.375,180002.453125,-705657.0625,179515.1875,0.016357421875,0.969970703125,-0.275146484375,-3.143310308456421,-0.8850097060203552,1.1291502714157104,86.66667175292969,192394.0,1.0
12:10:36.796690,201968.9375,196081.40625,218348.296875,207852.453125,219679.390625,180019.4375,-705647.625,179526.09375,0.01708984375,0.9697265625,-0.276123046875,-3.143310308456421,-0.7934569716453552,1.1596678495407104,86.66667175292969,192395.0,1.0
12:10:36.808922,201951.953125,196065.40625,218341.0625,207850.671875,219660.078125,180002.8125,-705657.75,179524.03125,0.0185546875,0.970458984375,-0.27490234375,-3.143310308456421,-0.6103515028953552,1.2207030057907104,86.66667175292969,192396.0,1.0
12:10:36.812960,201938.71875,196060.578125,218329.96875,207848.078125,219626.734375,179992.609375,-705656.3125,179516.703125,0.019775390625,0.970458984375,-0.276611328125,-2.990722417831421,-0.4577636420726776,1.4343260526657104,86.66667175292969,192397.0,1.0
12:10:36.815446,201958.296875,196080.15625,218342.40625,207854.515625,219649.34375,180013.625,-705643.0625,179523.140625,0.021484375,0.96875,-0.27734375,-2.838134527206421,-0.3051757514476776,1.4038084745407104,86.66667175292969,192398.0,1.0
12:10:36.818021,201978.15625,196092.125,218358.3125,207859.515625,219687.96875,180030.703125,-705643.1875,179534.234375,0.021728515625,0.968017578125,-0.2783203125,-2.716064214706421,-0.1525878757238388,1.4648436307907104,86.66667175292969,192399.0,1.0
12:10:36.820482,201961.796875,196076.671875,218349.1875,207851.03125,219670.8125,180013.890625,-705643.25,179525.640625,0.021484375,0.965576171875,-0.27783203125,-2.685546636581421,0.03051757626235485,1.4343260526657104,86.66667175292969,192400.0,1.0
12:10:36.822914,201942.65625,196065.125,218335.0625,207847.359375,219631.65625,179998.421875,-705651.0625,179517.6875,0.020751953125,0.9658203125,-0.276123046875,-2.593993902206421,0.2441406100988388,1.4343260526657104,86.66667175292969,192401.0,1.0
12:10:36.825409,201952.21875,196077.828125,218338.640625,207848.703125,219642.828125,180012.28125,-705657.9375,179517.859375,0.020751953125,0.96630859375,-0.279052734375,-2.441406011581421,0.4272460639476776,1.3427733182907104,86.66667175292969,192402.0,1.0
12:10:36.828483,201975.203125,196095.53125,218354.46875,207852.90625,219682.4375,180031.78125,-705655.3125,179526.53125,0.02099609375,0.966064453125,-0.277099609375,-2.227782964706421,0.5493163466453552,1.2817381620407104,86.66667175292969,192403.0,1.0
12:10:36.828486,201968.9375,196089.625,218356.796875,207851.921875,219681.984375,180025.34375,-705652.1875,179526.453125,0.01953125,0.966552734375,-0.27490234375,-2.197265386581421,0.5798339247703552,1.3122557401657104,86.66667175292969,192404.0,1.0
12:10:36.830991,201945.34375,196072.015625,218341.78125,207847.453125,219640.765625,180004.15625,-705657.75,179519.03125,0.017578125,0.96875,-0.275634765625,-2.197265386581421,0.7629393935203552,1.2207030057907104,86.66667175292969,192405.0,1.0
12:10:36.830998,201952.40625,196084.796875,218342.671875,207847.359375,219638.890625,180015.421875,-705655.6875,179514.46875,0.01513671875,0.9697265625,-0.27734375,-2.136230230331421,0.9765624403953552,1.1901854276657104,86.66667175292969,192406.0,1.0
12:10:36.832924,201979.3125,196104.734375,218362.421875,207856.390625,219682.34375,180037.3125,-705650.0625,179528.421875,0.014892578125,0.96875,-0.2783203125,-2.075195074081421,1.0986326932907104,1.0986326932907104,86.66667175292969,192407.0,1.0
12:10:36.836681,201985.21875,196109.390625,218374.40625,207860.765625,219699.15625,180041.34375,-705654.1875,179534.765625,0.014404296875,0.967529296875,-0.277099609375,-1.9531248807907104,1.1291502714157104,0.9460448622703552,86.66667175292969,192408.0,1.0
12:10:36.862351,201967.0625,196095.078125,218361.625,207858.09375,219658.375,180020.78125,-705655.9375,179526.1875,0.014892578125,0.9677734375,-0.275634765625,-1.8310545682907104,1.2512205839157104,0.7019042372703552,86.66667175292969,192409.0,1.0
12:10:36.862368,201969.125,196103.046875,218362.609375,207860.0625,219652.484375,180027.578125,-705651.0625,179524.296875,0.015625,0.96875,-0.27783203125,-1.7700194120407104,1.2207030057907104,0.6408690810203552,86.66667175292969,192410.0,1.0
12:10:36.893543,201997.546875,196123.875,218382.359375,207870.703125,219696.203125,180051.265625,-705648.5625,179536.46875,0.015869140625,0.971923828125,-0.279296875,-1.6174315214157104,1.1901854276657104,0.5798339247703552,86.66667175292969,192411.0,1.0
12:10:36.893563,202003.09375,196125.21875,218389.609375,207869.171875,219713.640625,180053.59375,-705644.3125,179537.171875,0.0166015625,0.9716796875,-0.276611328125,-1.4953612089157104,1.1596678495407104,0.5187987685203552,86.66667175292969,192412.0,1.0
12:10:36.905343,201980.921875,196107.78125,218376.28125,207863.1875,219676.359375,180032.671875,-705643.8125,179529.578125,0.014404296875,0.972412109375,-0.27880859375,-1.5258787870407104,1.2512205839157104,0.6103515028953552,86.66667175292969,192413.0,1.0
12:10:36.905349,201974.75,196111.0,218367.96875,207859.25,219654.53125,180033.125,-705646.3125,179521.53125,0.013916015625,0.971435546875,-0.276123046875,-1.4953612089157104,1.2817381620407104,0.4882812201976776,86.66667175292969,192414.0,1.0
12:10:36.905350,201996.84375,196128.609375,218380.046875,207864.890625,219686.640625,180054.125,-705647.0,179530.296875,0.0126953125,0.969970703125,-0.278564453125,-1.4648436307907104,1.1901854276657104,0.3356933295726776,86.66667175292969,192415.0,1.0
12:10:36.908480,202007.296875,196136.484375,218392.5625,207869.359375,219716.578125,180065.296875,-705647.625,179539.40625,0.012939453125,0.97021484375,-0.277587890625,-1.4038084745407104,1.3122557401657104,0.3051757514476776,86.66667175292969,192416.0,1.0
12:10:36.908483,201981.90625,196113.953125,218374.234375,207859.96875,219678.5,180040.984375,-705648.375,179528.328125,0.01318359375,0.970703125,-0.279296875,-1.2512205839157104,1.2512205839157104,0.2746581733226776,86.66667175292969,192417.0,1.0
12:10:36.912277,201967.515625,196108.3125,218359.65625,207854.515625,219645.0625,180032.765625,-705652.3125,179519.203125,0.0107421875,0.973388671875,-0.276123046875,-1.2207030057907104,1.2512205839157104,0.3356933295726776,86.66667175292969,192418.0,1.0
12:10:36.912281,201982.4375,196123.25,218369.046875,207857.640625,219670.984375,180050.546875,-705644.9375,179525.546875,0.01171875,0.972412109375,-0.27490234375,-1.0681151151657104,1.2207030057907104,0.3051757514476776,86.66667175292969,192419.0,1.0
12:10:36.912282,201995.046875,196130.75,218380.84375,207859.96875,219704.15625,180062.625,-705642.9375,179532.96875,0.0107421875,0.971435546875,-0.275146484375,-1.0070799589157104,1.2817381620407104,0.3051757514476776,86.66667175292969,192420.0,1.0
12:10:36.912284,201979.671875,196116.8125,218372.890625,207857.015625,219683.59375,180046.078125,-705648.0625,179528.953125,0.01171875,0.972412109375,-0.273193359375,-0.9765624403953552,1.0681151151657104,0.3356933295726776,86.66667175292969,192421.0,1.0
12:10:36.914252,201962.859375,196105.359375,218358.046875,207853.0,219646.140625,180031.15625,-705645.125,179519.65625,0.01171875,0.972900390625,-0.273193359375,-0.9460448622703552,1.0375975370407104,0.3356933295726776,86.66667175292969,192422.0,1.0
12:10:36.918673,201977.609375,196120.296875,218366.09375,207857.28125,219665.890625,180048.40625,-705649.6875,179523.234375,0.01025390625,0.97314453125,-0.275390625,-1.0070799589157104,1.0070799589157104,0.3051757514476776,86.66667175292969,192423.0,1.0
12:10:36.919811,201993.625,196132.09375,218377.890625,207857.203125,219701.03125,180062.4375,-705643.375,179529.3125,0.008056640625,0.970703125,-0.27880859375,-0.7934569716453552,0.8850097060203552,0.3051757514476776,86.66667175292969,192424.0,1.0
12:10:36.921835,201976.90625,196116.453125,218369.84375,207849.234375,219686.28125,180046.796875,-705647.9375,179521.703125,0.00439453125,0.971435546875,-0.27783203125,-0.7019042372703552,0.9155272841453552,0.1525878757238388,86.66667175292969,192425.0,1.0
12:10:36.924255,201957.046875,196103.125,218356.53125,207846.5625,219648.375,180030.4375,-705653.1875,179518.140625,0.0048828125,0.969482421875,-0.280029296875,-0.6713866591453552,0.7629393935203552,0.1831054538488388,86.66667175292969,192426.0,1.0
12:10:36.926646,201966.171875,196115.828125,218357.78125,207847.890625,219655.875,180043.125,-705651.375,179517.421875,0.002685546875,0.9697265625,-0.276123046875,-0.6713866591453552,0.7019042372703552,0.2136230319738388,86.66667175292969,192427.0,1.0
12:10:36.929205,201984.59375,196127.453125,218370.921875,207851.46875,219693.515625,180058.328125,-705653.4375,179525.828125,0.003173828125,0.970703125,-0.274169921875,-0.6408690810203552,0.5187987685203552,0.1831054538488388,86.66667175292969,192428.0,1.0
12:10:36.935008,201974.75,196115.640625,218371.90625,207850.140625,219695.125,180048.578125,-705654.1875,179527.4375,0.002685546875,0.97021484375,-0.27880859375,-0.5798339247703552,0.2441406100988388,0.1525878757238388,86.66667175292969,192429.0,1.0
12:10:36.935085,201955.359375,196100.890625,218357.953125,207848.25,219654.171875,180028.203125,-705651.5,179521.53125,0.00390625,0.969970703125,-0.280029296875,-0.4882812201976776,0.03051757626235485,0.1831054538488388,86.66667175292969,192430.0,1.0
12:10:36.937595,201965.71875,196113.859375,218359.203125,207850.578125,219654.09375,180039.46875,-705655.6875,179520.453125,0.001953125,0.968994140625,-0.280029296875,-0.4577636420726776,-0.0610351525247097,0.1525878757238388,86.66667175292969,192431.0,1.0
12:10:36.937672,201986.28125,196125.75,218372.0,207854.25,219692.890625,180055.46875,-705651.5,179529.21875,0.00439453125,0.969482421875,-0.283447265625,-0.5187987685203552,-0.1525878757238388,0.2136230319738388,86.66667175292969,192432.0,1.0
12:10:36.939187,201981.8125,196119.671875,218371.546875,207850.578125,219698.796875,180047.875,-705653.4375,179526.890625,0.006103515625,0.970458984375,-0.279541015625,-0.4577636420726776,-0.2746581733226776,0.2441406100988388,86.66667175292969,192433.0,1.0
12:10:36.946060,201963.75,196105.546875,218361.171875,207852.28125,219662.140625,180029.359375,-705652.9375,179526.1875,0.005859375,0.971923828125,-0.27783203125,-0.4272460639476776,-0.3967284858226776,0.2746581733226776,86.66667175292969,192434.0,1.0
12:10:36.946073,201961.96875,196109.125,218355.453125,207851.46875,219649.984375,180032.21875,-705651.25,179522.6875,0.00830078125,0.974609375,-0.280029296875,-0.3662109076976776,-0.3967284858226776,0.1525878757238388,86.66667175292969,192435.0,1.0
12:10:36.947965,201984.5,196124.671875,218368.15625,207857.203125,219683.765625,180050.828125,-705647.0,179531.28125,0.009033203125,0.975830078125,-0.280029296875,-0.5187987685203552,-0.5493163466453552,0.2441406100988388,86.66667175292969,192436.0,1.0
12:10:36.951727,201990.578125,196128.609375,218378.25,207858.1875,219703.703125,180057.53125,-705639.25,179534.765625,0.007568359375,0.976806640625,-0.280029296875,-0.6103515028953552,-0.5493163466453552,0.3051757514476776,86.66667175292969,192437.0,1.0
12:10:36.959776,201972.25,196112.515625,218368.59375,207859.15625,219672.421875,180038.296875,-705642.9375,179533.0625,0.00927734375,0.9775390625,-0.27880859375,-0.6713866591453552,-0.6408690810203552,0.3356933295726776,86.66667175292969,192438.0,1.0
12:10:36.959792,201964.734375,196111.4375,218358.765625,207856.03125,219649.4375,180034.90625,-705651.125,179525.640625,0.00927734375,0.978515625,-0.28271484375,-0.7934569716453552,-0.6408690810203552,0.4882812201976776,86.66667175292969,192439.0,1.0
12:10:36.961658,201987.265625,196128.15625,218369.765625,207860.59375,219679.578125,180054.125,-705658.125,179531.359375,0.009033203125,0.978759765625,-0.2822265625,-0.8850097060203552,-0.6408690810203552,0.4577636420726776,86.66667175292969,192440.0,1.0
12:10:36.974263,201997.1875,196132.71875,218381.828125,207863.015625,219708.359375,180063.25,-705655.6875,179537.625,0.008056640625,0.979248046875,-0.2802734375,-0.9765624403953552,-0.6408690810203552,0.5493163466453552,86.66667175292969,192441.0,1.0
12:10:36.976768,201976.90625,196113.671875,218370.03125,207858.09375,219677.78125,180041.796875,-705652.375,179530.109375,0.007568359375,0.979736328125,-0.28369140625,-1.1596678495407104,-0.6408690810203552,0.6713866591453552,86.66667175292969,192442.0,1.0
12:10:36.979315,201963.21875,196107.875,218356.703125,207852.546875,219646.140625,180034.375,-705651.9375,179521.078125,0.010498046875,0.978759765625,-0.281982421875,-1.2512205839157104,-0.6713866591453552,0.6713866591453552,86.66667175292969,192443.0,1.0
12:10:36.981742,201977.078125,196118.59375,218363.5,207853.265625,219669.921875,180048.9375,-705640.6875,179524.296875,0.009765625,0.97607421875,-0.280029296875,-1.3732908964157104,-0.7324218153953552,0.7019042372703552,86.66667175292969,192444.0,1.0
12:10:36.989812,201988.25,196124.59375,218372.4375,207853.171875,219699.59375,180057.96875,-705637.75,179528.6875,0.009765625,0.97802734375,-0.281494140625,-1.3732908964157104,-0.7629393935203552,0.6713866591453552,86.66667175292969,192445.0,1.0
12:10:36.989865,201969.84375,196108.046875,218363.328125,207848.609375,219676.796875,180040.0,-705640.6875,179524.125,0.009765625,0.978271484375,-0.28076171875,-1.4953612089157104,-0.7324218153953552,0.7934569716453552,86.66667175292969,192446.0,1.0
12:10:36.992510,201954.09375,196098.5625,218351.25,207846.28125,219642.640625,180027.84375,-705644.0625,179519.46875,0.009765625,0.9775390625,-0.27734375,-1.6174315214157104,-0.7934569716453552,0.7934569716453552,86.66667175292969,192447.0,1.0
12:10:36.992630,201965.984375,196110.90625,218353.75,207846.375,219656.5,180041.171875,-705645.125,179520.1875,0.010009765625,0.977294921875,-0.27880859375,-1.7700194120407104,-0.7629393935203552,0.8544921278953552,86.66667175292969,192448.0,1.0
12:10:37.008142,201978.328125,196118.328125,218362.25,207845.578125,219689.140625,180052.421875,-705643.25,179525.90625,0.01220703125,0.976318359375,-0.28271484375,-1.8920897245407104,-0.8239745497703552,0.8544921278953552,86.66667175292969,192449.0,1.0
12:10:37.011078,201962.234375,196103.578125,218356.796875,207842.0,219678.40625,180038.75,-705649.8125,179523.40625,0.01318359375,0.974609375,-0.282470703125,-2.075195074081421,-0.7019042372703552,0.8239745497703552,86.66667175292969,192450.0,1.0
12:10:37.011190,201944.0,196091.234375,218342.046875,207839.140625,219639.25,180022.828125,-705654.0625,179516.875,0.011962890625,0.97509765625,-0.28271484375,-2.044677495956421,-0.7629393935203552,0.6713866591453552,86.66667175292969,192451.0,1.0
12:10:37.015540,201949.453125,196101.609375,218340.796875,207835.5625,219644.875,180033.65625,-705642.0,179512.859375,0.011962890625,0.975341796875,-0.283447265625,-2.166747808456421,-0.6713866591453552,0.7629393935203552,86.66667175292969,192452.0,1.0
12:10:37.018066,201970.46875,196116.09375,218354.828125,207838.953125,219683.5,180052.515625,-705635.375,179521.625,0.012451171875,0.9755859375,-0.281494140625,-2.105712652206421,-0.5493163466453552,0.7934569716453552,86.66667175292969,192453.0,1.0
12:10:37.020542,201963.21875,196108.046875,218354.109375,207835.5625,219682.4375,180046.890625,-705639.875,179520.1875,0.01416015625,0.97509765625,-0.2841796875,-2.380370855331421,-0.5493163466453552,0.6408690810203552,86.66667175292969,192454.0,1.0
12:10:37.030683,201943.28125,196093.5625,218340.078125,207832.515625,219643.625,180029.359375,-705647.75,179514.828125,0.01513671875,0.974853515625,-0.283203125,-2.349853277206421,-0.5187987685203552,0.6103515028953552,86.66667175292969,192455.0,1.0
12:10:37.033679,201947.390625,196101.609375,218340.4375,207832.515625,219644.34375,180036.6875,-705646.375,179512.6875,0.015625,0.974609375,-0.27978515625,-2.319335699081421,-0.4882812201976776,0.5798339247703552,86.66667175292969,192456.0,1.0
12:10:37.033693,201972.609375,196120.296875,218360.015625,207842.359375,219687.96875,180059.3125,-705646.0625,179526.625,0.015625,0.974609375,-0.278564453125,-2.410888433456421,-0.3662109076976776,0.6713866591453552,86.66667175292969,192457.0,1.0
12:10:37.035531,201971.0,196118.15625,218363.046875,207839.765625,219696.5625,180057.53125,-705647.4375,179524.21875,0.015380859375,0.9736328125,-0.282470703125,-2.441406011581421,-0.2746581733226776,0.6713866591453552,86.66667175292969,192458.0,1.0
12:10:37.043001,201948.109375,196099.734375,218346.875,207834.125,219654.984375,180034.546875,-705641.1875,179514.46875,0.01708984375,0.973388671875,-0.27978515625,-2.502441167831421,-0.2441406100988388,0.7019042372703552,86.66667175292969,192459.0,1.0
12:10:37.054751,201943.375,196102.0625,218340.25,207830.46875,219641.484375,180036.6875,-705645.875,179507.40625,0.015869140625,0.97314453125,-0.280517578125,-2.655029058456421,-0.1220703050494194,0.7324218153953552,86.66667175292969,192460.0,1.0
12:10:37.054762,201966.625,196119.125,218354.109375,207834.75,219676.359375,180055.375,-705643.625,179515.0,0.015625,0.97314453125,-0.27880859375,-2.655029058456421,0.0,0.7324218153953552,86.66667175292969,192461.0,1.0
12:10:37.057318,201973.234375,196123.328125,218364.125,207835.46875,219697.90625,180061.109375,-705636.9375,179518.84375,0.017333984375,0.97265625,-0.276123046875,-2.624511480331421,0.0,0.5798339247703552,86.66667175292969,192462.0,1.0
12:10:37.057328,201950.609375,196104.5625,218349.828125,207831.453125,219661.875,180038.296875,-705639.4375,179512.953125,0.014892578125,0.974365234375,-0.27587890625,-2.624511480331421,0.1220703050494194,0.6713866591453552,86.66667175292969,192463.0,1.0
12:10:37.059522,201945.15625,196106.078125,218341.859375,207830.828125,219641.125,180035.703125,-705640.3125,179508.125,0.013671875,0.97412109375,-0.27734375,-2.655029058456421,0.2746581733226776,0.5798339247703552,86.66667175292969,192464.0,1.0
12:10:37.070455,201967.328125,196122.796875,218355.0,207837.53125,219673.484375,180054.578125,-705638.0625,179516.609375,0.0126953125,0.972412109375,-0.2763671875,-2.777099370956421,0.3662109076976776,0.5493163466453552,86.66667175292969,192465.0,1.0
12:10:37.079226,201973.59375,196123.421875,218361.984375,207835.03125,219696.296875,180057.703125,-705637.5625,179516.96875,0.011474609375,0.97314453125,-0.275634765625,-2.838134527206421,0.2746581733226776,0.5187987685203552,86.66667175292969,192466.0,1.0
12:10:37.079236,201951.859375,196101.34375,218348.03125,207829.03125,219664.46875,180034.015625,-705642.375,179509.46875,0.01123046875,0.972900390625,-0.27685546875,-2.838134527206421,0.4577636420726776,0.4272460639476776,86.66667175292969,192467.0,1.0
12:10:37.079238,201940.25,196095.796875,218337.03125,207826.625,219635.140625,180025.96875,-705637.625,179504.359375,0.01171875,0.97216796875,-0.275634765625,-2.777099370956421,0.3967284858226776,0.5493163466453552,86.66667175292969,192468.0,1.0
12:10:37.081637,201954.8125,196108.21875,218342.9375,207829.84375,219657.9375,180042.234375,-705639.6875,179507.671875,0.01123046875,0.972412109375,-0.27392578125,-2.838134527206421,0.3051757514476776,0.4577636420726776,86.66667175292969,192469.0,1.0
12:10:37.084249,201967.0625,196115.375,218352.953125,207830.640625,219689.140625,180053.59375,-705638.1875,179513.484375,0.010498046875,0.972900390625,-0.27783203125,-2.746581792831421,0.4272460639476776,0.3356933295726776,86.66667175292969,192470.0,1.0
12:10:37.087912,201950.078125,196100.171875,218344.28125,207826.0,219668.3125,180035.078125,-705644.0625,179509.734375,0.0107421875,0.97314453125,-0.275390625,-2.777099370956421,0.4272460639476776,0.3967284858226776,86.66667175292969,192471.0,1.0
12:10:37.098607,201933.359375,196090.171875,218331.671875,207823.9375,219632.1875,180020.328125,-705650.75,179503.828125,0.010986328125,0.97314453125,-0.2744140625,-2.716064214706421,0.3356933295726776,0.4882812201976776,86.66667175292969,192472.0,1.0
12:10:37.098631,201949.890625,196105.984375,218339.1875,207829.921875,219647.828125,180035.703125,-705650.625,179507.5,0.00927734375,0.971435546875,-0.2734375,-2.777099370956421,0.3662109076976776,0.4577636420726776,86.66667175292969,192473.0,1.0
12:10:37.101051,201968.40625,196115.90625,218351.15625,207833.234375,219681.71875,180047.6875,-705648.25,179513.9375,0.009521484375,0.970947265625,-0.2744140625,-2.746581792831421,0.3356933295726776,0.4272460639476776,86.66667175292969,192474.0,1.0
12:10:37.101058,201953.65625,196100.71875,218345.796875,207828.59375,219669.921875,180033.03125,-705646.5625,179508.5625,0.009521484375,0.97021484375,-0.27392578125,-2.655029058456421,0.3051757514476776,0.4272460639476776,86.66667175292969,192475.0,1.0
12:10:37.109230,201937.5625,196088.5625,218335.0625,207828.3125,219633.890625,180017.375,-705650.3125,179505.078125,0.008544921875,0.96923828125,-0.27001953125,-2.532958745956421,0.2746581733226776,0.4272460639476776,86.66667175292969,192476.0,1.0
12:10:37.112929,201947.9375,196100.171875,218339.1875,207831.53125,219642.28125,180030.875,-705643.875,179505.34375,0.0068359375,0.969970703125,-0.271484375,-2.471923589706421,0.2441406100988388,0.3662109076976776,86.66667175292969,192477.0,1.0
12:10:37.119736,201969.03125,196114.390625,218352.59375,207835.109375,219680.640625,180050.28125,-705636.625,179511.96875,0.00634765625,0.96875,-0.27099609375,-2.319335699081421,0.1220703050494194,0.4272460639476776,86.66667175292969,192478.0,1.0
12:10:37.119748,201964.65625,196110.28125,218353.390625,207833.0625,219682.96875,180046.171875,-705638.5,179511.34375,0.007080078125,0.968505859375,-0.27099609375,-2.258300542831421,0.1831054538488388,0.4272460639476776,86.66667175292969,192479.0,1.0
12:10:37.121683,201944.53125,196096.421875,218340.703125,207830.828125,219643.890625,180028.203125,-705639.875,179506.59375,0.0068359375,0.96875,-0.26904296875,-2.227782964706421,0.0915527269244194,0.3356933295726776,86.66667175292969,192480.0,1.0
12:10:37.134866,201948.109375,196105.90625,218340.875,207831.71875,219643.71875,180037.859375,-705641.75,179505.703125,0.006103515625,0.968994140625,-0.271728515625,-2.105712652206421,0.1220703050494194,0.3967284858226776,86.66667175292969,192481.0,1.0
12:10:37.142279,201974.03125,196124.40625,218359.921875,207841.28125,219686.640625,180060.296875,-705632.1875,179519.75,0.008056640625,0.97119140625,-0.274169921875,-2.014159917831421,-0.03051757626235485,0.3967284858226776,86.66667175292969,192482.0,1.0
12:10:37.142300,201973.5,196119.671875,218363.765625,207841.453125,219697.0,180057.078125,-705637.125,179521.0,0.0078125,0.9697265625,-0.270751953125,-1.9836424589157104,-0.03051757626235485,0.5493163466453552,86.66667175292969,192483.0,1.0
