Timestamp,Fz,FC3,FCz,FC4,Cz,C3,C4
15:30:40.611729,181586.921875,176886.4375,173108.546875,207869.796875,172954.140625,163577.671875,684435.75,164409.421875,-0.0625,1.000732421875,-0.109619140625,0.0,-0.5798339247703552,1.6784666776657104,100.0,31902.0,1.0
15:30:40.612160,181575.390625,176861.859375,173091.65625,207973.6875,172946.265625,163550.046875,684428.5,164420.515625,-0.062744140625,1.00146484375,-0.109375,-0.1525878757238388,-0.5187987685203552,1.7395018339157104,100.0,31903.0,1.0
15:30:40.612175,181573.6875,176856.75,173087.171875,208016.34375,172944.3125,163544.40625,684464.5625,164423.109375,-0.062255859375,1.00146484375,-0.108642578125,-0.03051757626235485,-0.3356933295726776,1.7089842557907104,100.0,31904.0,1.0
15:30:40.627273,181589.328125,176876.609375,173102.828125,208009.28125,172954.859375,163566.40625,684464.0,164423.015625,-0.06298828125,1.0029296875,-0.10888671875,0.1525878757238388,-0.3051757514476776,1.5869139432907104,100.0,31905.0,1.0
15:30:40.627538,181594.609375,176895.640625,173114.359375,207894.296875,172962.09375,163585.546875,684429.5,164417.03125,-0.0634765625,1.004638671875,-0.10888671875,0.2746581733226776,-0.3356933295726776,1.6479490995407104,100.0,31906.0,1.0
15:30:40.628577,181589.421875,176879.734375,173105.59375,207960.1875,172959.6875,163566.765625,684440.0625,164430.796875,-0.06396484375,1.002685546875,-0.1083984375,0.2746581733226776,-0.2441406100988388,1.5869139432907104,100.0,31907.0,1.0
15:30:40.633376,181582.984375,176865.15625,173096.03125,208030.828125,172952.703125,163552.546875,684455.0625,164434.1875,-0.065185546875,1.0029296875,-0.10791015625,0.3051757514476776,-0.2136230319738388,1.5869139432907104,100.0,31908.0,1.0
15:30:40.633456,181594.078125,176877.671875,173105.234375,208014.828125,172956.375,163567.75,684481.0,164427.390625,-0.0654296875,1.00439453125,-0.10595703125,0.3662109076976776,-0.1831054538488388,1.5869139432907104,100.0,31909.0,1.0
15:30:40.633483,181595.765625,176892.609375,173113.109375,207914.234375,172958.34375,163582.59375,684429.75,164417.46875,-0.06640625,1.005126953125,-0.105712890625,0.2746581733226776,-0.1831054538488388,1.4953612089157104,100.0,31910.0,1.0
15:30:40.637084,181586.921875,176880.359375,173103.453125,207923.625,172953.96875,163568.546875,684458.8125,164421.578125,-0.0673828125,1.00732421875,-0.107421875,0.3356933295726776,-0.2136230319738388,1.3732908964157104,100.0,31911.0,1.0
15:30:40.645511,181580.21875,176862.75,173093.703125,208032.796875,172950.65625,163549.328125,684433.8125,164433.203125,-0.068359375,1.00341796875,-0.108154296875,0.2746581733226776,-0.2441406100988388,1.4038084745407104,100.0,31912.0,1.0
15:30:40.645591,181590.40625,176874.546875,173104.171875,208017.859375,172955.65625,163564.53125,684465.25,164429.28125,-0.06640625,1.002197265625,-0.108154296875,0.2441406100988388,-0.1525878757238388,1.3427733182907104,100.0,31913.0,1.0
15:30:40.652880,181596.578125,176891.359375,173114.53125,207940.796875,172961.03125,163582.859375,684411.6875,164419.34375,-0.066162109375,1.000732421875,-0.106689453125,0.2441406100988388,-0.1220703050494194,1.2207030057907104,100.0,31914.0,1.0
15:30:40.652944,181591.75,176887.515625,173110.328125,207901.0,172959.234375,163577.3125,684457.8125,164422.484375,-0.06494140625,0.999755859375,-0.10595703125,0.3967284858226776,-0.0610351525247097,1.2207030057907104,100.0,31915.0,1.0
15:30:40.658929,181580.3125,176862.484375,173092.90625,208033.234375,172948.953125,163551.125,684417.25,164433.828125,-0.0634765625,1.000244140625,-0.104736328125,0.4577636420726776,-0.03051757626235485,1.2207030057907104,100.0,31916.0,1.0
15:30:40.659020,181583.703125,176868.109375,173095.765625,208017.328125,172948.6875,163560.15625,684493.5,164430.078125,-0.063720703125,0.999267578125,-0.107177734375,0.4577636420726776,0.0,1.0986326932907104,100.0,31917.0,1.0
15:30:40.664701,181595.421875,176891.265625,173111.3125,207959.484375,172961.109375,163586.25,684436.625,164417.65625,-0.065673828125,1.002197265625,-0.109130859375,0.4577636420726776,0.0,1.2207030057907104,100.0,31918.0,1.0
15:30:40.671525,181597.03125,176897.34375,173118.375,207883.65625,172969.609375,163592.78125,684452.5625,164426.859375,-0.067626953125,1.00439453125,-0.10595703125,0.5493163466453552,0.0915527269244194,1.2207030057907104,100.0,31919.0,1.0
15:30:40.671558,181581.734375,176867.484375,173101.390625,208026.171875,172963.078125,163563.28125,684417.625,164441.25,-0.0673828125,1.005859375,-0.10546875,0.4882812201976776,0.0610351525247097,1.2207030057907104,100.0,31920.0,1.0
15:30:40.682311,181579.59375,176863.8125,173091.921875,208004.984375,172948.59375,163557.5625,684496.375,164423.109375,-0.067138671875,1.00537109375,-0.105224609375,0.5798339247703552,0.0,1.2817381620407104,100.0,31921.0,1.0
15:30:40.688841,181596.40625,176881.4375,173102.921875,207982.015625,172951.375,163572.125,684441.5625,164415.234375,-0.066650390625,1.0029296875,-0.1064453125,0.5187987685203552,0.03051757626235485,1.2817381620407104,100.0,31922.0,1.0
15:30:40.688871,181599.625,176895.109375,173113.375,207876.421875,172959.0625,163585.546875,684449.625,164416.578125,-0.06640625,1.001708984375,-0.110107421875,0.6408690810203552,0.1220703050494194,1.2512205839157104,100.0,31923.0,1.0
15:30:40.692706,181596.84375,176875.53125,173105.859375,208016.15625,172960.3125,163562.109375,684407.25,164439.109375,-0.068115234375,0.99755859375,-0.107177734375,0.5493163466453552,0.0915527269244194,1.2817381620407104,100.0,31924.0,1.0
15:30:40.692778,181599.078125,176876.96875,173106.84375,208028.40625,172959.6875,163564.359375,684472.875,164438.75,-0.0673828125,0.99755859375,-0.107666015625,0.7324218153953552,0.0915527269244194,1.3732908964157104,100.0,31925.0,1.0
15:30:40.698835,181617.234375,176894.578125,173122.9375,208016.78125,172969.96875,163586.53125,684434.0625,164434.90625,-0.066162109375,0.99609375,-0.107177734375,0.8850097060203552,0.0610351525247097,1.3732908964157104,100.0,31926.0,1.0
15:30:40.698852,181618.84375,176905.84375,173131.34375,207896.625,172974.25,163600.828125,684451.1875,164430.890625,-0.06591796875,0.996826171875,-0.10693359375,1.0681151151657104,0.03051757626235485,1.4953612089157104,100.0,31927.0,1.0
15:30:40.704645,181611.0625,176883.3125,173118.203125,208000.78125,172968.796875,163576.875,684434.5625,164442.78125,-0.067138671875,0.997314453125,-0.110107421875,1.2207030057907104,0.0,1.5258787870407104,100.0,31928.0,1.0
15:30:40.715168,181605.875,176875.890625,173111.3125,208038.875,172963.890625,163570.4375,684469.25,164442.59375,-0.069091796875,0.995849609375,-0.109619140625,1.3122557401657104,0.0,1.5869139432907104,100.0,31929.0,1.0
15:30:40.715191,181618.484375,176893.6875,173123.484375,208025.90625,172971.578125,163588.140625,684458.625,164437.59375,-0.0693359375,0.998046875,-0.10791015625,1.4953612089157104,0.03051757626235485,1.6174315214157104,100.0,31930.0,1.0
15:30:40.741758,181619.828125,176909.859375,173131.078125,207906.546875,172974.96875,163602.625,684450.5625,164425.96875,-0.06787109375,0.9990234375,-0.10888671875,1.5869139432907104,-0.0610351525247097,1.6784666776657104,100.0,31931.0,1.0
15:30:40.741781,181614.375,176895.296875,173123.125,207973.34375,172973.453125,163585.8125,684456.3125,164442.234375,-0.069580078125,0.998046875,-0.111083984375,1.8005369901657104,-0.1220703050494194,1.6174315214157104,100.0,31932.0,1.0
15:30:40.741787,181603.375,176875.359375,173109.4375,208042.984375,172963.703125,163565.875,684447.375,164444.03125,-0.071044921875,0.999267578125,-0.108154296875,1.7700194120407104,-0.1525878757238388,1.5258787870407104,100.0,31933.0,1.0
15:30:40.744444,181611.59375,176885.546875,173117.046875,208033.78125,172967.546875,163579.109375,684479.1875,164441.703125,-0.071044921875,1.001708984375,-0.1083984375,1.9226073026657104,-0.2441406100988388,1.6174315214157104,100.0,31934.0,1.0
15:30:40.749192,181613.921875,176901.375,173125.4375,207931.765625,172970.6875,163595.734375,684434.5625,164431.515625,-0.071044921875,1.001220703125,-0.110595703125,2.075195074081421,-0.3051757514476776,1.7395018339157104,100.0,31935.0,1.0
15:30:40.749213,181607.3125,176893.59375,173119.28125,207934.53125,172968.171875,163585.265625,684450.125,164434.109375,-0.07080078125,1.0009765625,-0.11181640625,2.166747808456421,-0.3356933295726776,1.6784666776657104,100.0,31936.0,1.0
15:30:40.749218,181602.125,176877.140625,173110.96875,208042.0,172966.21875,163568.375,684430.9375,164445.015625,-0.0703125,1.001220703125,-0.111328125,2.227782964706421,-0.5187987685203552,1.7395018339157104,100.0,31937.0,1.0
15:30:40.751943,181611.15625,176886.890625,173118.828125,208028.140625,172970.765625,163580.625,684479.5625,164442.421875,-0.068603515625,1.00146484375,-0.112060546875,2.258300542831421,-0.5187987685203552,1.7700194120407104,100.0,31938.0,1.0
15:30:40.754479,181616.0625,176900.65625,173127.59375,207953.578125,172974.34375,163594.578125,684422.4375,164431.328125,-0.067138671875,1.003173828125,-0.11181640625,2.380370855331421,-0.5187987685203552,1.7700194120407104,100.0,31939.0,1.0
15:30:40.756947,181614.8125,176902.625,173129.109375,207920.3125,172977.203125,163594.578125,684474.0,164438.65625,-0.0693359375,1.00390625,-0.11474609375,2.319335699081421,-0.6103515028953552,1.8005369901657104,100.0,31940.0,1.0
15:30:40.760030,181604.625,176880.09375,173112.84375,208046.5625,172968.890625,163568.90625,684415.4375,164446.171875,-0.069091796875,1.00537109375,-0.114013671875,2.410888433456421,-0.7019042372703552,1.8310545682907104,100.0,31941.0,1.0
15:30:40.760053,181608.921875,176885.359375,173115.515625,208028.234375,172968.359375,163576.953125,684495.625,164441.171875,-0.06787109375,1.00732421875,-0.111572265625,2.471923589706421,-0.7324218153953552,1.8615721464157104,100.0,31942.0,1.0
15:30:40.761968,181617.765625,176901.546875,173127.765625,207983.796875,172974.25,163594.75,684427.375,164436.96875,-0.066162109375,1.006103515625,-0.1123046875,2.471923589706421,-0.7324218153953552,1.8310545682907104,100.0,31943.0,1.0
15:30:40.771961,181608.640625,176899.578125,173123.03125,207895.1875,172969.078125,163592.25,684466.6875,164428.921875,-0.068359375,1.007080078125,-0.1142578125,2.349853277206421,-0.8239745497703552,1.7395018339157104,100.0,31944.0,1.0
15:30:40.776361,181599.796875,176874.640625,173109.078125,208039.5,172964.15625,163566.140625,684410.8125,164446.984375,-0.06591796875,1.008056640625,-0.11474609375,2.258300542831421,-0.8239745497703552,1.8310545682907104,100.0,31945.0,1.0
15:30:40.776385,181599.34375,176874.8125,173107.03125,208030.203125,172961.109375,163569.0,684484.375,164443.484375,-0.06396484375,1.009521484375,-0.115966796875,2.136230230331421,-0.8544921278953552,1.8920897245407104,100.0,31946.0,1.0
15:30:40.801357,181606.59375,176888.5,173114.453125,207996.21875,172963.96875,163584.015625,684440.375,164428.734375,-0.062744140625,1.01220703125,-0.112060546875,2.075195074081421,-0.8850097060203552,1.8310545682907104,100.0,31947.0,1.0
15:30:40.801383,181602.390625,176896.90625,173115.34375,207880.53125,172963.4375,163592.96875,684445.875,164419.265625,-0.061767578125,1.01220703125,-0.11279296875,2.014159917831421,-0.7324218153953552,1.8310545682907104,100.0,31948.0,1.0
15:30:40.823836,181593.890625,176873.46875,173101.578125,208017.328125,172958.078125,163566.3125,684401.125,164436.609375,-0.058837890625,1.0126953125,-0.11279296875,1.9531248807907104,-0.6408690810203552,1.8615721464157104,100.0,31949.0,1.0
15:30:40.823865,181594.4375,176872.9375,173100.5,208033.5,172956.5625,163567.390625,684468.9375,164438.3125,-0.059814453125,1.01123046875,-0.111328125,1.7395018339157104,-0.6408690810203552,1.8920897245407104,100.0,31950.0,1.0
15:30:40.828493,181601.234375,176886.171875,173107.390625,208004.265625,172959.6875,163582.40625,684432.1875,164423.546875,-0.060302734375,1.009765625,-0.115234375,1.6479490995407104,-0.5493163466453552,1.8920897245407104,100.0,31951.0,1.0
15:30:40.828507,181596.40625,176893.40625,173108.71875,207874.71875,172957.453125,163589.03125,684453.4375,164411.296875,-0.0625,1.011474609375,-0.11474609375,1.4953612089157104,-0.5798339247703552,1.9226073026657104,100.0,31952.0,1.0
15:30:40.828511,181593.09375,176876.25,173100.953125,207986.5625,172957.1875,163568.28125,684448.0625,164431.78125,-0.062744140625,1.008544921875,-0.11474609375,1.4038084745407104,-0.5798339247703552,1.8920897245407104,100.0,31953.0,1.0
15:30:40.828514,181587.546875,176866.140625,173093.609375,208027.515625,172952.53125,163560.953125,684460.0,164434.015625,-0.0625,1.00927734375,-0.115234375,1.3732908964157104,-0.6103515028953552,1.7700194120407104,100.0,31954.0,1.0
15:30:40.832935,181596.125,176879.90625,173102.109375,208011.0625,172958.34375,163578.65625,684445.125,164426.765625,-0.0634765625,1.008056640625,-0.115234375,1.1901854276657104,-0.5187987685203552,1.7395018339157104,100.0,31955.0,1.0
15:30:40.832957,181597.109375,176894.75,173110.328125,207894.75,172961.65625,163593.59375,684417.6875,164417.46875,-0.064208984375,1.008544921875,-0.11474609375,1.0986326932907104,-0.6408690810203552,1.7700194120407104,100.0,31956.0,1.0
15:30:40.832960,181593.8125,176880.890625,173104.53125,207964.65625,172960.671875,163576.15625,684440.9375,164434.8125,-0.061767578125,1.006591796875,-0.116455078125,1.0070799589157104,-0.5493163466453552,1.8005369901657104,100.0,31957.0,1.0
15:30:40.835779,181581.203125,176860.421875,173089.765625,208030.921875,172949.40625,163556.3125,684443.0625,164431.421875,-0.05908203125,1.0078125,-0.115966796875,0.9155272841453552,-0.5493163466453552,1.6784666776657104,100.0,31958.0,1.0
15:30:40.838360,181594.34375,176875.0,173100.765625,208015.09375,172956.109375,163572.671875,684468.1875,164425.25,-0.057373046875,1.00634765625,-0.117431640625,0.9765624403953552,-0.5187987685203552,1.6784666776657104,100.0,31959.0,1.0
15:30:40.840774,181606.234375,176901.015625,173118.109375,207925.40625,172968.171875,163598.328125,684426.625,164423.90625,-0.0576171875,1.004638671875,-0.11962890625,0.9155272841453552,-0.4272460639476776,1.5869139432907104,100.0,31960.0,1.0
15:30:40.843549,181599.796875,176891.984375,173110.96875,207935.96875,172964.328125,163585.546875,684476.875,164431.59375,-0.05615234375,1.0048828125,-0.11962890625,0.9155272841453552,-0.2441406100988388,1.5563963651657104,100.0,31961.0,1.0
15:30:40.845766,181585.9375,176865.78125,173092.625,208035.203125,172952.796875,163558.546875,684432.0,164432.21875,-0.056396484375,1.00634765625,-0.118408203125,0.8544921278953552,-0.1220703050494194,1.6479490995407104,100.0,31962.0,1.0
15:30:40.848893,181597.03125,176877.765625,173103.0,208022.6875,172958.078125,163574.1875,684473.8125,164431.78125,-0.058837890625,1.007568359375,-0.11767578125,0.8544921278953552,-0.0610351525247097,1.6174315214157104,100.0,31963.0,1.0
15:30:40.848912,181602.84375,176893.328125,173113.015625,207947.046875,172962.640625,163590.546875,684411.625,164421.671875,-0.059326171875,1.009521484375,-0.116455078125,0.8544921278953552,-0.1220703050494194,1.5869139432907104,100.0,31964.0,1.0
15:30:40.854473,181599.796875,176891.453125,173111.671875,207909.953125,172962.8125,163586.703125,684457.9375,164428.734375,-0.0595703125,1.008056640625,-0.11669921875,0.7324218153953552,-0.03051757626235485,1.6174315214157104,100.0,31965.0,1.0
15:30:40.862547,181589.0625,176867.84375,173096.390625,208042.171875,172953.609375,163559.875,684415.875,164436.96875,-0.05859375,1.006591796875,-0.1171875,0.5493163466453552,-0.03051757626235485,1.6174315214157104,100.0,31966.0,1.0
15:30:40.862571,181594.15625,176873.390625,173098.71875,208023.21875,172954.046875,163568.28125,684490.0,164431.15625,-0.0576171875,1.003662109375,-0.1201171875,0.4882812201976776,-0.0915527269244194,1.6784666776657104,100.0,31967.0,1.0
15:30:40.865102,181603.46875,176891.453125,173110.6875,207968.59375,172961.921875,163589.203125,684425.3125,164420.421875,-0.0546875,1.001220703125,-0.121826171875,0.5493163466453552,0.0610351525247097,1.6174315214157104,100.0,31968.0,1.0
15:30:40.865129,181596.21875,176890.46875,173107.921875,207883.84375,172957.71875,163588.046875,684445.25,164417.296875,-0.0537109375,1.000732421875,-0.123291015625,0.5798339247703552,0.2746581733226776,1.4343260526657104,100.0,31969.0,1.0
15:30:40.873383,181589.515625,176868.921875,173096.03125,208030.015625,172954.140625,163562.46875,684397.0625,164435.265625,-0.051513671875,0.996337890625,-0.121337890625,0.6103515028953552,0.3967284858226776,1.3427733182907104,100.0,31970.0,1.0
15:30:40.880111,181589.609375,176870.53125,173095.140625,208018.21875,172952.078125,163565.875,684485.125,164428.203125,-0.0498046875,0.9990234375,-0.119384765625,0.7324218153953552,0.5798339247703552,1.3427733182907104,100.0,31971.0,1.0
15:30:40.880138,181604.0,176890.015625,173109.625,207988.0,172962.8125,163586.25,684441.375,164419.625,-0.049560546875,0.999267578125,-0.12060546875,0.7019042372703552,0.7324218153953552,1.3122557401657104,100.0,31972.0,1.0
15:30:40.885074,181606.234375,176900.03125,173116.859375,207883.75,172967.546875,163594.921875,684450.0625,164421.3125,-0.052490234375,1.00146484375,-0.120361328125,0.7629393935203552,0.8544921278953552,1.4343260526657104,100.0,31973.0,1.0
15:30:40.885104,181593.53125,176872.046875,173098.625,208011.953125,172957.71875,163564.359375,684423.25,164431.953125,-0.05615234375,1.003173828125,-0.120361328125,0.7629393935203552,1.0070799589157104,1.3427733182907104,100.0,31974.0,1.0
15:30:40.886941,181587.375,176864.171875,173089.953125,208017.234375,172948.953125,163559.171875,684473.5625,164423.546875,-0.056396484375,1.001708984375,-0.123046875,0.7629393935203552,1.1596678495407104,1.3427733182907104,100.0,31975.0,1.0
15:30:40.903442,181598.90625,176880.1875,173102.015625,208004.984375,172955.296875,163576.6875,684428.4375,164419.53125,-0.0556640625,1.001220703125,-0.122314453125,0.7934569716453552,1.3122557401657104,1.3427733182907104,100.0,31976.0,1.0
15:30:40.906366,181601.765625,176896.625,173111.859375,207884.203125,172960.484375,163591.4375,684442.75,164415.15625,-0.05615234375,0.999755859375,-0.12353515625,0.8239745497703552,1.4038084745407104,1.2207030057907104,100.0,31977.0,1.0
15:30:40.906385,181594.609375,176875.703125,173099.78125,207989.78125,172956.203125,163568.109375,684427.5,164430.53125,-0.056640625,0.999267578125,-0.123291015625,0.9155272841453552,1.4038084745407104,1.1901854276657104,100.0,31978.0,1.0
15:30:40.908252,181584.15625,176860.25,173087.796875,208025.109375,172947.25,163555.328125,684457.75,164426.765625,-0.05615234375,1.002197265625,-0.122314453125,0.9460448622703552,1.4038084745407104,1.2207030057907104,100.0,31979.0,1.0
15:30:40.910817,181595.0625,176875.625,173100.671875,208015.71875,172958.515625,163574.640625,684448.625,164426.859375,-0.05712890625,1.00244140625,-0.124755859375,1.0070799589157104,1.5869139432907104,1.1596678495407104,100.0,31980.0,1.0
15:30:40.918218,181595.328125,176891.890625,173105.859375,207894.75,172958.34375,163589.296875,684430.0,164412.90625,-0.05859375,1.005126953125,-0.120849609375,1.0681151151657104,1.7700194120407104,1.0375975370407104,100.0,31981.0,1.0
15:30:40.926337,181590.59375,176877.046875,173092.28125,207955.546875,172947.609375,163568.109375,684448.875,164419.4375,-0.060791015625,1.005126953125,-0.120849609375,1.0070799589157104,1.8920897245407104,1.0986326932907104,100.0,31982.0,1.0
15:30:40.926359,181584.328125,176860.78125,173081.71875,208032.078125,172941.984375,163554.0625,684452.75,164424.0,-0.059326171875,1.00537109375,-0.121826171875,0.9765624403953552,1.8310545682907104,1.0070799589157104,100.0,31983.0,1.0
15:30:40.934449,181596.40625,176876.34375,173095.21875,208019.5625,172952.984375,163573.46875,684466.4375,164421.9375,-0.0615234375,1.005126953125,-0.12451171875,0.8850097060203552,1.9226073026657104,1.0070799589157104,100.0,31984.0,1.0
15:30:40.934476,181603.46875,176895.296875,173106.484375,207921.125,172959.0625,163592.0625,684426.125,164414.875,-0.059814453125,1.005126953125,-0.12353515625,0.9460448622703552,1.9531248807907104,0.8239745497703552,100.0,31985.0,1.0
15:30:40.941441,181595.0625,176884.03125,173097.546875,207926.75,172955.296875,163579.28125,684461.75,164420.875,-0.061767578125,1.00537109375,-0.1240234375,0.7934569716453552,1.8920897245407104,0.8239745497703552,100.0,31986.0,1.0
15:30:40.941489,181582.265625,176861.140625,173081.90625,208029.75,172946.90625,163556.484375,684436.0,164424.0,-0.060546875,1.00537109375,-0.120361328125,0.8544921278953552,1.8615721464157104,0.7934569716453552,100.0,31987.0,1.0
15:30:40.943825,181588.890625,176868.734375,173086.90625,208012.5,172947.171875,163567.03125,684476.0,164418.1875,-0.059326171875,1.0048828125,-0.12255859375,0.8239745497703552,1.8310545682907104,0.7934569716453552,100.0,31988.0,1.0
15:30:40.943837,181597.5625,176887.953125,173099.875,207943.828125,172955.21875,163587.78125,684416.8125,164412.734375,-0.062744140625,1.006591796875,-0.12109375,0.8239745497703552,1.8005369901657104,0.7629393935203552,100.0,31989.0,1.0
15:30:40.953227,181596.9375,176888.671875,173101.390625,207908.875,172958.515625,163587.328125,684460.625,164422.390625,-0.0634765625,1.008056640625,-0.121826171875,0.6408690810203552,1.8310545682907104,0.7629393935203552,100.0,31990.0,1.0
15:30:40.956481,181591.578125,176869.453125,173090.046875,208038.515625,172953.421875,163564.625,684423.5625,164432.765625,-0.065673828125,1.007080078125,-0.121337890625,0.5493163466453552,1.9226073026657104,0.7324218153953552,100.0,31991.0,1.0
15:30:40.956496,181596.578125,176876.96875,173095.140625,208021.078125,172954.40625,163573.46875,684479.625,164428.375,-0.0673828125,1.007080078125,-0.123291015625,0.5187987685203552,1.8005369901657104,0.7934569716453552,100.0,31992.0,1.0
15:30:40.963241,181606.6875,176896.28125,173108.375,207975.390625,172963.0,163593.953125,684418.5625,164420.6875,-0.067626953125,1.00634765625,-0.124267578125,0.4272460639476776,1.6784666776657104,0.6713866591453552,100.0,31993.0,1.0
15:30:40.967028,181607.21875,176902.71875,173112.84375,207900.640625,172967.546875,163599.40625,684449.6875,164428.5625,-0.068115234375,1.00830078125,-0.12255859375,0.3051757514476776,1.4648436307907104,0.7019042372703552,100.0,31994.0,1.0
15:30:40.975113,181591.125,176872.140625,173091.109375,208030.640625,172954.765625,163566.3125,684398.4375,164433.03125,-0.06884765625,1.009033203125,-0.123779296875,0.3051757514476776,1.4343260526657104,0.6103515028953552,100.0,31995.0,1.0
15:30:40.975134,181590.40625,176871.78125,173088.875,208019.296875,172949.671875,163568.546875,684471.625,164426.40625,-0.068603515625,1.009521484375,-0.1220703125,0.1525878757238388,1.2817381620407104,0.7629393935203552,100.0,31996.0,1.0
15:30:40.981975,181595.953125,176883.3125,173096.03125,207989.78125,172951.90625,163582.234375,684416.25,164417.5625,-0.0673828125,1.009033203125,-0.121337890625,0.03051757626235485,1.2512205839157104,0.7629393935203552,100.0,31997.0,1.0
15:30:40.987533,181593.09375,176890.90625,173099.15625,207877.671875,172951.734375,163588.84375,684473.3125,164414.875,-0.066162109375,1.009033203125,-0.123046875,-0.0915527269244194,1.1901854276657104,0.8850097060203552,100.0,31998.0,1.0
15:30:40.987554,181584.0625,176864.984375,173083.953125,208008.109375,172943.046875,163558.8125,684453.75,164429.8125,-0.06591796875,1.00732421875,-0.123046875,-0.1831054538488388,0.9765624403953552,0.8239745497703552,100.0,31999.0,1.0
15:30:40.990069,181578.78125,176857.296875,173074.578125,208014.109375,172933.578125,163552.28125,684473.6875,164420.25,-0.066650390625,1.00732421875,-0.12451171875,-0.1831054538488388,0.8544921278953552,0.8850097060203552,100.0,32000.0,1.0
15:30:41.005278,181590.765625,176873.828125,173086.640625,208000.78125,172941.625,163571.59375,684437.6875,164415.6875,-0.06787109375,1.0078125,-0.122802734375,-0.1525878757238388,0.7934569716453552,0.7934569716453552,100.0,32001.0,1.0
15:30:41.005313,181592.546875,176888.765625,173095.3125,207878.75,172946.0,163585.09375,684439.5,164410.40625,-0.0673828125,1.007568359375,-0.12109375,-0.2441406100988388,0.6713866591453552,0.8544921278953552,100.0,32002.0,1.0
15:30:41.007059,181585.484375,176868.5625,173083.875,207982.015625,172942.25,163560.59375,684436.625,164426.0625,-0.067626953125,1.00732421875,-0.126708984375,-0.3051757514476776,0.5187987685203552,0.7629393935203552,100.0,32003.0,1.0
15:30:41.009435,181583.171875,176862.03125,173080.203125,208027.15625,172940.546875,163555.140625,684469.875,164428.296875,-0.06787109375,1.006591796875,-0.12548828125,-0.4272460639476776,0.4577636420726776,0.8850097060203552,100.0,32004.0,1.0
15:30:41.011970,181602.03125,176882.859375,173099.34375,208028.953125,172955.484375,163578.828125,684463.75,164431.421875,-0.067138671875,1.006591796875,-0.124267578125,-0.4577636420726776,0.2441406100988388,1.0070799589157104,100.0,32005.0,1.0
15:30:41.019485,181604.890625,176899.21875,173108.546875,207908.15625,172960.3125,163595.203125,684436.4375,164419.625,-0.0654296875,1.00439453125,-0.123291015625,-0.5798339247703552,0.2441406100988388,1.0681151151657104,100.0,32006.0,1.0
15:30:41.048179,181598.453125,176883.3125,173100.046875,207970.65625,172957.453125,163575.96875,684431.4375,164433.125,-0.065185546875,1.004638671875,-0.122314453125,-0.5798339247703552,0.1525878757238388,0.9765624403953552,100.0,32007.0,1.0
15:30:41.048202,181586.46875,176862.296875,173084.9375,208043.34375,172945.375,163555.40625,684437.0625,164434.015625,-0.06494140625,1.00439453125,-0.125244140625,-0.6713866591453552,0.0610351525247097,1.0375975370407104,100.0,32008.0,1.0
15:30:41.048206,181594.15625,176870.703125,173090.390625,208026.4375,172947.25,163567.03125,684460.875,164427.390625,-0.0654296875,1.005615234375,-0.126953125,-0.6103515028953552,0.0,1.0375975370407104,100.0,32009.0,1.0
15:30:41.052423,181597.46875,176885.09375,173099.34375,207927.734375,172950.125,163582.953125,684415.5625,164418.28125,-0.0625,1.006103515625,-0.12646484375,-0.6408690810203552,-0.1220703050494194,1.0375975370407104,100.0,32010.0,1.0
15:30:41.053189,181583.4375,176867.84375,173083.78125,207923.625,172938.859375,163562.828125,684461.4375,164417.109375,-0.06201171875,1.00537109375,-0.123291015625,-0.7324218153953552,-0.1220703050494194,1.0681151151657104,100.0,32011.0,1.0
15:30:41.056851,181576.90625,176850.046875,173071.796875,208032.171875,172933.9375,163543.78125,684429.6875,164425.78125,-0.06201171875,1.005859375,-0.123779296875,-0.7934569716453552,-0.0610351525247097,1.0681151151657104,100.0,32012.0,1.0
15:30:41.058196,181589.78125,176866.6875,173084.578125,208021.53125,172943.046875,163563.015625,684471.875,164427.3125,-0.060546875,1.005859375,-0.12353515625,-0.8239745497703552,-0.1525878757238388,1.0070799589157104,100.0,32013.0,1.0
15:30:41.060710,181596.84375,176885.8125,173097.109375,207948.578125,172949.046875,163583.3125,684416.5,164418.09375,-0.061279296875,1.005615234375,-0.123046875,-0.9460448622703552,-0.1220703050494194,0.9460448622703552,100.0,32014.0,1.0
15:30:41.063310,181597.03125,176888.3125,173100.765625,207914.5,172954.953125,163585.625,684451.0625,164428.5625,-0.060791015625,1.00390625,-0.1240234375,-0.9155272841453552,-0.1525878757238388,0.9765624403953552,100.0,32015.0,1.0
15:30:41.065711,181595.0625,176870.796875,173091.828125,208053.890625,172953.609375,163566.765625,684418.125,164446.34375,-0.0615234375,1.00341796875,-0.127685546875,-0.9155272841453552,-0.1525878757238388,1.0375975370407104,100.0,32016.0,1.0
15:30:41.068206,181601.9375,176879.109375,173097.453125,208034.140625,172955.03125,163577.765625,684483.875,164439.640625,-0.060791015625,1.003173828125,-0.1240234375,-0.8850097060203552,-0.2136230319738388,0.9765624403953552,100.0,32017.0,1.0
15:30:41.071377,181612.578125,176896.984375,173111.40625,207989.609375,172962.8125,163596.09375,684412.5625,164434.453125,-0.060546875,1.006103515625,-0.126708984375,-0.9765624403953552,-0.2441406100988388,0.9155272841453552,100.0,32018.0,1.0
15:30:41.071400,181610.34375,176900.75,173114.09375,207910.125,172964.328125,163598.859375,684465.3125,164438.03125,-0.0595703125,1.004150390625,-0.126220703125,-1.0070799589157104,-0.2136230319738388,0.9460448622703552,100.0,32019.0,1.0
15:30:41.073225,181595.59375,176872.21875,173094.875,208045.390625,172954.765625,163568.46875,684445.875,164445.90625,-0.06005859375,1.004638671875,-0.125732421875,-1.0986326932907104,-0.2441406100988388,0.9765624403953552,100.0,32020.0,1.0
15:30:41.075756,181598.71875,176876.515625,173097.90625,208040.484375,172956.46875,163575.890625,684498.6875,164444.828125,-0.061767578125,1.007080078125,-0.12548828125,-1.0681151151657104,-0.2136230319738388,0.9460448622703552,100.0,32021.0,1.0
15:30:41.083274,181609.1875,176892.78125,173109.4375,208012.859375,172962.546875,163594.125,684443.8125,164438.125,-0.061767578125,1.006591796875,-0.1240234375,-1.0375975370407104,-0.2441406100988388,0.9155272841453552,100.0,32022.0,1.0
15:30:41.088789,181605.96875,176900.125,173110.96875,207894.84375,172960.125,163600.296875,684444.6875,164428.203125,-0.05908203125,1.006591796875,-0.12451171875,-1.1291502714157104,-0.1831054538488388,0.8850097060203552,100.0,32023.0,1.0
15:30:41.088817,181595.234375,176871.234375,173094.234375,208026.359375,172951.09375,163569.53125,684406.5,164442.328125,-0.05859375,1.00439453125,-0.1220703125,-1.1901854276657104,-0.1525878757238388,0.8850097060203552,100.0,32024.0,1.0
15:30:41.090706,181590.859375,176865.15625,173088.4375,208034.84375,172945.921875,163566.5,684475.25,164437.40625,-0.05908203125,1.004150390625,-0.1240234375,-1.2207030057907104,-0.1220703050494194,1.0070799589157104,100.0,32025.0,1.0
15:30:41.096972,181608.46875,176888.671875,173105.859375,208023.5,172957.625,163591.625,684436.0,164436.15625,-0.055908203125,1.004638671875,-0.12646484375,-1.1901854276657104,-0.1220703050494194,0.8239745497703552,100.0,32026.0,1.0
15:30:41.101375,181605.78125,176898.953125,173109.625,207900.5625,172956.734375,163601.640625,684439.4375,164425.078125,-0.057861328125,1.00537109375,-0.12548828125,-1.1291502714157104,-0.0915527269244194,0.7629393935203552,100.0,32027.0,1.0
15:30:41.101403,181595.765625,176877.3125,173096.03125,208003.375,172951.8125,163576.59375,684416.25,164440.265625,-0.056640625,1.008056640625,-0.12353515625,-1.3427733182907104,0.0,0.7324218153953552,100.0,32028.0,1.0
15:30:41.108389,181584.953125,176863.46875,173083.515625,208033.421875,172941.453125,163563.015625,684451.0625,164430.4375,-0.056396484375,1.00634765625,-0.121826171875,-1.3427733182907104,0.03051757626235485,0.6713866591453552,100.0,32029.0,1.0
15:30:41.115074,181598.359375,176879.546875,173096.203125,208025.453125,172948.515625,163580.796875,684458.9375,164428.734375,-0.0546875,1.004150390625,-0.127197265625,-1.4038084745407104,0.0610351525247097,0.7019042372703552,100.0,32030.0,1.0
15:30:41.115103,181603.375,176897.609375,173107.203125,207911.734375,172954.765625,163599.671875,684433.5,164421.765625,-0.05224609375,1.0029296875,-0.128173828125,-1.5258787870407104,0.2136230319738388,0.7629393935203552,100.0,32031.0,1.0
15:30:41.120826,181592.640625,176878.03125,173094.0625,207969.3125,172947.609375,163576.421875,684445.375,164431.6875,-0.05078125,1.00146484375,-0.12841796875,-1.4953612089157104,0.3051757514476776,0.9155272841453552,100.0,32032.0,1.0
15:30:41.131497,181583.171875,176861.40625,173082.0,208042.984375,172938.671875,163558.8125,684441.3125,164434.453125,-0.05224609375,0.999755859375,-0.1259765625,-1.4648436307907104,0.3051757514476776,0.9155272841453552,100.0,32033.0,1.0
15:30:41.131565,181594.515625,176874.8125,173091.375,208033.0625,172943.234375,163575.078125,684463.125,164433.75,-0.055419921875,0.9990234375,-0.1279296875,-1.4038084745407104,0.3662109076976776,0.9460448622703552,100.0,32034.0,1.0
15:30:41.134358,181597.734375,176889.5625,173098.53125,207933.8125,172944.75,163590.546875,684410.6875,164421.046875,-0.054931640625,1.0009765625,-0.127197265625,-1.4648436307907104,0.4882812201976776,0.9155272841453552,100.0,32035.0,1.0
15:30:41.134419,181588.171875,176877.953125,173089.5,207935.703125,172939.921875,163577.046875,684455.9375,164424.984375,-0.055908203125,1.001220703125,-0.127685546875,-1.4038084745407104,0.5798339247703552,0.8544921278953552,100.0,32036.0,1.0
15:30:41.144596,181575.65625,176855.328125,173073.953125,208038.953125,172930.890625,163554.0625,684432.5,164429.09375,-0.056640625,1.00146484375,-0.12841796875,-1.4648436307907104,0.7019042372703552,0.8239745497703552,100.0,32037.0,1.0
15:30:41.175109,181585.140625,176865.515625,173081.453125,208024.65625,172934.203125,163567.5625,684479.1875,164426.5,-0.0576171875,1.004150390625,-0.12890625,-1.4648436307907104,0.7934569716453552,0.6713866591453552,100.0,32038.0,1.0
15:30:41.175136,181594.96875,176883.9375,173094.515625,207954.203125,172941.796875,163586.703125,684417.875,164419.53125,-0.056396484375,1.0048828125,-0.127197265625,-1.3732908964157104,0.7934569716453552,0.6408690810203552,100.0,32039.0,1.0
15:30:41.198532,181593.359375,176883.578125,173095.578125,207920.234375,172942.96875,163583.9375,684455.9375,164429.1875,-0.057861328125,1.0068359375,-0.125732421875,-1.4648436307907104,0.7934569716453552,0.6103515028953552,100.0,32040.0,1.0
15:30:41.200769,181581.734375,176858.984375,173078.421875,208054.34375,172933.578125,163556.390625,684423.125,164438.578125,-0.0576171875,1.005615234375,-0.12744140625,-1.4953612089157104,0.8544921278953552,0.6713866591453552,100.0,32041.0,1.0
15:30:41.203224,181582.984375,176863.90625,173078.59375,208026.265625,172931.96875,163563.90625,684481.25,164428.5625,-0.05810546875,1.00390625,-0.12744140625,-1.4343260526657104,0.8850097060203552,0.6713866591453552,100.0,32042.0,1.0
15:30:41.205673,181593.984375,176881.25,173090.125,207983.265625,172939.296875,163581.78125,684414.5625,164423.46875,-0.05859375,1.00341796875,-0.125,-1.3427733182907104,0.8544921278953552,0.6408690810203552,100.0,32043.0,1.0
15:30:41.209592,181589.515625,176884.03125,173089.234375,207898.859375,172936.890625,163582.6875,684462.75,164422.21875,-0.057861328125,1.00390625,-0.128662109375,-1.3732908964157104,0.8544921278953552,0.5493163466453552,100.0,32044.0,1.0
15:30:41.209620,181576.109375,176854.25,173070.28125,208034.3125,172925.703125,163552.1875,684423.0625,164432.140625,-0.058837890625,1.005615234375,-0.12939453125,-1.2512205839157104,0.8850097060203552,0.4882812201976776,100.0,32045.0,1.0
15:30:41.209627,181574.671875,176853.09375,173067.953125,208025.375,172922.40625,163554.0625,684492.25,164426.6875,-0.061767578125,1.00537109375,-0.128173828125,-1.2207030057907104,0.8239745497703552,0.3662109076976776,100.0,32046.0,1.0
15:30:41.213235,181588.703125,176872.84375,173082.796875,208000.15625,172933.9375,163575.53125,684439.625,164421.5,-0.0625,1.005859375,-0.127197265625,-1.1901854276657104,0.7629393935203552,0.3356933295726776,100.0,32047.0,1.0
15:30:41.213261,181591.65625,176886.4375,173092.625,207893.859375,172940.640625,163588.21875,684444.625,164421.3125,-0.063720703125,1.006103515625,-0.124755859375,-1.2512205839157104,0.8544921278953552,0.2136230319738388,100.0,32048.0,1.0
15:30:41.213268,181584.15625,176864.984375,173079.578125,208028.5,172935.8125,163561.9375,684427.4375,164438.484375,-0.064208984375,1.0048828125,-0.124267578125,-1.2817381620407104,0.7324218153953552,0.1220703050494194,100.0,32049.0,1.0
15:30:41.219121,181580.125,176858.984375,173073.5,208037.796875,172929.109375,163557.375,684478.5625,164432.40625,-0.065673828125,1.004638671875,-0.123046875,-1.3732908964157104,0.6713866591453552,0.0610351525247097,100.0,32050.0,1.0
15:30:41.219138,181590.859375,176872.765625,173083.953125,208021.96875,172934.203125,163572.75,684454.5,164425.609375,-0.066162109375,1.006103515625,-0.12255859375,-1.4648436307907104,0.5798339247703552,-0.0610351525247097,100.0,32051.0,1.0
15:30:41.219141,181592.46875,176887.421875,173092.625,207901.0,172938.9375,163587.78125,684449.6875,164419.796875,-0.066162109375,1.00439453125,-0.122314453125,-1.4343260526657104,0.4882812201976776,-0.03051757626235485,100.0,32052.0,1.0
15:30:41.219144,181583.171875,176865.703125,173078.859375,208001.234375,172932.6875,163563.8125,684440.0625,164431.6875,-0.06494140625,1.006591796875,-0.1220703125,-1.5563963651657104,0.3967284858226776,-0.1220703050494194,100.0,32053.0,1.0
15:30:41.219147,181576.28125,176855.859375,173070.8125,208039.859375,172926.0625,163554.78125,684463.75,164430.4375,-0.0654296875,1.00537109375,-0.1240234375,-1.5258787870407104,0.3051757514476776,0.0,100.0,32054.0,1.0
15:30:41.221378,181589.875,176872.046875,173084.234375,208027.96875,172934.921875,163574.640625,684462.75,164426.5,-0.06494140625,1.0048828125,-0.125732421875,-1.6479490995407104,0.2441406100988388,0.0,100.0,32055.0,1.0
15:30:41.221419,181593.0,176887.0625,173093.34375,207916.46875,172940.015625,163591.4375,684430.125,164420.875,-0.06103515625,1.00537109375,-0.1240234375,-1.5563963651657104,0.2136230319738388,0.0915527269244194,100.0,32056.0,1.0
15:30:41.223508,181587.1875,176872.140625,173085.296875,207977.890625,172938.234375,163574.453125,684443.0,164436.25,-0.0615234375,1.0068359375,-0.124267578125,-1.5869139432907104,0.2136230319738388,0.1220703050494194,100.0,32057.0,1.0
15:30:41.226637,181581.203125,176857.65625,173076.546875,208052.640625,172933.3125,163560.59375,684457.5625,164441.25,-0.0595703125,1.005859375,-0.12451171875,-1.6784666776657104,0.2136230319738388,0.1831054538488388,100.0,32058.0,1.0
15:30:41.228494,181597.03125,176875.703125,173091.828125,208043.4375,172944.03125,163580.4375,684465.25,164442.953125,-0.05908203125,1.007080078125,-0.125732421875,-1.7700194120407104,0.0915527269244194,0.2746581733226776,100.0,32059.0,1.0
15:30:41.243244,181601.5,176894.484375,173102.828125,207939.890625,172949.765625,163600.375,684420.5625,164429.28125,-0.060791015625,1.0068359375,-0.125,-1.8005369901657104,0.0915527269244194,0.2746581733226776,100.0,32060.0,1.0
15:30:41.246335,181593.71875,176884.296875,173096.65625,207945.078125,172946.8125,163588.765625,684445.875,164436.96875,-0.060302734375,1.005126953125,-0.126708984375,-1.9226073026657104,0.1525878757238388,0.3662109076976776,100.0,32061.0,1.0
15:30:41.246371,181584.328125,176862.390625,173082.34375,208054.15625,172938.234375,163566.671875,684432.1875,164445.015625,-0.061767578125,1.006591796875,-0.125732421875,-2.014159917831421,0.1525878757238388,0.4272460639476776,100.0,32062.0,1.0
15:30:41.246383,181594.515625,176874.8125,173091.296875,208039.046875,172942.875,163582.859375,684499.125,164442.6875,-0.0625,1.0048828125,-0.12548828125,-2.014159917831421,0.03051757626235485,0.3662109076976776,100.0,32063.0,1.0
15:30:41.248235,181600.15625,176890.90625,173101.84375,207972.703125,172948.234375,163599.21875,684435.75,164433.75,-0.06298828125,1.004150390625,-0.122314453125,-2.044677495956421,0.1525878757238388,0.3662109076976776,100.0,32064.0,1.0
15:30:41.251966,181593.53125,176885.90625,173096.921875,207924.78125,172944.3125,163592.34375,684466.125,164433.390625,-0.0615234375,1.00439453125,-0.123291015625,-2.044677495956421,0.0915527269244194,0.4272460639476776,100.0,32065.0,1.0
15:30:41.262541,181580.578125,176858.640625,173077.4375,208048.53125,172931.34375,163560.59375,684420.1875,164437.328125,-0.0625,1.00390625,-0.1240234375,-2.136230230331421,0.1831054538488388,0.3967284858226776,100.0,32066.0,1.0
15:30:41.262566,181584.421875,176862.65625,173077.96875,208030.5625,172930.359375,163566.40625,684481.0,164430.703125,-0.064453125,1.00146484375,-0.12548828125,-2.136230230331421,0.0610351525247097,0.2136230319738388,100.0,32067.0,1.0
15:30:41.265091,181594.796875,176881.4375,173092.0,207986.921875,172938.9375,163586.4375,684422.4375,164426.0625,-0.064453125,1.001220703125,-0.12451171875,-2.197265386581421,0.1220703050494194,0.1831054538488388,100.0,32068.0,1.0
15:30:41.265110,181589.515625,176882.6875,173091.296875,207902.078125,172936.265625,163585.359375,684465.8125,164423.734375,-0.064453125,1.002197265625,-0.1240234375,-2.166747808456421,0.0610351525247097,0.2441406100988388,100.0,32069.0,1.0
15:30:41.270678,181576.546875,176853.09375,173073.5,208040.390625,172926.15625,163553.359375,684418.75,164434.453125,-0.064208984375,1.001953125,-0.121337890625,-2.136230230331421,0.03051757626235485,0.2136230319738388,100.0,32070.0,1.0
15:30:41.281489,181579.234375,176855.140625,173074.9375,208032.875,172926.328125,163558.890625,684487.625,164431.875,-0.064697265625,1.001708984375,-0.119140625,-2.166747808456421,-0.1525878757238388,0.2136230319738388,100.0,32071.0,1.0
15:30:41.281508,181595.765625,176878.390625,173092.546875,208011.515625,172939.921875,163584.734375,684433.3125,164430.4375,-0.061279296875,1.001220703125,-0.121826171875,-2.166747808456421,-0.0915527269244194,0.2441406100988388,100.0,32072.0,1.0
15:30:41.283238,181596.125,176890.640625,173099.703125,207905.125,172945.109375,163597.078125,684462.5625,164429.0,-0.0625,0.998046875,-0.123046875,-2.075195074081421,-0.0915527269244194,0.1525878757238388,100.0,32073.0,1.0
15:30:41.288349,181589.6875,176869.0,173087.453125,208036.453125,172940.90625,163572.3125,684444.5,164446.625,-0.064453125,0.998779296875,-0.123046875,-2.014159917831421,-0.1220703050494194,0.1831054538488388,100.0,32074.0,1.0
15:30:41.296397,181582.546875,176861.140625,173078.15625,208041.375,172931.796875,163566.765625,684491.875,164437.59375,-0.062255859375,0.998046875,-0.11962890625,-1.9226073026657104,-0.0915527269244194,0.03051757626235485,100.0,32075.0,1.0
15:30:41.296420,181594.796875,176877.953125,173091.109375,208026.890625,172940.28125,163585.359375,684453.1875,164433.921875,-0.062255859375,0.998779296875,-0.12060546875,-1.8920897245407104,0.03051757626235485,0.0,100.0,32076.0,1.0
15:30:41.298230,181595.6875,176888.859375,173097.453125,207907.171875,172941.359375,163595.46875,684442.625,164428.65625,-0.06201171875,0.996826171875,-0.125244140625,-1.7700194120407104,-0.0610351525247097,0.1831054538488388,100.0,32077.0,1.0
15:30:41.301908,181587.71875,176866.046875,173084.859375,208008.734375,172935.71875,163570.078125,684436.9375,164442.859375,-0.06005859375,0.998291015625,-0.125,-1.6784666776657104,0.0610351525247097,0.2746581733226776,100.0,32078.0,1.0
15:30:41.312098,181576.734375,176851.390625,173071.890625,208041.46875,172924.546875,163554.96875,684469.375,164434.015625,-0.0615234375,1.001953125,-0.125244140625,-1.6174315214157104,0.0,0.2441406100988388,100.0,32079.0,1.0
15:30:41.315048,181590.59375,176869.1875,173086.109375,208036.09375,172935.28125,163574.640625,684449.9375,164434.640625,-0.0625,1.0,-0.123046875,-1.5563963651657104,0.03051757626235485,0.3356933295726776,100.0,32080.0,1.0
15:30:41.315068,181594.609375,176886.703125,173095.765625,207920.765625,172940.90625,163593.765625,684432.0,164424.265625,-0.061767578125,1.000244140625,-0.120361328125,-1.4648436307907104,0.0610351525247097,0.3662109076976776,100.0,32081.0,1.0
15:30:41.325738,181587.453125,176870.4375,173085.296875,207980.21875,172937.15625,163574.640625,684461.5625,164437.953125,-0.06201171875,0.998779296875,-0.123779296875,-1.3732908964157104,0.1220703050494194,0.5187987685203552,100.0,32082.0,1.0
15:30:41.328819,181573.421875,176848.796875,173067.59375,208051.03125,172923.921875,163553.625,684455.875,164434.640625,-0.0595703125,0.99951171875,-0.124267578125,-1.2512205839157104,0.1220703050494194,0.4882812201976776,100.0,32083.0,1.0
15:30:41.328835,181581.015625,176859.34375,173074.390625,208031.546875,172926.609375,163566.859375,684473.9375,164426.328125,-0.0615234375,1.0009765625,-0.12548828125,-1.1596678495407104,0.03051757626235485,0.5493163466453552,100.0,32084.0,1.0
15:30:41.328837,181592.015625,176882.0625,173089.859375,207940.796875,172936.625,163589.03125,684438.5,164421.5,-0.062255859375,1.0,-0.1220703125,-1.0986326932907104,0.03051757626235485,0.5798339247703552,100.0,32085.0,1.0
15:30:41.334551,181588.625,176874.734375,173086.015625,207951.25,172937.328125,163580.359375,684465.4375,164433.484375,-0.06396484375,1.0029296875,-0.12353515625,-1.0681151151657104,0.0610351525247097,0.5798339247703552,100.0,32086.0,1.0
15:30:41.348984,181579.046875,176853.265625,173072.78125,208061.140625,172930.890625,163558.890625,684435.375,164441.875,-0.06689453125,1.005615234375,-0.126220703125,-1.0681151151657104,0.03051757626235485,0.5493163466453552,100.0,32087.0,1.0
15:30:41.349011,181584.328125,176861.3125,173077.609375,208038.328125,172933.046875,163569.09375,684493.25,164432.140625,-0.0634765625,1.00390625,-0.125,-1.0986326932907104,0.0610351525247097,0.6408690810203552,100.0,32088.0,1.0
15:30:41.349015,181593.890625,176880.984375,173090.75,207967.875,172941.359375,163588.21875,684431.5625,164422.921875,-0.06298828125,1.00341796875,-0.123291015625,-1.0681151151657104,0.0915527269244194,0.6103515028953552,100.0,32089.0,1.0
15:30:41.353274,181591.296875,176879.46875,173090.046875,207923.171875,172942.078125,163585.453125,684460.0,164428.734375,-0.06494140625,1.00439453125,-0.123291015625,-1.0986326932907104,0.0915527269244194,0.6408690810203552,100.0,32090.0,1.0
15:30:41.361437,181577.890625,176852.375,173071.890625,208051.484375,172933.125,163557.640625,684426.875,164434.453125,-0.063720703125,1.00390625,-0.124755859375,-0.9765624403953552,0.0610351525247097,0.6408690810203552,100.0,32091.0,1.0
15:30:41.361456,181582.0,176858.28125,173074.296875,208036.640625,172933.046875,163567.75,684481.0,164429.984375,-0.0615234375,1.005859375,-0.127197265625,-0.9460448622703552,0.03051757626235485,0.6408690810203552,100.0,32092.0,1.0
15:30:41.366802,181592.015625,176875.625,173087.171875,207995.328125,172941.359375,163587.59375,684418.5625,164427.390625,-0.062255859375,1.0078125,-0.12451171875,-0.8544921278953552,0.0610351525247097,0.6103515028953552,100.0,32093.0,1.0
15:30:41.366874,181588.625,176881.15625,173089.0625,207905.125,172944.65625,163591.984375,684486.5625,164425.25,-0.06298828125,1.00830078125,-0.12255859375,-0.9155272841453552,-0.03051757626235485,0.6103515028953552,100.0,32094.0,1.0
15:30:41.375865,181583.25,176859.265625,173077.34375,208051.203125,172942.421875,163566.5,684445.125,164443.40625,-0.063720703125,1.0087890625,-0.125,-0.9460448622703552,0.03051757626235485,0.5187987685203552,100.0,32095.0,1.0
15:30:41.381428,181583.609375,176859.53125,173076.265625,208042.984375,172940.46875,163569.265625,684503.9375,164438.9375,-0.062744140625,1.007080078125,-0.12060546875,-0.8850097060203552,0.0915527269244194,0.5798339247703552,100.0,32096.0,1.0
15:30:41.381500,181594.078125,176875.078125,173088.25,208016.96875,172947.53125,163587.15625,684444.875,164431.59375,-0.06396484375,1.003662109375,-0.124267578125,-1.0681151151657104,0.0610351525247097,0.6103515028953552,100.0,32097.0,1.0
15:30:41.385079,181592.015625,176883.046875,173091.921875,207905.5625,172948.234375,163594.578125,684457.625,164428.734375,-0.06396484375,1.001953125,-0.123046875,-1.1291502714157104,0.03051757626235485,0.6408690810203552,100.0,32098.0,1.0
15:30:41.385140,181581.734375,176857.203125,173076.1875,208033.5,172939.484375,163564.265625,684430.625,164441.875,-0.060791015625,1.001220703125,-0.122314453125,-0.9765624403953552,0.0,0.8239745497703552,100.0,32099.0,1.0
15:30:41.392366,181575.296875,176850.40625,173067.78125,208039.671875,172930.8125,163558.453125,684486.375,164432.21875,-0.06005859375,1.002197265625,-0.122314453125,-1.0375975370407104,0.1220703050494194,0.8544921278953552,100.0,32100.0,1.0
15:30:41.400179,181583.25,176863.546875,173075.46875,208018.3125,172933.75,163574.359375,684458.8125,164421.046875,-0.058837890625,1.0029296875,-0.124267578125,-0.9765624403953552,0.2746581733226776,0.8544921278953552,100.0,32101.0,1.0
15:30:41.400209,181584.953125,176878.65625,173083.6875,207897.078125,172937.59375,163589.75,684443.0625,164414.515625,-0.05615234375,1.004638671875,-0.124267578125,-1.0375975370407104,0.2441406100988388,0.9155272841453552,100.0,32102.0,1.0
15:30:41.402012,181578.78125,176860.78125,173073.328125,208002.03125,172934.375,163568.015625,684435.5,164430.96875,-0.058349609375,1.0048828125,-0.1240234375,-1.0986326932907104,0.2746581733226776,0.9765624403953552,100.0,32103.0,1.0
15:30:41.405733,181576.46875,176854.4375,173068.765625,208047.0,172931.609375,163562.5625,684471.25,164432.5,-0.056640625,1.003662109375,-0.12548828125,-1.0375975370407104,0.3356933295726776,0.9765624403953552,100.0,32104.0,1.0
15:30:41.411924,181587.453125,176868.46875,173078.859375,208033.328125,172936.625,163580.4375,684469.5625,164424.0,-0.058837890625,1.00341796875,-0.123779296875,-1.0375975370407104,0.4882812201976776,1.0070799589157104,100.0,32105.0,1.0
15:30:41.422683,181590.765625,176884.375,173088.609375,207918.984375,172940.1875,163595.90625,684440.875,164416.671875,-0.060302734375,1.00244140625,-0.120849609375,-1.0070799589157104,0.4577636420726776,1.0986326932907104,100.0,32106.0,1.0
15:30:41.422713,181587.09375,176869.546875,173081.640625,207979.421875,172939.484375,163578.203125,684442.8125,164433.484375,-0.05859375,1.002197265625,-0.122802734375,-0.9460448622703552,0.5798339247703552,1.1596678495407104,100.0,32107.0,1.0
15:30:41.425099,181577.359375,176852.46875,173068.3125,208054.515625,172930.984375,163561.046875,684447.9375,164434.640625,-0.06103515625,1.00244140625,-0.123779296875,-0.8850097060203552,0.5493163466453552,1.1901854276657104,100.0,32108.0,1.0
15:30:41.425110,181582.09375,176860.328125,173072.6875,208034.21875,172932.234375,163572.578125,684483.125,164424.984375,-0.060302734375,1.001953125,-0.12158203125,-0.7934569716453552,0.5187987685203552,1.1596678495407104,100.0,32109.0,1.0
15:30:41.434510,181589.96875,176879.734375,173086.28125,207942.84375,172939.921875,163592.6875,684431.75,164419.53125,-0.060546875,1.002197265625,-0.1201171875,-0.8544921278953552,0.5187987685203552,0.9765624403953552,100.0,32110.0,1.0
15:30:41.440179,181587.8125,176875.4375,173085.03125,207953.046875,172941.625,163585.625,684461.3125,164430.265625,-0.064208984375,1.001953125,-0.123291015625,-0.9155272841453552,0.4882812201976776,0.9155272841453552,100.0,32111.0,1.0
15:30:41.440209,181577.71875,176854.34375,173070.640625,208062.828125,172933.125,163563.28125,684443.875,164435.171875,-0.063232421875,1.001708984375,-0.12548828125,-1.0070799589157104,0.6408690810203552,0.9155272841453552,100.0,32112.0,1.0
15:30:41.448258,181588.171875,176867.21875,173079.765625,208044.765625,172939.484375,163578.828125,684498.0,164432.046875,-0.064208984375,1.000244140625,-0.1259765625,-1.0070799589157104,0.4577636420726776,0.7629393935203552,100.0,32113.0,1.0
15:30:41.451429,181598.71875,176889.296875,173095.21875,207976.015625,172950.65625,163601.015625,684435.3125,164426.234375,-0.06494140625,1.00146484375,-0.126220703125,-1.0375975370407104,0.4577636420726776,0.7629393935203552,100.0,32114.0,1.0
15:30:41.451505,181595.765625,176888.046875,173094.234375,207933.453125,172950.5625,163598.234375,684463.75,164433.203125,-0.064453125,1.001220703125,-0.125244140625,-0.9460448622703552,0.5187987685203552,0.6713866591453552,100.0,32115.0,1.0
15:30:41.458435,181584.953125,176861.9375,173078.859375,208070.875,172941.796875,163570.609375,684424.5,164447.6875,-0.0625,1.003173828125,-0.1259765625,-0.8850097060203552,0.3051757514476776,0.5187987685203552,100.0,32116.0,1.0
15:30:41.463880,181587.09375,176866.765625,173078.328125,208048.53125,172939.390625,163577.40625,684484.5625,164436.25,-0.06005859375,1.004150390625,-0.126220703125,-0.8239745497703552,0.2746581733226776,0.6408690810203552,100.0,32117.0,1.0
15:30:41.463962,181597.203125,176886.265625,173091.5625,207999.53125,172948.859375,163599.9375,684428.125,164426.140625,-0.058349609375,1.004150390625,-0.125244140625,-0.7934569716453552,0.3051757514476776,0.7324218153953552,100.0,32118.0,1.0
15:30:41.471448,181595.234375,176891.171875,173094.515625,207912.625,172950.296875,163605.75,684473.375,164428.015625,-0.058837890625,1.0048828125,-0.12158203125,-0.8850097060203552,0.3967284858226776,0.8544921278953552,100.0,32119.0,1.0
15:30:41.471477,181588.171875,176866.5,173081.453125,208057.296875,172944.21875,163578.203125,684434.25,164445.453125,-0.05908203125,1.005615234375,-0.122314453125,-0.8239745497703552,0.4272460639476776,0.9765624403953552,100.0,32120.0,1.0
15:30:41.478849,181583.34375,176861.3125,173075.015625,208042.53125,172937.15625,163575.703125,684500.1875,164435.0,-0.0595703125,1.00537109375,-0.123291015625,-0.8239745497703552,0.3356933295726776,0.9460448622703552,100.0,32121.0,1.0
15:30:41.478920,181591.65625,176875.0,173085.03125,208018.484375,172942.96875,163590.015625,684453.8125,164429.984375,-0.061767578125,1.0048828125,-0.124755859375,-0.8850097060203552,0.3356933295726776,1.0070799589157104,100.0,32122.0,1.0
15:30:41.484651,181593.625,176887.328125,173091.296875,207908.15625,172946.90625,163600.375,684445.75,164427.390625,-0.0595703125,1.00341796875,-0.12646484375,-1.0375975370407104,0.3356933295726776,1.1901854276657104,100.0,32123.0,1.0
15:30:41.489106,181583.703125,176861.9375,173075.5625,208036.453125,172939.390625,163572.21875,684415.625,164440.453125,-0.059326171875,1.004150390625,-0.123291015625,-1.0375975370407104,0.3967284858226776,1.1596678495407104,100.0,32124.0,1.0
15:30:41.489121,181580.84375,176859.4375,173073.046875,208053.0,172937.78125,163572.671875,684481.875,164440.984375,-0.061767578125,1.0048828125,-0.12451171875,-1.0375975370407104,0.3051757514476776,1.2207030057907104,100.0,32125.0,1.0
15:30:41.494442,181593.265625,176878.84375,173088.4375,208040.65625,172951.1875,163597.25,684442.75,164439.640625,-0.06103515625,1.005126953125,-0.1259765625,-1.0681151151657104,0.4577636420726776,1.1901854276657104,100.0,32126.0,1.0
15:30:41.501953,181587.71875,176887.0625,173090.578125,207912.71875,172949.9375,163606.90625,684460.3125,164428.109375,-0.060546875,1.00439453125,-0.123779296875,-1.0986326932907104,0.3967284858226776,1.2817381620407104,100.0,32127.0,1.0
15:30:41.505772,181580.9375,176861.3125,173073.859375,208013.5625,172937.953125,163575.34375,684457.1875,164437.5,-0.06201171875,1.004638671875,-0.123779296875,-1.0986326932907104,0.2136230319738388,1.1596678495407104,100.0,32128.0,1.0
15:30:41.505803,181575.03125,176848.171875,173063.3125,208058.546875,172929.28125,163561.140625,684470.25,164433.828125,-0.06201171875,1.006591796875,-0.125,-1.1901854276657104,0.3356933295726776,1.1291502714157104,100.0,32129.0,1.0
15:30:41.507823,181586.109375,176863.546875,173075.109375,208047.1875,172936.96875,163578.921875,684463.125,164429.984375,-0.060791015625,1.007568359375,-0.1220703125,-1.0986326932907104,0.3356933295726776,1.0375975370407104,100.0,32130.0,1.0
15:30:41.548255,181590.40625,176880.71875,173084.40625,207932.828125,172941.984375,163596.09375,684434.4375,164421.859375,-0.060546875,1.00732421875,-0.124755859375,-1.2512205839157104,0.2746581733226776,1.0681151151657104,100.0,32131.0,1.0
15:30:41.558275,181580.9375,176861.859375,173071.625,207985.5,172934.03125,163574.546875,684437.8125,164431.875,-0.059814453125,1.006103515625,-0.125732421875,-1.3427733182907104,0.1831054538488388,1.0070799589157104,100.0,32132.0,1.0
15:30:41.558355,181571.1875,176842.453125,173058.390625,208065.609375,172924.8125,163553.625,684444.625,164438.125,-0.060791015625,1.005615234375,-0.125244140625,-1.4343260526657104,0.3051757514476776,0.8544921278953552,100.0,32133.0,1.0
15:30:41.559622,181583.4375,176855.140625,173068.578125,208052.1875,172929.46875,163568.90625,684485.375,164432.578125,-0.059814453125,1.005859375,-0.125244140625,-1.4953612089157104,0.3356933295726776,0.8850097060203552,100.0,32134.0,1.0
15:30:41.562672,181591.921875,176872.84375,173083.15625,207964.578125,172938.859375,163588.765625,684428.0,164426.953125,-0.0595703125,1.005126953125,-0.1240234375,-1.5258787870407104,0.2136230319738388,0.7324218153953552,100.0,32135.0,1.0
15:30:41.564635,181583.25,176861.140625,173076.625,207963.6875,172936.53125,163576.15625,684451.1875,164435.0,-0.05810546875,1.00390625,-0.123046875,-1.5869139432907104,0.1525878757238388,0.6103515028953552,100.0,32136.0,1.0
15:30:41.569573,181570.5625,176837.0,173060.453125,208067.65625,172927.9375,163552.546875,684433.4375,164439.828125,-0.05908203125,1.006103515625,-0.125732421875,-1.6479490995407104,0.2441406100988388,0.6408690810203552,100.0,32137.0,1.0
15:30:41.572233,181578.96875,176848.625,173070.109375,208053.984375,172933.9375,163567.84375,684492.0625,164437.765625,-0.057373046875,1.003662109375,-0.125,-1.5869139432907104,0.3051757514476776,0.5187987685203552,100.0,32138.0,1.0
15:30:41.574536,181587.28125,176866.5,173083.25,207984.25,172941.53125,163585.8125,684427.625,164427.3125,-0.056884765625,1.00146484375,-0.124755859375,-1.6174315214157104,0.3051757514476776,0.4882812201976776,100.0,32139.0,1.0
15:30:41.577278,181584.78125,176865.25,173082.890625,207937.3125,172941.984375,163581.78125,684472.75,164431.875,-0.057373046875,1.000732421875,-0.12548828125,-1.6174315214157104,0.3051757514476776,0.5493163466453552,100.0,32140.0,1.0
15:30:41.579505,181576.90625,176844.59375,173069.46875,208071.328125,172936.890625,163559.4375,684431.5625,164443.84375,-0.057861328125,1.00146484375,-0.12451171875,-1.5869139432907104,0.3051757514476776,0.4272460639476776,100.0,32141.0,1.0
15:30:41.583274,181582.359375,176853.171875,173075.109375,208056.21875,172939.84375,163570.609375,684490.8125,164441.171875,-0.0576171875,1.001220703125,-0.126220703125,-1.6174315214157104,0.2441406100988388,0.3967284858226776,100.0,32142.0,1.0
15:30:41.584738,181593.0,176872.3125,173088.609375,208014.546875,172948.328125,163590.90625,684429.3125,164435.0,-0.056396484375,1.00048828125,-0.124755859375,-1.6174315214157104,0.3662109076976776,0.3356933295726776,100.0,32143.0,1.0
15:30:41.587052,181585.21875,176872.046875,173085.390625,207921.75,172944.75,163590.453125,684458.9375,164429.8125,-0.057373046875,1.002685546875,-0.123291015625,-1.5563963651657104,0.3051757514476776,0.3051757514476776,100.0,32144.0,1.0
15:30:41.590155,181572.703125,176843.96875,173065.625,208058.546875,172934.03125,163559.875,684422.0,164438.578125,-0.058837890625,1.0,-0.12451171875,-1.5563963651657104,0.3662109076976776,0.2746581733226776,100.0,32145.0,1.0
15:30:41.590210,181573.0625,176844.6875,173065.0,208051.75,172930.984375,163563.015625,684498.8125,164433.203125,-0.060546875,1.000244140625,-0.12353515625,-1.4953612089157104,0.2746581733226776,0.4272460639476776,100.0,32146.0,1.0
15:30:41.592064,181582.546875,176859.796875,173074.9375,208028.765625,172936.625,163579.8125,684446.9375,164424.625,-0.06103515625,1.001220703125,-0.125732421875,-1.4343260526657104,0.2136230319738388,0.3051757514476776,100.0,32147.0,1.0
15:30:41.594889,181579.953125,176868.46875,173077.875,207913.609375,172937.328125,163587.59375,684451.3125,164419.265625,-0.062744140625,1.00048828125,-0.123779296875,-1.4343260526657104,0.2136230319738388,0.2746581733226776,100.0,32148.0,1.0
15:30:41.597574,181572.4375,176844.6875,173064.640625,208040.5625,172932.234375,163561.578125,684414.8125,164434.8125,-0.0625,1.001953125,-0.12255859375,-1.4038084745407104,0.1525878757238388,0.2441406100988388,100.0,32149.0,1.0
15:30:41.597592,181573.15625,176843.25,173064.734375,208059.4375,172931.796875,163561.84375,684471.0,164435.984375,-0.062255859375,1.001220703125,-0.125,-1.3732908964157104,0.1220703050494194,0.3356933295726776,100.0,32150.0,1.0
15:30:41.599689,181588.890625,176862.125,173080.828125,208053.796875,172943.765625,163582.953125,684444.5,164437.59375,-0.0625,1.0009765625,-0.1259765625,-1.3122557401657104,0.0915527269244194,0.2441406100988388,100.0,32151.0,1.0
15:30:41.602935,181584.953125,176871.78125,173084.046875,207921.84375,172943.328125,163594.03125,684447.8125,164423.546875,-0.06396484375,1.001220703125,-0.1240234375,-1.2817381620407104,0.0,0.3051757514476776,100.0,32152.0,1.0
15:30:41.603003,181575.5625,176849.96875,173070.109375,208016.609375,172936.078125,163568.203125,684447.1875,164435.171875,-0.06494140625,1.000732421875,-0.123046875,-1.2512205839157104,-0.0610351525247097,0.3356933295726776,100.0,32153.0,1.0
15:30:41.608657,181564.921875,176834.140625,173056.875,208060.234375,172925.078125,163552.015625,684470.0,164433.125,-0.064453125,1.001220703125,-0.125732421875,-1.2207030057907104,-0.0610351525247097,0.2746581733226776,100.0,32154.0,1.0
15:30:41.625026,181582.8125,176852.546875,173073.859375,208056.9375,172937.25,163574.0,684475.25,164435.0,-0.06396484375,1.00146484375,-0.124267578125,-1.2512205839157104,-0.0915527269244194,0.3356933295726776,100.0,32155.0,1.0
15:30:41.625044,181591.03125,176873.203125,173087.796875,207942.671875,172946.09375,163595.375,684435.375,164424.984375,-0.064208984375,1.003173828125,-0.126220703125,-1.2817381620407104,-0.1831054538488388,0.3051757514476776,100.0,32156.0,1.0
15:30:41.632478,181584.6875,176858.359375,173079.9375,207998.28125,172943.953125,163577.765625,684456.5625,164437.5,-0.063720703125,1.002685546875,-0.127197265625,-1.2512205839157104,-0.3051757514476776,0.4272460639476776,100.0,32157.0,1.0
15:30:41.632495,181572.609375,176837.4375,173065.359375,208076.0625,172932.765625,163557.46875,684458.1875,164438.75,-0.064208984375,1.00341796875,-0.123291015625,-1.1901854276657104,-0.3662109076976776,0.3356933295726776,100.0,32158.0,1.0
15:30:41.632499,181580.9375,176848.078125,173071.265625,208062.828125,172934.65625,163569.984375,684491.875,164431.515625,-0.064208984375,1.00390625,-0.12451171875,-1.2207030057907104,-0.3967284858226776,0.4272460639476776,100.0,32159.0,1.0
15:30:41.632501,181586.296875,176864.890625,173082.4375,207971.453125,172940.1875,163587.859375,684440.6875,164423.546875,-0.064697265625,1.003173828125,-0.124267578125,-1.1901854276657104,-0.3967284858226776,0.5187987685203552,100.0,32160.0,1.0
15:30:41.635068,181576.375,176852.640625,173073.5,207965.828125,172934.921875,163573.921875,684473.375,164427.484375,-0.064697265625,1.00390625,-0.1240234375,-1.2207030057907104,-0.5493163466453552,0.5493163466453552,100.0,32161.0,1.0
15:30:41.635087,181565.375,176830.5625,173058.296875,208075.171875,172927.234375,163550.21875,684438.9375,164434.90625,-0.064697265625,1.00244140625,-0.122802734375,-1.1901854276657104,-0.6103515028953552,0.6103515028953552,100.0,32162.0,1.0
15:30:41.646945,181574.40625,176841.5625,173065.453125,208056.84375,172931.34375,163563.640625,684486.0625,164429.625,-0.064697265625,1.0029296875,-0.123291015625,-1.1596678495407104,-0.7324218153953552,0.7019042372703552,100.0,32163.0,1.0
15:30:41.651418,181584.953125,176860.0625,173079.046875,207990.6875,172939.5625,163582.5,684416.4375,164423.109375,-0.0625,1.00439453125,-0.124267578125,-1.1901854276657104,-0.8544921278953552,0.6408690810203552,100.0,32164.0,1.0
15:30:41.651448,181583.53125,176858.984375,173079.21875,207948.125,172941.796875,163581.15625,684453.125,164429.09375,-0.063232421875,1.002197265625,-0.124755859375,-1.0986326932907104,-0.7324218153953552,0.7324218153953552,100.0,32165.0,1.0
15:30:41.657571,181572.703125,176833.953125,173062.59375,208081.34375,172933.578125,163554.25,684420.75,164440.09375,-0.0625,1.00244140625,-0.125,-1.1291502714157104,-0.7934569716453552,0.7324218153953552,100.0,32166.0,1.0
15:30:41.657588,181578.078125,176842.0,173067.234375,208067.296875,172935.09375,163565.96875,684487.0,164436.78125,-0.0625,1.001953125,-0.123046875,-1.0986326932907104,-0.8239745497703552,0.6408690810203552,100.0,32167.0,1.0
15:30:41.659469,181586.5625,176860.515625,173079.3125,208018.3125,172942.515625,163587.328125,684425.0,164426.140625,-0.059814453125,1.000244140625,-0.12451171875,-1.0986326932907104,-0.7934569716453552,0.5798339247703552,100.0,32168.0,1.0
15:30:41.687014,181585.84375,176865.703125,173082.625,207938.5625,172945.921875,163591.703125,684462.1875,164431.0625,-0.060546875,1.000732421875,-0.1259765625,-1.0986326932907104,-0.8544921278953552,0.7019042372703552,100.0,32169.0,1.0
15:30:41.690661,181570.828125,176836.90625,173061.703125,208068.90625,172935.453125,163559.875,684415.0,164436.96875,-0.06005859375,1.001953125,-0.124755859375,-1.1291502714157104,-0.9765624403953552,0.7019042372703552,100.0,32170.0,1.0
15:30:41.690677,181571.359375,176838.875,173061.609375,208059.96875,172933.40625,163564.984375,684490.375,164435.171875,-0.0595703125,1.003173828125,-0.127685546875,-1.1291502714157104,-0.9765624403953552,0.7324218153953552,100.0,32171.0,1.0
15:30:41.690683,181586.5625,176858.1875,173077.25,208039.671875,172942.34375,163585.09375,684442.75,164429.984375,-0.059326171875,1.00390625,-0.127197265625,-1.0681151151657104,-0.9460448622703552,0.7019042372703552,100.0,32172.0,1.0
15:30:41.694388,181588.171875,176870.875,173085.21875,207929.34375,172945.640625,163597.4375,684448.8125,164426.140625,-0.05859375,1.0048828125,-0.127197265625,-1.0986326932907104,-0.8544921278953552,0.7629393935203552,100.0,32173.0,1.0
15:30:41.694410,181579.59375,176848.53125,173070.453125,208053.09375,172938.9375,163572.75,684413.375,164437.671875,-0.060791015625,1.005615234375,-0.125244140625,-1.0681151151657104,-0.9155272841453552,0.6713866591453552,100.0,32174.0,1.0
15:30:41.694417,181578.34375,176845.84375,173068.40625,208070.078125,172937.25,163571.765625,684471.3125,164437.234375,-0.058349609375,1.0048828125,-0.12646484375,-1.1596678495407104,-0.8239745497703552,0.6408690810203552,100.0,32175.0,1.0
15:30:41.702536,181595.234375,176864.0,173085.03125,208063.1875,172949.484375,163592.515625,684442.125,164437.140625,-0.057861328125,1.006103515625,-0.126708984375,-1.0986326932907104,-0.7629393935203552,0.7019042372703552,100.0,32176.0,1.0
15:30:41.702551,181595.234375,176875.984375,173091.375,207941.0625,172952.796875,163604.140625,684433.8125,164430.265625,-0.05712890625,1.005615234375,-0.121826171875,-1.2207030057907104,-0.7934569716453552,0.7324218153953552,100.0,32177.0,1.0
15:30:41.704511,181587.640625,176856.046875,173079.40625,208040.296875,172948.234375,163581.078125,684421.25,164445.71875,-0.056884765625,1.0048828125,-0.121337890625,-1.3122557401657104,-0.8239745497703552,0.7324218153953552,100.0,32178.0,1.0
15:30:41.706916,181579.765625,176843.34375,173069.921875,208085.0,172939.5625,163569.890625,684456.75,164444.65625,-0.05712890625,1.00537109375,-0.125732421875,-1.4038084745407104,-0.6408690810203552,0.7019042372703552,100.0,32179.0,1.0
15:30:41.712000,181589.78125,176856.484375,173078.59375,208071.765625,172943.5,163585.984375,684470.0,164435.359375,-0.05859375,1.0048828125,-0.124267578125,-1.3427733182907104,-0.5493163466453552,0.6713866591453552,100.0,32180.0,1.0
15:30:41.714568,181594.34375,176873.921875,173089.40625,207957.78125,172950.75,163605.203125,684429.5625,164427.9375,-0.058837890625,1.003173828125,-0.12255859375,-1.3427733182907104,-0.4577636420726776,0.7019042372703552,100.0,32181.0,1.0
15:30:41.718229,181584.5,176856.671875,173077.703125,208008.296875,172946.453125,163587.328125,684440.25,164438.75,-0.05859375,1.004638671875,-0.125,-1.3732908964157104,-0.5187987685203552,0.6408690810203552,100.0,32182.0,1.0
15:30:41.728971,181571.546875,176836.640625,173061.78125,208083.21875,172934.203125,163566.40625,684443.5,164438.3125,-0.05712890625,1.00341796875,-0.125,-1.4343260526657104,-0.4577636420726776,0.6408690810203552,100.0,32183.0,1.0
15:30:41.729012,181576.8125,176845.046875,173066.171875,208060.234375,172935.09375,163577.671875,684477.5,164427.9375,-0.056396484375,1.004638671875,-0.123779296875,-1.4343260526657104,-0.4882812201976776,0.6713866591453552,100.0,32184.0,1.0
15:30:41.731415,181583.25,176862.484375,173078.859375,207969.578125,172942.609375,163596.984375,684426.125,164422.84375,-0.058837890625,1.00341796875,-0.1259765625,-1.4953612089157104,-0.4577636420726776,0.7019042372703552,100.0,32185.0,1.0
15:30:41.731427,181576.109375,176852.203125,173072.78125,207971.375,172939.5625,163584.640625,684449.25,164429.8125,-0.059814453125,1.00439453125,-0.126953125,-1.4953612089157104,-0.4577636420726776,0.6713866591453552,100.0,32186.0,1.0
15:30:41.740723,181565.015625,176829.21875,173055.53125,208079.375,172929.640625,163559.609375,684433.3125,164433.5625,-0.0595703125,1.003662109375,-0.12548828125,-1.6479490995407104,-0.4272460639476776,0.6713866591453552,100.0,32187.0,1.0
15:30:41.743782,181577.09375,176842.1875,173066.34375,208066.40625,172936.625,163574.8125,684495.75,164433.921875,-0.058349609375,1.00390625,-0.124267578125,-1.6479490995407104,-0.4882812201976776,0.6408690810203552,100.0,32188.0,1.0
15:30:41.743795,181589.0625,176865.15625,173082.625,208001.5,172947.796875,163596.8125,684432.6875,164429.71875,-0.05908203125,1.004638671875,-0.123046875,-1.5869139432907104,-0.3356933295726776,0.7629393935203552,100.0,32189.0,1.0
15:30:41.746930,181583.53125,176862.390625,173079.40625,207954.296875,172946.71875,163591.890625,684459.6875,164435.171875,-0.06005859375,1.00537109375,-0.123291015625,-1.6174315214157104,-0.3051757514476776,0.7019042372703552,100.0,32190.0,1.0
15:30:41.762639,181567.875,176831.625,173058.296875,208082.0625,172932.6875,163560.234375,684432.4375,164442.0625,-0.0576171875,1.005615234375,-0.1220703125,-1.6784666776657104,-0.3356933295726776,0.7324218153953552,100.0,32191.0,1.0
15:30:41.762712,181569.671875,176834.671875,173058.75,208062.125,172929.90625,163566.40625,684495.9375,164432.046875,-0.06103515625,1.005126953125,-0.125732421875,-1.6784666776657104,-0.2746581733226776,0.7934569716453552,100.0,32192.0,1.0
15:30:41.764764,181580.75,176854.25,173070.453125,208020.8125,172938.234375,163585.453125,684434.6875,164423.28125,-0.061767578125,1.0048828125,-0.125,-1.8005369901657104,-0.2746581733226776,0.8850097060203552,100.0,32193.0,1.0
15:30:41.766939,181577.796875,176857.203125,173070.28125,207931.140625,172936.078125,163584.921875,684453.1875,164422.484375,-0.0615234375,1.00537109375,-0.12548828125,-1.8005369901657104,-0.3662109076976776,0.8850097060203552,100.0,32194.0,1.0
15:30:41.770745,181564.390625,176828.0625,173049.890625,208063.8125,172924.09375,163551.5625,684416.625,164431.421875,-0.05908203125,1.005859375,-0.126708984375,-1.7700194120407104,-0.3662109076976776,0.9155272841453552,100.0,32195.0,1.0
15:30:41.777817,181567.4375,176831.71875,173052.40625,208062.03125,172925.359375,163558.890625,684483.9375,164430.4375,-0.059814453125,1.0048828125,-0.124267578125,-1.8310545682907104,-0.2441406100988388,0.7934569716453552,100.0,32196.0,1.0
15:30:41.777944,181581.828125,176850.671875,173067.953125,208041.203125,172936.078125,163580.796875,684429.9375,164427.21875,-0.0595703125,1.004638671875,-0.12353515625,-1.8920897245407104,-0.1831054538488388,0.9155272841453552,100.0,32197.0,1.0
15:30:41.783201,181579.6875,176860.0625,173071.890625,207926.3125,172937.421875,163590.453125,684457.625,164419.703125,-0.060546875,1.00439453125,-0.123291015625,-1.8310545682907104,-0.3051757514476776,1.0986326932907104,100.0,32198.0,1.0
15:30:41.790153,181569.125,176835.921875,173056.25,208055.5,172929.828125,163563.453125,684427.25,164434.640625,-0.06005859375,1.005126953125,-0.121826171875,-1.8920897245407104,-0.3356933295726776,0.9765624403953552,100.0,32199.0,1.0
15:30:41.790162,181560.453125,176827.609375,173045.0625,208062.921875,172919.09375,163555.40625,684471.0625,164424.265625,-0.05810546875,1.003173828125,-0.12158203125,-1.8005369901657104,-0.3662109076976776,1.0681151151657104,100.0,32200.0,1.0
15:30:41.800026,181574.140625,176844.6875,173058.390625,208050.046875,172926.96875,163575.265625,684443.875,164419.265625,-0.05908203125,1.001220703125,-0.124755859375,-1.8005369901657104,-0.3967284858226776,1.0070799589157104,100.0,32201.0,1.0
15:30:41.800036,181579.953125,176862.921875,173071.359375,207933.1875,172935.71875,163593.859375,684433.0625,164418.1875,-0.060302734375,1.00048828125,-0.123046875,-1.7700194120407104,-0.3356933295726776,1.0375975370407104,100.0,32202.0,1.0
15:30:41.802040,181573.59375,176845.140625,173060.890625,208031.265625,172933.125,163573.203125,684432.6875,164431.328125,-0.058349609375,1.0009765625,-0.12548828125,-1.7700194120407104,-0.3662109076976776,1.0070799589157104,100.0,32203.0,1.0
15:30:41.808221,181564.921875,176831.359375,173051.140625,208076.515625,172925.796875,163561.484375,684458.1875,164430.703125,-0.060302734375,1.000244140625,-0.125,-1.5869139432907104,-0.3051757514476776,1.0986326932907104,100.0,32204.0,1.0
15:30:41.815035,181573.875,176843.34375,173059.734375,208062.203125,172930.359375,163576.515625,684470.6875,164421.765625,-0.05908203125,1.00048828125,-0.123046875,-1.6174315214157104,-0.3662109076976776,1.0986326932907104,100.0,32205.0,1.0
15:30:41.815056,181577.625,176860.6875,173070.546875,207950.53125,172936.890625,163594.125,684430.625,164415.6875,-0.0595703125,1.001953125,-0.1240234375,-1.6784666776657104,-0.3967284858226776,1.0681151151657104,100.0,32206.0,1.0
15:30:41.823845,181567.875,176842.1875,173058.921875,207998.734375,172930.0,163572.21875,684442.25,164423.90625,-0.059814453125,1.001220703125,-0.122314453125,-1.6174315214157104,-0.3967284858226776,1.1901854276657104,100.0,32207.0,1.0
15:30:41.823869,181557.5,176822.953125,173044.625,208076.25,172920.53125,163553.625,684451.8125,164426.328125,-0.059326171875,1.0009765625,-0.125,-1.5563963651657104,-0.5187987685203552,1.0986326932907104,100.0,32208.0,1.0
15:30:41.825709,181567.078125,176834.21875,173053.109375,208061.484375,172925.078125,163569.71875,684487.3125,164423.015625,-0.058349609375,0.999755859375,-0.1259765625,-1.4648436307907104,-0.4882812201976776,1.0070799589157104,100.0,32209.0,1.0
15:30:41.833264,181573.328125,176851.21875,173064.203125,207970.203125,172930.453125,163587.328125,684427.4375,164415.234375,-0.059326171875,1.000732421875,-0.12548828125,-1.4953612089157104,-0.5798339247703552,0.9765624403953552,100.0,32210.0,1.0
15:30:41.843866,181567.609375,176842.0,173057.40625,207970.125,172926.78125,163575.796875,684453.25,164423.546875,-0.060302734375,1.0,-0.121826171875,-1.4953612089157104,-0.5187987685203552,0.9460448622703552,100.0,32211.0,1.0
15:30:41.843943,181557.328125,176820.015625,173042.03125,208074.984375,172917.65625,163552.28125,684426.875,164425.4375,-0.059326171875,1.0009765625,-0.11962890625,-1.5563963651657104,-0.6103515028953552,0.8239745497703552,100.0,32212.0,1.0
15:30:41.846361,181565.46875,176831.28125,173049.265625,208058.0,172922.140625,163566.5,684480.25,164419.796875,-0.059326171875,1.00146484375,-0.121826171875,-1.5258787870407104,-0.6408690810203552,0.8544921278953552,100.0,32213.0,1.0
15:30:41.846373,181572.609375,176846.921875,173059.640625,207990.140625,172926.421875,163581.703125,684419.1875,164412.828125,-0.05859375,1.0,-0.12451171875,-1.5563963651657104,-0.6408690810203552,0.8239745497703552,100.0,32214.0,1.0
15:30:41.852005,181569.484375,176845.21875,173059.015625,207944.453125,172925.984375,163578.65625,684472.5,164418.1875,-0.057861328125,0.9990234375,-0.125244140625,-1.4343260526657104,-0.6408690810203552,0.6103515028953552,100.0,32215.0,1.0
15:30:41.860040,181557.0625,176821.0,173042.390625,208071.5,172917.390625,163552.640625,684416.0625,164424.359375,-0.057861328125,0.998779296875,-0.12646484375,-1.3427733182907104,-0.5798339247703552,0.6713866591453552,100.0,32216.0,1.0
15:30:41.860051,181562.421875,176828.765625,173046.59375,208054.875,172918.921875,163563.015625,684481.875,164419.34375,-0.056884765625,1.00048828125,-0.125,-1.2512205839157104,-0.7324218153953552,0.5493163466453552,100.0,32217.0,1.0
15:30:41.874198,181573.78125,176846.65625,173059.46875,208015.453125,172926.328125,163581.96875,684421.25,164412.28125,-0.056640625,1.002685546875,-0.12646484375,-1.1596678495407104,-0.6713866591453552,0.6103515028953552,100.0,32218.0,1.0
15:30:41.874281,181571.984375,176850.9375,173062.765625,207929.265625,172929.46875,163586.96875,684467.0625,164413.984375,-0.056396484375,1.0009765625,-0.12353515625,-1.1901854276657104,-0.7324218153953552,0.5187987685203552,100.0,32219.0,1.0
15:30:41.874311,181561.796875,176826.171875,173050.4375,208072.21875,172926.6875,163560.78125,684439.875,164432.84375,-0.056640625,1.000244140625,-0.123291015625,-1.1901854276657104,-0.7324218153953552,0.4577636420726776,100.0,32220.0,1.0
15:30:41.900246,181564.03125,176832.796875,173054.1875,208071.59375,172930.625,163569.984375,684495.625,164434.453125,-0.055908203125,0.9990234375,-0.124267578125,-1.0986326932907104,-0.7324218153953552,0.4577636420726776,100.0,32221.0,1.0
15:30:41.900683,181583.25,176857.203125,173068.140625,208049.25,172937.6875,163593.046875,684437.0625,164424.984375,-0.0595703125,0.999755859375,-0.125244140625,-1.0681151151657104,-0.7629393935203552,0.4577636420726776,100.0,32222.0,1.0
15:30:41.929007,181589.6875,176872.9375,173075.015625,207936.765625,172938.671875,163605.5625,684452.8125,164418.015625,-0.059814453125,1.001708984375,-0.12255859375,-1.0070799589157104,-0.7324218153953552,0.3051757514476776,100.0,32223.0,1.0
15:30:41.929102,181579.234375,176848.984375,173061.25,208063.546875,172933.9375,163581.078125,684428.4375,164434.109375,-0.060791015625,1.000244140625,-0.122802734375,-1.0375975370407104,-0.7019042372703552,0.1525878757238388,100.0,32224.0,1.0
15:30:41.933917,181573.875,176844.0625,173056.328125,208077.671875,172929.375,163578.03125,684492.875,164431.15625,-0.0615234375,1.001708984375,-0.123046875,-1.0986326932907104,-0.7324218153953552,0.2136230319738388,100.0,32225.0,1.0
15:30:41.933954,181586.5625,176859.890625,173068.765625,208064.265625,172936.53125,163594.578125,684478.9375,164425.96875,-0.060302734375,1.003173828125,-0.12353515625,-1.0375975370407104,-0.7934569716453552,0.0915527269244194,100.0,32226.0,1.0
15:30:41.935784,181585.21875,176871.15625,173073.671875,207935.609375,172937.421875,163606.640625,684442.625,164414.609375,-0.058349609375,1.0029296875,-0.1220703125,-0.9765624403953552,-0.8239745497703552,0.0610351525247097,100.0,32227.0,1.0
15:30:41.938271,181571.359375,176845.578125,173055.625,208022.234375,172927.046875,163578.03125,684440.375,164419.34375,-0.06005859375,1.00439453125,-0.12353515625,-0.8850097060203552,-0.8544921278953552,-0.0610351525247097,100.0,32228.0,1.0
15:30:41.940814,181563.140625,176831.453125,173045.25,208070.34375,172919.1875,163565.25,684459.0,164421.765625,-0.0595703125,1.00341796875,-0.121826171875,-1.0375975370407104,-0.9460448622703552,0.1220703050494194,100.0,32229.0,1.0
15:30:41.943281,181575.296875,176846.46875,173056.15625,208063.546875,172926.515625,163583.125,684453.5625,164419.796875,-0.060546875,1.003662109375,-0.12060546875,-1.0070799589157104,-0.9155272841453552,0.0915527269244194,100.0,32230.0,1.0
15:30:41.945766,181571.8125,176856.21875,173059.640625,207937.9375,172924.8125,163594.578125,684437.1875,164401.46875,-0.062255859375,1.003173828125,-0.121826171875,-1.0375975370407104,-1.0070799589157104,0.0915527269244194,100.0,32231.0,1.0
15:30:41.948351,181570.65625,176847.453125,173056.15625,207992.734375,172925.984375,163581.609375,684454.375,164418.015625,-0.062744140625,1.0029296875,-0.12109375,-0.9765624403953552,-0.9765624403953552,-0.0915527269244194,100.0,32232.0,1.0
15:30:41.950774,181560.375,176828.6875,173041.9375,208069.984375,172916.5,163562.828125,684440.25,164418.359375,-0.0625,1.003173828125,-0.123291015625,-0.8850097060203552,-0.9460448622703552,-0.03051757626235485,100.0,32233.0,1.0
15:30:41.953171,181572.890625,176844.6875,173054.28125,208060.15625,172924.546875,163581.515625,684476.9375,164419.4375,-0.062255859375,1.00439453125,-0.127197265625,-0.9460448622703552,-1.0681151151657104,0.0610351525247097,100.0,32234.0,1.0
15:30:41.955703,181578.34375,176863.546875,173065.359375,207962.515625,172931.703125,163600.375,684426.375,164408.796875,-0.06396484375,1.00537109375,-0.125732421875,-0.9765624403953552,-1.0986326932907104,0.0915527269244194,100.0,32235.0,1.0
15:30:41.958187,181573.953125,176855.6875,173062.0625,207964.75,172932.140625,163589.5625,684456.875,164421.671875,-0.064697265625,1.00634765625,-0.123291015625,-0.9155272841453552,-1.1596678495407104,0.0,100.0,32236.0,1.0
15:30:41.960806,181566.890625,176834.3125,173049.890625,208079.8125,172925.984375,163567.296875,684441.1875,164430.265625,-0.06396484375,1.0068359375,-0.122802734375,-0.9765624403953552,-1.3427733182907104,0.0,100.0,32237.0,1.0
15:30:41.964007,181573.953125,176840.84375,173055.0,208059.703125,172926.78125,163580.265625,684498.0,164421.765625,-0.064208984375,1.00537109375,-0.12451171875,-0.9460448622703552,-1.2512205839157104,0.0,100.0,32238.0,1.0
15:30:41.964049,181582.09375,176858.453125,173066.34375,207994.25,172932.0625,163599.671875,684434.4375,164413.625,-0.061767578125,1.004638671875,-0.125,-0.9460448622703552,-1.3122557401657104,0.1220703050494194,100.0,32239.0,1.0
15:30:41.966331,181575.921875,176855.328125,173062.40625,207944.546875,172929.90625,163595.375,684464.375,164418.1875,-0.062255859375,1.00341796875,-0.125,-1.0070799589157104,-1.3732908964157104,-0.03051757626235485,100.0,32240.0,1.0
15:30:41.966344,181560.8125,176826.984375,173042.5625,208071.765625,172918.109375,163564.890625,684440.0625,164425.609375,-0.0615234375,1.002197265625,-0.124267578125,-1.0375975370407104,-1.2817381620407104,0.03051757626235485,100.0,32241.0,1.0
15:30:41.968206,181563.765625,176831.453125,173044.796875,208055.140625,172917.125,163571.765625,684502.375,164420.0625,-0.06103515625,1.00244140625,-0.12353515625,-1.0681151151657104,-1.4038084745407104,0.0915527269244194,100.0,32242.0,1.0
15:30:41.970712,181573.59375,176848.078125,173057.140625,208015.53125,172923.203125,163589.5625,684440.125,164413.09375,-0.0625,1.00146484375,-0.12744140625,-1.0375975370407104,-1.4038084745407104,0.0,100.0,32243.0,1.0
15:30:41.973258,181571.28125,176852.109375,173059.015625,207925.234375,172924.453125,163594.484375,684476.4375,164413.625,-0.063720703125,1.003173828125,-0.12353515625,-1.0986326932907104,-1.4343260526657104,0.0915527269244194,100.0,32244.0,1.0
15:30:41.976458,181560.1875,176826.53125,173042.390625,208061.140625,172916.5,163564.359375,684439.3125,164425.34375,-0.0615234375,1.00244140625,-0.123779296875,-1.0681151151657104,-1.3732908964157104,0.0915527269244194,100.0,32245.0,1.0
15:30:41.976488,181558.125,176825.734375,173038.1875,208050.578125,172911.21875,163564.359375,684497.625,164415.953125,-0.059814453125,1.000732421875,-0.12451171875,-1.0986326932907104,-1.3732908964157104,0.1220703050494194,100.0,32246.0,1.0
15:30:41.986369,181568.421875,176840.484375,173048.46875,208028.671875,172916.328125,163581.609375,684446.5,164407.640625,-0.058349609375,0.999267578125,-0.123779296875,-1.0681151151657104,-1.3732908964157104,0.0610351525247097,100.0,32247.0,1.0
15:30:41.986398,181573.421875,176855.140625,173059.640625,207924.4375,172923.921875,163596.53125,684451.6875,164411.484375,-0.056884765625,0.998779296875,-0.127685546875,-1.0070799589157104,-1.3122557401657104,0.0610351525247097,100.0,32248.0,1.0
15:30:41.991453,181562.328125,176828.859375,173043.453125,208046.921875,172916.328125,163566.3125,684413.75,164422.5625,-0.0576171875,0.998779296875,-0.127685546875,-0.8850097060203552,-1.4038084745407104,0.1525878757238388,100.0,32249.0,1.0
15:30:41.991479,181554.828125,176820.640625,173033.796875,208053.0,172907.5625,163559.609375,684471.0625,164410.140625,-0.056640625,0.99951171875,-0.1279296875,-0.9155272841453552,-1.2512205839157104,0.1831054538488388,100.0,32250.0,1.0
15:30:41.993258,181568.5,176839.234375,173047.125,208042.265625,172916.40625,163579.90625,684439.125,164407.1875,-0.057373046875,1.0009765625,-0.124755859375,-0.8850097060203552,-1.2207030057907104,0.2136230319738388,100.0,32251.0,1.0
15:30:42.000696,181571.640625,176856.9375,173057.765625,207922.46875,172922.40625,163596.8125,684438.625,164401.203125,-0.05859375,1.0029296875,-0.12353515625,-0.8850097060203552,-1.2817381620407104,0.3662109076976776,100.0,32252.0,1.0
15:30:42.007596,181565.546875,176837.796875,173048.203125,208019.109375,172920.796875,163575.703125,684456.875,164418.359375,-0.056884765625,1.0029296875,-0.12646484375,-0.9155272841453552,-1.1596678495407104,0.3356933295726776,100.0,32253.0,1.0
15:30:42.007612,181554.90625,176823.578125,173036.484375,208059.25,172911.40625,163563.015625,684473.9375,164413.625,-0.059814453125,1.001708984375,-0.126220703125,-0.9460448622703552,-1.3427733182907104,0.3356933295726776,100.0,32254.0,1.0
15:30:42.010094,181566.71875,176837.625,173047.578125,208050.765625,172918.109375,163579.546875,684479.625,164412.28125,-0.0615234375,1.001220703125,-0.12451171875,-0.9460448622703552,-1.2207030057907104,0.3662109076976776,100.0,32255.0,1.0
15:30:42.010125,181569.75,176855.234375,173057.046875,207936.765625,172923.46875,163597.25,684432.25,164402.984375,-0.061279296875,1.001220703125,-0.125732421875,-0.7934569716453552,-1.2207030057907104,0.4577636420726776,100.0,32256.0,1.0
15:30:42.022176,181561.078125,176838.25,173045.6875,207984.15625,172918.015625,163577.9375,684436.3125,164410.59375,-0.06298828125,1.0009765625,-0.128662109375,-0.7934569716453552,-1.1901854276657104,0.3356933295726776,100.0,32257.0,1.0
15:30:42.029854,181555.546875,176824.125,173036.65625,208069.0,172913.640625,163564.171875,684451.375,164417.296875,-0.061767578125,1.004150390625,-0.1298828125,-0.6103515028953552,-1.1901854276657104,0.3967284858226776,100.0,32258.0,1.0
15:30:42.029883,181570.203125,176840.125,173050.4375,208057.296875,172923.03125,163582.953125,684482.0,164417.296875,-0.060791015625,1.00439453125,-0.1259765625,-0.6103515028953552,-1.2207030057907104,0.4577636420726776,100.0,32259.0,1.0
15:30:42.033185,181576.8125,176858.28125,173063.3125,207966.8125,172930.625,163601.90625,684427.375,164409.78125,-0.0615234375,1.005615234375,-0.127197265625,-0.6103515028953552,-1.1901854276657104,0.4272460639476776,100.0,32260.0,1.0
15:30:42.038823,181570.921875,176851.125,173058.65625,207965.921875,172929.734375,163591.4375,684473.1875,164419.4375,-0.06201171875,1.004150390625,-0.126220703125,-0.6713866591453552,-1.3427733182907104,0.3967284858226776,100.0,32261.0,1.0
15:30:42.038842,181557.5,176825.46875,173039.875,208072.84375,172916.328125,163563.546875,684440.3125,164420.953125,-0.06201171875,1.004638671875,-0.12451171875,-0.6713866591453552,-1.3122557401657104,0.2441406100988388,100.0,32262.0,1.0
15:30:42.044452,181564.03125,176832.890625,173044.796875,208054.609375,172917.21875,163573.109375,684501.1875,164414.796875,-0.06201171875,1.002197265625,-0.1279296875,-0.6713866591453552,-1.3427733182907104,0.3356933295726776,100.0,32263.0,1.0
15:30:42.061355,181576.734375,176856.046875,173061.609375,207995.15625,172930.625,163596.984375,684440.6875,164411.65625,-0.0654296875,1.00244140625,-0.127197265625,-0.5798339247703552,-1.3427733182907104,0.0915527269244194,100.0,32264.0,1.0
15:30:42.061381,181571.546875,176855.140625,173059.640625,207944.28125,172931.15625,163593.859375,684455.3125,164415.6875,-0.066162109375,1.00439453125,-0.1240234375,-0.5798339247703552,-1.4038084745407104,0.0915527269244194,100.0,32265.0,1.0
15:30:42.061389,181564.921875,176833.953125,173048.203125,208082.953125,172927.140625,163570.875,684425.125,164432.21875,-0.066162109375,1.005615234375,-0.125,-0.6103515028953552,-1.4343260526657104,0.0,100.0,32266.0,1.0
15:30:42.061394,181571.1875,176840.65625,173054.640625,208073.109375,172930.1875,163581.515625,684496.375,164432.140625,-0.064208984375,1.0068359375,-0.125244140625,-0.6408690810203552,-1.4343260526657104,-0.03051757626235485,100.0,32267.0,1.0
15:30:42.061399,181579.859375,176857.5625,173066.078125,208026.984375,172936.4375,163600.921875,684435.5625,164421.40625,-0.065185546875,1.004638671875,-0.123291015625,-0.6713866591453552,-1.4648436307907104,-0.0915527269244194,100.0,32268.0,1.0
15:30:42.068269,181575.65625,176863.546875,173066.796875,207933.375,172936.265625,163607.359375,684479.1875,164419.265625,-0.064453125,1.006103515625,-0.123291015625,-0.7019042372703552,-1.4953612089157104,-0.03051757626235485,100.0,32269.0,1.0
15:30:42.072553,181569.84375,176842.8125,173054.453125,208074.984375,172932.234375,163582.40625,684439.3125,164434.546875,-0.064697265625,1.006591796875,-0.126708984375,-0.8239745497703552,-1.5258787870407104,-0.0610351525247097,100.0,32270.0,1.0
15:30:42.072578,181570.46875,176841.375,173053.390625,208072.3125,172928.390625,163583.390625,684495.0,164432.21875,-0.064453125,1.007080078125,-0.125,-0.7934569716453552,-1.6174315214157104,-0.0915527269244194,100.0,32271.0,1.0
15:30:42.081954,181584.0625,176859.34375,173068.140625,208050.578125,172936.703125,163603.0625,684458.0,164425.515625,-0.063720703125,1.006103515625,-0.12841796875,-0.7934569716453552,-1.6479490995407104,-0.0915527269244194,100.0,32272.0,1.0
15:30:42.085397,181582.8125,176869.453125,173073.40625,207931.5,172938.140625,163612.1875,684461.75,164418.90625,-0.061767578125,1.00439453125,-0.128173828125,-0.8544921278953552,-1.7395018339157104,0.1220703050494194,100.0,32273.0,1.0
15:30:42.085425,181576.109375,176848.0,173060.0,208059.34375,172933.578125,163587.59375,684439.125,164434.453125,-0.06201171875,1.004150390625,-0.124755859375,-0.8544921278953552,-1.6784666776657104,0.2746581733226776,100.0,32274.0,1.0
15:30:42.090700,181580.3125,176849.609375,173061.96875,208084.296875,172935.8125,163591.078125,684492.5,164439.46875,-0.062255859375,1.003173828125,-0.123779296875,-0.8544921278953552,-1.7089842557907104,0.3967284858226776,100.0,32275.0,1.0
15:30:42.099314,181592.28125,176868.015625,173075.375,208067.75,172944.21875,163612.1875,684459.25,164430.4375,-0.060791015625,1.006103515625,-0.1259765625,-0.8544921278953552,-1.6784666776657104,0.2746581733226776,100.0,32276.0,1.0
15:30:42.099350,181588.984375,176877.140625,173078.859375,207943.65625,172944.578125,163622.46875,684451.6875,164420.421875,-0.059326171875,1.003662109375,-0.126708984375,-0.9765624403953552,-1.6174315214157104,0.3967284858226776,100.0,32277.0,1.0
15:30:42.103355,181580.125,176854.515625,173065.71875,208039.40625,172938.9375,163597.4375,684449.1875,164435.359375,-0.059814453125,1.0048828125,-0.125,-0.9765624403953552,-1.4343260526657104,0.4272460639476776,100.0,32278.0,1.0
15:30:42.110060,181573.328125,176843.171875,173055.890625,208082.0625,172930.8125,163585.8125,684481.1875,164430.890625,-0.060791015625,1.005615234375,-0.123291015625,-0.9460448622703552,-1.3732908964157104,0.3967284858226776,100.0,32279.0,1.0
15:30:42.110098,181584.234375,176856.484375,173066.078125,208069.8125,172936.4375,163602.078125,684488.75,164426.953125,-0.06103515625,1.00537109375,-0.124755859375,-1.1291502714157104,-1.2817381620407104,0.3662109076976776,100.0,32280.0,1.0
15:30:42.115786,181588.890625,176874.546875,173076.71875,207960.015625,172942.703125,163619.96875,684424.6875,164420.953125,-0.062255859375,1.00244140625,-0.126708984375,-1.0986326932907104,-1.4038084745407104,0.4577636420726776,100.0,32281.0,1.0
15:30:42.126870,181585.765625,176863.28125,173071.171875,208014.90625,172942.421875,163604.859375,684435.3125,164434.453125,-0.062744140625,1.001708984375,-0.125,-1.0681151151657104,-1.3732908964157104,0.4882812201976776,100.0,32282.0,1.0
15:30:42.126898,181573.421875,176842.1875,173055.4375,208090.375,172930.453125,163584.015625,684458.125,164432.21875,-0.062255859375,1.00146484375,-0.12255859375,-1.0375975370407104,-1.4648436307907104,0.5187987685203552,100.0,32283.0,1.0
15:30:42.128869,181580.578125,176852.203125,173061.609375,208068.203125,172933.578125,163597.703125,684489.3125,164424.453125,-0.0625,1.0,-0.12451171875,-1.0681151151657104,-1.4343260526657104,0.4272460639476776,100.0,32284.0,1.0
15:30:42.128891,181588.703125,176870.25,173074.578125,207979.234375,172941.71875,163616.203125,684445.25,164418.640625,-0.06103515625,0.998779296875,-0.12548828125,-0.9765624403953552,-1.3427733182907104,0.3356933295726776,100.0,32285.0,1.0
15:30:42.146355,181584.328125,176862.03125,173071.0,207983.265625,172941.53125,163606.109375,684481.1875,164430.96875,-0.0625,1.00048828125,-0.12548828125,-1.0070799589157104,-1.2817381620407104,0.3356933295726776,100.0,32286.0,1.0
15:30:42.146376,181571.359375,176839.328125,173054.28125,208090.1875,172930.890625,163583.578125,684445.5625,164435.359375,-0.062255859375,1.0,-0.1259765625,-1.0070799589157104,-1.2512205839157104,0.2746581733226776,100.0,32287.0,1.0
15:30:42.146383,181581.109375,176852.375,173063.390625,208072.484375,172935.71875,163598.859375,684489.125,164432.3125,-0.060791015625,1.000244140625,-0.12548828125,-1.0375975370407104,-1.3122557401657104,0.2746581733226776,100.0,32288.0,1.0
15:30:42.146388,181588.703125,176870.171875,173073.40625,208002.296875,172941.359375,163616.921875,684434.5625,164417.734375,-0.06103515625,0.999267578125,-0.125732421875,-1.0070799589157104,-1.2207030057907104,0.2441406100988388,100.0,32289.0,1.0
15:30:42.155740,181581.640625,176866.5,173068.578125,207946.6875,172937.78125,163611.015625,684473.8125,164418.1875,-0.060302734375,1.000244140625,-0.124755859375,-0.9765624403953552,-1.1596678495407104,0.2441406100988388,100.0,32290.0,1.0
15:30:42.158842,181570.296875,176840.84375,173052.40625,208082.140625,172928.84375,163582.6875,684439.6875,164429.984375,-0.059814453125,0.999267578125,-0.126220703125,-0.9155272841453552,-1.1291502714157104,0.2441406100988388,100.0,32291.0,1.0
15:30:42.158861,181575.203125,176846.828125,173055.4375,208069.09375,172929.640625,163591.171875,684508.6875,164428.375,-0.05859375,1.000244140625,-0.125732421875,-0.8239745497703552,-0.9765624403953552,0.2441406100988388,100.0,32292.0,1.0
15:30:42.168368,181589.0625,176865.34375,173070.1875,208033.15625,172938.765625,163610.21875,684447.5625,164425.4375,-0.059326171875,1.0009765625,-0.12548828125,-0.7019042372703552,-0.9460448622703552,0.3662109076976776,100.0,32293.0,1.0
15:30:42.188184,181584.421875,176868.828125,173069.203125,207935.78125,172936.265625,163612.0,684483.5625,164420.6875,-0.061279296875,1.001708984375,-0.12451171875,-0.7324218153953552,-0.8850097060203552,0.3662109076976776,100.0,32294.0,1.0
15:30:42.188225,181573.421875,176841.5625,173052.3125,208072.9375,172927.5,163582.40625,684444.5,164433.390625,-0.06005859375,1.001220703125,-0.125732421875,-0.6103515028953552,-0.9155272841453552,0.4272460639476776,100.0,32295.0,1.0
15:30:42.188237,181571.0,176838.78125,173049.0,208067.03125,172923.5625,163582.6875,684495.9375,164426.5,-0.058349609375,1.0,-0.126953125,-0.6103515028953552,-0.7934569716453552,0.5493163466453552,100.0,32296.0,1.0
15:30:42.192221,181587.015625,176860.25,173066.25,208049.953125,172935.71875,163606.1875,684450.875,164425.875,-0.058349609375,0.999267578125,-0.127197265625,-0.6408690810203552,-0.7629393935203552,0.6408690810203552,100.0,32297.0,1.0
15:30:42.196559,181588.53125,176873.390625,173074.296875,207937.3125,172940.1875,163618.71875,684463.5625,164423.375,-0.059326171875,0.99951171875,-0.12744140625,-0.5798339247703552,-0.7324218153953552,0.7019042372703552,100.0,32298.0,1.0
15:30:42.196660,181579.59375,176850.046875,173060.71875,208059.34375,172934.65625,163592.78125,684447.625,164437.234375,-0.0595703125,1.0,-0.128173828125,-0.4272460639476776,-0.6103515028953552,0.7324218153953552,100.0,32299.0,1.0
15:30:42.196688,181579.953125,176845.9375,173056.953125,208078.5625,172931.34375,163589.65625,684492.5,164435.71875,-0.05908203125,0.99951171875,-0.128173828125,-0.2746581733226776,-0.4882812201976776,0.9155272841453552,100.0,32300.0,1.0
15:30:42.196713,181597.375,176866.328125,173072.96875,208071.953125,172941.984375,163609.328125,684458.75,164435.171875,-0.059326171875,0.99755859375,-0.127197265625,-0.1831054538488388,-0.4577636420726776,0.9155272841453552,100.0,32301.0,1.0
15:30:42.199429,181597.921875,176879.109375,173079.125,207948.390625,172944.03125,163623.1875,684452.3125,164426.5,-0.0595703125,0.997314453125,-0.128173828125,-0.2441406100988388,-0.3356933295726776,0.8239745497703552,100.0,32302.0,1.0
15:30:42.201011,181588.796875,176857.828125,173064.375,208037.796875,172937.328125,163597.703125,684445.5,164437.671875,-0.060791015625,0.998291015625,-0.126708984375,-0.1525878757238388,-0.3662109076976776,0.8544921278953552,100.0,32303.0,1.0
15:30:42.210867,181584.0625,176846.203125,173055.53125,208087.6875,172930.0,163585.1875,684470.0,164437.859375,-0.06103515625,0.9990234375,-0.130859375,-0.0915527269244194,-0.2441406100988388,0.8544921278953552,100.0,32304.0,1.0
15:30:42.215390,181598.640625,176862.484375,173069.921875,208080.890625,172939.03125,163604.765625,684473.5625,164434.734375,-0.062255859375,1.000732421875,-0.12744140625,0.0,-0.2441406100988388,0.8850097060203552,100.0,32305.0,1.0
15:30:42.215488,181601.765625,176877.953125,173078.421875,207968.59375,172940.734375,163621.75,684433.625,164423.734375,-0.061279296875,1.00341796875,-0.125,0.1220703050494194,-0.2441406100988388,0.8850097060203552,100.0,32306.0,1.0
15:30:42.217107,181602.484375,176868.828125,173072.15625,208019.375,172938.40625,163607.171875,684454.1875,164434.90625,-0.061279296875,1.0029296875,-0.125732421875,0.1220703050494194,-0.2136230319738388,0.8239745497703552,100.0,32307.0,1.0
15:30:42.229038,181599.703125,176857.734375,173065.625,208106.546875,172936.171875,163594.484375,684446.75,164442.59375,-0.060791015625,1.003173828125,-0.12890625,0.1831054538488388,-0.2136230319738388,0.7934569716453552,100.0,32308.0,1.0
15:30:42.236963,181610.25,176869.0,173075.28125,208095.734375,172941.71875,163607.453125,684489.1875,164439.375,-0.062255859375,1.00146484375,-0.12890625,0.1525878757238388,-0.1831054538488388,0.6713866591453552,100.0,32309.0,1.0
15:30:42.237004,181619.5625,176887.78125,173087.984375,208008.5625,172948.234375,163626.046875,684432.1875,164432.046875,-0.060546875,1.002685546875,-0.13134765625,0.1525878757238388,-0.0915527269244194,0.7019042372703552,100.0,32310.0,1.0
15:30:42.237015,181620.625,176885.28125,173088.703125,208010.171875,172950.75,163622.46875,684464.25,164446.625,-0.060791015625,1.005126953125,-0.131591796875,0.2136230319738388,-0.1220703050494194,0.7934569716453552,100.0,32311.0,1.0
15:30:42.240290,181611.234375,176862.203125,173074.296875,208125.953125,172941.796875,163596.71875,684447.0,164455.296875,-0.061279296875,1.006103515625,-0.1298828125,0.0915527269244194,-0.03051757626235485,0.7324218153953552,100.0,32312.0,1.0
15:30:42.240373,181622.859375,176875.984375,173084.859375,208108.25,172948.953125,163611.46875,684504.5625,164448.671875,-0.0625,1.004638671875,-0.129150390625,0.0610351525247097,-0.03051757626235485,0.7324218153953552,100.0,32313.0,1.0
15:30:42.242150,181637.796875,176900.46875,173102.640625,208046.109375,172962.359375,163635.4375,684444.25,164444.75,-0.062744140625,1.0009765625,-0.12890625,0.0,-0.03051757626235485,0.6713866591453552,100.0,32314.0,1.0
15:30:42.283361,181633.0625,176898.6875,173100.234375,207992.640625,172960.3125,163631.765625,684477.9375,164448.140625,-0.062255859375,1.0009765625,-0.129638671875,0.0610351525247097,0.0915527269244194,0.7324218153953552,100.0,32315.0,1.0
15:30:42.297945,181623.40625,176871.328125,173083.328125,208128.640625,172949.484375,163602.171875,684437.0625,164459.3125,-0.06201171875,0.99951171875,-0.13330078125,0.0,0.0915527269244194,0.7324218153953552,100.0,32316.0,1.0
15:30:42.297998,181627.15625,176874.453125,173085.921875,208112.546875,172949.84375,163608.421875,684503.9375,164452.34375,-0.064208984375,1.003173828125,-0.13232421875,0.03051757626235485,0.0,0.7934569716453552,100.0,32317.0,1.0
15:30:42.298011,181633.953125,176890.28125,173097.453125,208071.859375,172959.421875,163626.84375,684440.75,164445.28125,-0.0595703125,1.005615234375,-0.129150390625,0.0610351525247097,0.0,0.7019042372703552,100.0,32318.0,1.0
15:30:42.298020,181630.640625,176898.6875,173100.59375,207980.671875,172960.671875,163633.46875,684467.125,164445.640625,-0.06005859375,1.004638671875,-0.131591796875,0.0610351525247097,0.0915527269244194,0.7324218153953552,100.0,32319.0,1.0
15:30:42.298030,181617.671875,176872.765625,173081.09375,208108.515625,172948.0625,163603.0625,684437.1875,164450.203125,-0.058349609375,1.0048828125,-0.133544921875,-0.0915527269244194,0.03051757626235485,0.7629393935203552,100.0,32320.0,1.0
15:30:42.299597,181620.890625,176875.890625,173083.0625,208106.28125,172949.40625,163609.765625,684496.625,164449.296875,-0.059326171875,1.005615234375,-0.131103515625,0.0,0.1525878757238388,0.9155272841453552,100.0,32321.0,1.0
15:30:42.327032,181631.71875,176891.359375,173095.40625,208086.25,172955.921875,163627.921875,684440.9375,164446.703125,-0.059814453125,1.00390625,-0.130859375,-0.0610351525247097,0.0915527269244194,0.8544921278953552,100.0,32322.0,1.0
15:30:42.329530,181628.671875,176898.953125,173099.609375,207972.4375,172957.0,163634.265625,684465.1875,164445.09375,-0.059814453125,1.00048828125,-0.131591796875,-0.0915527269244194,0.0915527269244194,0.9460448622703552,100.0,32323.0,1.0
15:30:42.332008,181617.140625,176874.28125,173084.5,208090.8125,172951.453125,163608.25,684445.25,164456.453125,-0.059814453125,1.00146484375,-0.13232421875,-0.0915527269244194,0.1220703050494194,0.9155272841453552,100.0,32324.0,1.0
15:30:42.334500,181610.53125,176866.328125,173076.8125,208109.859375,172945.734375,163602.34375,684494.3125,164455.03125,-0.060302734375,0.999267578125,-0.130859375,-0.0610351525247097,0.0915527269244194,0.9460448622703552,100.0,32325.0,1.0
15:30:42.336976,181618.125,176878.84375,173084.578125,208091.984375,172949.484375,163616.75,684474.5625,164446.265625,-0.06005859375,0.998779296875,-0.131591796875,-0.03051757626235485,0.1831054538488388,0.7934569716453552,100.0,32326.0,1.0
15:30:42.339467,181612.484375,176887.515625,173087.09375,207965.203125,172948.59375,163626.40625,684443.625,164437.40625,-0.064453125,1.0,-0.131103515625,-0.1220703050494194,0.03051757626235485,0.8239745497703552,100.0,32327.0,1.0
15:30:42.343836,181604.71875,176867.3125,173075.5625,208063.09375,172944.21875,163603.328125,684429.9375,164456.28125,-0.065673828125,0.999755859375,-0.13037109375,-0.1831054538488388,0.1831054538488388,0.6103515028953552,100.0,32328.0,1.0
15:30:42.344429,181593.0,176850.9375,173060.265625,208098.953125,172930.8125,163586.796875,684465.8125,164443.9375,-0.066650390625,1.00341796875,-0.131591796875,-0.1831054538488388,0.1831054538488388,0.5798339247703552,100.0,32329.0,1.0
15:30:42.346986,181601.234375,176861.578125,173068.046875,208085.546875,172933.75,163599.84375,684468.8125,164435.53125,-0.064697265625,1.002685546875,-0.1337890625,-0.2136230319738388,0.0610351525247097,0.5493163466453552,100.0,32330.0,1.0
15:30:42.352004,181601.234375,176874.09375,173073.671875,207972.984375,172933.84375,163612.8125,684430.9375,164423.1875,-0.06396484375,1.000244140625,-0.132568359375,-0.2746581733226776,-0.0915527269244194,0.3967284858226776,100.0,32331.0,1.0
15:30:42.354461,181591.296875,176857.203125,173062.5,208016.4375,172928.65625,163594.03125,684454.375,164432.765625,-0.064453125,1.0,-0.133056640625,-0.1831054538488388,-0.0610351525247097,0.3967284858226776,100.0,32332.0,1.0
15:30:42.357358,181580.484375,176837.890625,173049.8125,208100.734375,172921.5,163574.90625,684453.625,164439.375,-0.065673828125,1.000732421875,-0.13037109375,-0.1220703050494194,-0.1220703050494194,0.3051757514476776,100.0,32333.0,1.0
15:30:42.359492,181590.9375,176849.15625,173059.546875,208087.859375,172928.65625,163589.65625,684482.9375,164436.25,-0.065673828125,1.00146484375,-0.13134765625,-0.0915527269244194,-0.1831054538488388,0.3051757514476776,100.0,32334.0,1.0
15:30:42.362037,181597.296875,176867.9375,173071.078125,207996.9375,172935.640625,163610.03125,684429.75,164425.875,-0.0634765625,1.002685546875,-0.1298828125,-0.1220703050494194,-0.2136230319738388,0.3662109076976776,100.0,32335.0,1.0
15:30:42.364567,181591.484375,176862.03125,173066.25,207990.234375,172935.09375,163602.53125,684468.9375,164434.015625,-0.064208984375,1.003662109375,-0.132568359375,-0.1525878757238388,-0.3051757514476776,0.3356933295726776,100.0,32336.0,1.0
15:30:42.368218,181583.609375,176844.953125,173054.546875,208106.28125,172928.65625,163583.578125,684445.3125,164442.78125,-0.0634765625,1.002197265625,-0.1357421875,-0.1525878757238388,-0.3967284858226776,0.4272460639476776,100.0,32337.0,1.0
15:30:42.368241,181591.484375,176856.671875,173061.421875,208090.375,172932.421875,163597.875,684504.6875,164439.203125,-0.062744140625,1.00244140625,-0.132568359375,-0.2136230319738388,-0.3356933295726776,0.4272460639476776,100.0,32338.0,1.0
15:30:42.368248,181595.0625,176871.328125,173070.015625,208018.578125,172936.265625,163614.421875,684442.0,164425.609375,-0.063232421875,1.00341796875,-0.130859375,-0.1831054538488388,-0.2746581733226776,0.4577636420726776,100.0,32339.0,1.0
15:30:42.373478,181590.140625,176868.640625,173067.59375,207966.90625,172934.375,163610.125,684460.625,164430.96875,-0.06298828125,1.002197265625,-0.1337890625,-0.2136230319738388,-0.3967284858226776,0.6713866591453552,100.0,32340.0,1.0
15:30:42.373554,181578.609375,176840.484375,173049.359375,208100.65625,172924.8125,163580.625,684425.5625,164440.984375,-0.06103515625,1.0029296875,-0.1337890625,-0.1831054538488388,-0.3662109076976776,0.6408690810203552,100.0,32341.0,1.0
15:30:42.373568,181574.9375,176837.359375,173044.265625,208074.015625,172916.59375,163581.703125,684504.4375,164425.78125,-0.061279296875,1.004150390625,-0.132080078125,-0.2746581733226776,-0.4577636420726776,0.6713866591453552,100.0,32342.0,1.0
15:30:42.375719,181588.703125,176857.5625,173061.15625,208041.640625,172927.5,163603.0625,684453.125,164424.796875,-0.059814453125,1.00732421875,-0.134033203125,-0.3356933295726776,-0.3967284858226776,0.6713866591453552,100.0,32343.0,1.0
15:30:42.378335,181586.03125,176863.28125,173063.125,207947.859375,172928.65625,163607.625,684454.0625,164422.65625,-0.06201171875,1.0078125,-0.13427734375,-0.3662109076976776,-0.5187987685203552,0.8239745497703552,100.0,32344.0,1.0
15:30:42.381396,181576.734375,176837.796875,173046.859375,208085.8125,172921.328125,163579.546875,684417.4375,164434.8125,-0.0615234375,1.005859375,-0.1328125,-0.5187987685203552,-0.4882812201976776,0.9155272841453552,100.0,32345.0,1.0
15:30:42.381417,181568.421875,176831.09375,173038.8125,208071.234375,172912.75,163575.796875,684486.375,164422.296875,-0.062255859375,1.006103515625,-0.1337890625,-0.5493163466453552,-0.5187987685203552,1.0375975370407104,100.0,32346.0,1.0
15:30:42.383443,181581.375,176850.9375,173053.390625,208050.859375,172922.21875,163597.875,684450.25,164417.734375,-0.060302734375,1.006103515625,-0.13427734375,-0.6713866591453552,-0.4577636420726776,1.0070799589157104,100.0,32347.0,1.0
15:30:42.387196,181581.375,176863.28125,173060.09375,207939.8125,172926.328125,163611.734375,684452.1875,164416.484375,-0.061767578125,1.005615234375,-0.131591796875,-0.7019042372703552,-0.4882812201976776,1.0375975370407104,100.0,32348.0,1.0
15:30:42.388287,181572.078125,176839.953125,173045.515625,208060.15625,172920.703125,163585.984375,684440.375,164432.765625,-0.06298828125,1.00439453125,-0.130615234375,-0.8239745497703552,-0.5187987685203552,0.9765624403953552,100.0,32349.0,1.0
15:30:42.397969,181562.6875,176828.0625,173035.328125,208073.375,172911.140625,163575.265625,684483.0625,164424.71875,-0.0615234375,1.002685546875,-0.131103515625,-0.8239745497703552,-0.4577636420726776,0.9460448622703552,100.0,32350.0,1.0
15:30:42.397985,181573.328125,176844.15625,173046.5,208060.15625,172917.125,163593.859375,684463.0,164417.46875,-0.060302734375,1.00390625,-0.13232421875,-0.9155272841453552,-0.4272460639476776,0.9155272841453552,100.0,32351.0,1.0
15:30:42.404002,181575.125,176859.171875,173054.453125,207939.71875,172920.703125,163609.953125,684443.25,164411.84375,-0.062744140625,1.002197265625,-0.13134765625,-0.9765624403953552,-0.3356933295726776,0.7934569716453552,100.0,32352.0,1.0
15:30:42.404027,181569.125,176840.65625,173044.265625,208032.078125,172918.375,163588.3125,684432.0,164426.5,-0.06201171875,1.003173828125,-0.130126953125,-1.0070799589157104,-0.3967284858226776,0.8850097060203552,100.0,32353.0,1.0
15:30:42.410113,181559.921875,176823.140625,173030.5,208076.78125,172906.3125,163570.4375,684468.5625,164420.0625,-0.059326171875,1.0029296875,-0.1328125,-1.0375975370407104,-0.2746581733226776,0.8239745497703552,100.0,32354.0,1.0
15:30:42.410121,181569.9375,176834.84375,173039.53125,208068.203125,172911.40625,163583.3125,684475.5625,164417.109375,-0.0576171875,1.004638671875,-0.13232421875,-1.0986326932907104,-0.3662109076976776,0.7934569716453552,100.0,32355.0,1.0
15:30:42.415770,181570.375,176848.890625,173046.765625,207951.78125,172914.71875,163596.984375,684437.375,164402.984375,-0.057861328125,1.00341796875,-0.13330078125,-1.0070799589157104,-0.2746581733226776,0.8850097060203552,100.0,32356.0,1.0
15:30:42.422539,181569.484375,176841.375,173044.796875,207999.890625,172918.109375,163587.59375,684457.9375,164418.1875,-0.05810546875,1.0029296875,-0.135009765625,-1.0681151151657104,-0.1831054538488388,0.7629393935203552,100.0,32357.0,1.0
15:30:42.422554,181557.78125,176820.453125,173029.515625,208078.484375,172906.578125,163568.203125,684457.1875,164418.1875,-0.057861328125,1.001708984375,-0.134033203125,-1.1291502714157104,-0.2441406100988388,0.7019042372703552,100.0,32358.0,1.0
15:30:42.430107,181566.265625,176831.0,173037.46875,208064.890625,172910.59375,163582.5,684484.3125,164414.875,-0.056640625,1.001220703125,-0.135009765625,-1.1596678495407104,-0.0915527269244194,0.7019042372703552,100.0,32359.0,1.0
15:30:42.430118,181572.96875,176851.125,173051.5,207978.796875,172920.078125,163603.875,684439.4375,164408.171875,-0.056884765625,1.00146484375,-0.134033203125,-1.1901854276657104,0.03051757626235485,0.7629393935203552,100.0,32360.0,1.0
15:30:42.435760,181565.203125,176842.359375,173044.984375,207969.84375,172916.953125,163592.875,684471.75,164414.34375,-0.05615234375,1.003173828125,-0.13427734375,-1.1901854276657104,0.0915527269244194,0.6408690810203552,100.0,32361.0,1.0
15:30:42.442585,181557.328125,176822.328125,173033.09375,208086.890625,172911.046875,163571.765625,684441.8125,164424.890625,-0.0576171875,1.00390625,-0.133544921875,-1.1901854276657104,0.03051757626235485,0.6713866591453552,100.0,32362.0,1.0
15:30:42.442595,181566.71875,176833.6875,173040.78125,208070.078125,172915.25,163586.796875,684502.8125,164419.796875,-0.05908203125,1.0029296875,-0.12890625,-1.1901854276657104,0.03051757626235485,0.6408690810203552,100.0,32363.0,1.0
15:30:42.448935,181575.390625,176852.46875,173054.453125,208005.703125,172923.46875,163606.46875,684436.4375,164411.21875,-0.05712890625,1.001953125,-0.131103515625,-1.2207030057907104,0.0610351525247097,0.7324218153953552,100.0,32364.0,1.0
15:30:42.448947,181570.296875,176849.609375,173051.59375,207949.546875,172921.421875,163600.296875,684467.6875,164414.25,-0.057861328125,1.0,-0.133056640625,-1.1596678495407104,0.2441406100988388,0.7019042372703552,100.0,32365.0,1.0
15:30:42.454438,181560.453125,176823.671875,173034.96875,208083.578125,172911.859375,163571.953125,684431.625,164424.71875,-0.059814453125,0.99951171875,-0.1318359375,-1.1596678495407104,0.3051757514476776,0.7324218153953552,100.0,32366.0,1.0
15:30:42.460073,181565.828125,176830.828125,173039.96875,208069.8125,172913.46875,163582.59375,684502.875,164421.40625,-0.059326171875,1.000732421875,-0.135009765625,-0.9765624403953552,0.3356933295726776,0.5493163466453552,100.0,32367.0,1.0
15:30:42.460088,181576.015625,176851.84375,173053.390625,208030.109375,172923.75,163605.65625,684447.9375,164415.5,-0.0595703125,0.998779296875,-0.135009765625,-0.9460448622703552,0.2746581733226776,0.6103515028953552,100.0,32368.0,1.0
15:30:42.465746,181575.125,176859.078125,173057.671875,207940.25,172926.875,163613.53125,684457.3125,164416.40625,-0.0615234375,0.99951171875,-0.13232421875,-0.9155272841453552,0.1831054538488388,0.6103515028953552,100.0,32369.0,1.0
15:30:42.472659,181568.0625,176834.140625,173042.65625,208077.671875,172920.25,163586.34375,684425.75,164428.46875,-0.062744140625,1.002197265625,-0.133544921875,-0.9460448622703552,0.2441406100988388,0.6713866591453552,100.0,32370.0,1.0
15:30:42.472679,181572.078125,176835.828125,173043.734375,208079.015625,172919.265625,163589.75,684496.125,164426.859375,-0.060791015625,1.001953125,-0.131103515625,-0.8850097060203552,0.2441406100988388,0.6408690810203552,100.0,32371.0,1.0
15:30:42.474495,181585.484375,176854.515625,173058.390625,208062.921875,172928.296875,163608.078125,684458.5625,164423.640625,-0.063232421875,1.001708984375,-0.1328125,-0.8544921278953552,0.1831054538488388,0.6408690810203552,100.0,32372.0,1.0
15:30:42.485065,181579.6875,176860.0625,173059.109375,207944.8125,172926.328125,163612.453125,684456.25,164417.203125,-0.06298828125,1.00048828125,-0.131103515625,-0.9460448622703552,0.2136230319738388,0.7324218153953552,100.0,32373.0,1.0
15:30:42.487605,181568.234375,176834.21875,173042.65625,208065.96875,172917.75,163582.953125,684436.0,164431.515625,-0.06396484375,1.001220703125,-0.130615234375,-0.8850097060203552,0.1831054538488388,0.7019042372703552,100.0,32374.0,1.0
15:30:42.487638,181565.015625,176828.140625,173037.640625,208084.375,172912.03125,163579.109375,684480.875,164428.015625,-0.06396484375,1.00244140625,-0.1318359375,-0.9765624403953552,0.0915527269244194,0.7324218153953552,100.0,32375.0,1.0
15:30:42.493207,181579.859375,176846.828125,173053.203125,208077.671875,172922.765625,163601.640625,684466.0,164428.65625,-0.06591796875,1.001220703125,-0.1337890625,-0.9155272841453552,0.1525878757238388,0.6713866591453552,100.0,32376.0,1.0
15:30:42.506747,181582.359375,176862.65625,173062.765625,207963.40625,172929.28125,163617.109375,684440.75,164425.4375,-0.064453125,1.00244140625,-0.13134765625,-0.8850097060203552,0.03051757626235485,0.6103515028953552,100.0,32377.0,1.0
15:30:42.506825,181572.078125,176843.703125,173048.90625,208044.0625,172923.75,163595.828125,684440.25,164429.546875,-0.0654296875,1.002685546875,-0.130859375,-0.8850097060203552,-0.0915527269244194,0.7324218153953552,100.0,32378.0,1.0
15:30:42.508472,181563.765625,176830.5625,173038.90625,208088.140625,172916.671875,163583.84375,684474.9375,164428.921875,-0.06689453125,1.001953125,-0.132568359375,-0.8544921278953552,-0.1831054538488388,0.7324218153953552,100.0,32379.0,1.0
15:30:42.510820,181572.53125,176841.28125,173046.59375,208073.734375,172920.796875,163596.8125,684476.0625,164421.40625,-0.068115234375,1.000732421875,-0.1376953125,-0.9155272841453552,-0.2746581733226776,0.6103515028953552,100.0,32380.0,1.0
15:30:42.514787,181577.09375,176856.578125,173056.515625,207966.265625,172925.359375,163612.8125,684436.0,164416.046875,-0.068115234375,1.0,-0.13427734375,-0.8850097060203552,-0.3051757514476776,0.7019042372703552,100.0,32381.0,1.0
15:30:42.522182,181570.921875,176841.28125,173046.953125,208012.859375,172921.421875,163594.84375,684456.0625,164428.65625,-0.06689453125,1.001953125,-0.132080078125,-0.9155272841453552,-0.4577636420726776,0.7324218153953552,100.0,32382.0,1.0
15:30:42.526560,181561.703125,176823.671875,173033.4375,208094.84375,172912.921875,163576.59375,684447.9375,164430.078125,-0.066650390625,1.001953125,-0.130615234375,-0.8544921278953552,-0.4577636420726776,0.7019042372703552,100.0,32383.0,1.0
15:30:42.526642,181573.25,176837.4375,173043.734375,208082.765625,172919.453125,163592.609375,684486.25,164427.84375,-0.064697265625,1.001708984375,-0.13232421875,-0.8850097060203552,-0.5493163466453552,0.7629393935203552,100.0,32384.0,1.0
15:30:42.537021,181579.6875,176856.046875,173055.4375,207996.84375,172925.625,163611.296875,684432.25,164420.15625,-0.063232421875,1.003173828125,-0.13232421875,-0.8544921278953552,-0.6408690810203552,0.6408690810203552,100.0,32385.0,1.0
15:30:42.537089,181569.3125,176845.3125,173045.78125,207980.671875,172919.265625,163598.140625,684470.1875,164420.609375,-0.0634765625,1.002197265625,-0.1328125,-0.7934569716453552,-0.7629393935203552,0.6408690810203552,100.0,32386.0,1.0
15:30:42.538299,181556.609375,176819.828125,173027.984375,208092.421875,172907.109375,163570.609375,684440.875,164425.875,-0.063720703125,1.00341796875,-0.135498046875,-0.8239745497703552,-0.8239745497703552,0.7629393935203552,100.0,32387.0,1.0
15:30:42.545707,181559.109375,176824.484375,173030.3125,208070.609375,172904.875,163578.921875,684496.5625,164416.578125,-0.063720703125,1.00341796875,-0.1337890625,-0.8544921278953552,-0.8850097060203552,0.6408690810203552,100.0,32388.0,1.0
15:30:42.557160,181566.453125,176841.921875,173040.78125,208002.65625,172910.0625,163597.875,684431.75,164405.140625,-0.064697265625,1.00341796875,-0.136474609375,-0.9460448622703552,-0.8850097060203552,0.7019042372703552,100.0,32389.0,1.0
15:30:42.557341,181569.390625,176848.265625,173046.140625,207951.25,172916.59375,163602.703125,684440.9375,164414.796875,-0.064208984375,1.00146484375,-0.13623046875,-0.9765624403953552,-0.9765624403953552,0.6408690810203552,100.0,32390.0,1.0
15:30:42.557376,181561.265625,176823.578125,173032.109375,208090.28125,172909.96875,163575.34375,684417.6875,164429.09375,-0.06103515625,1.00390625,-0.13427734375,-0.9460448622703552,-0.9765624403953552,0.6408690810203552,100.0,32391.0,1.0
15:30:42.563940,181562.515625,176826.359375,173032.90625,208073.203125,172907.828125,163580.53125,684483.6875,164421.5,-0.061279296875,1.002685546875,-0.12939453125,-1.0375975370407104,-0.9765624403953552,0.6713866591453552,100.0,32392.0,1.0
15:30:42.564021,181574.40625,176846.46875,173046.671875,208037.890625,172916.765625,163601.546875,684422.6875,164416.125,-0.059814453125,1.001953125,-0.131591796875,-0.8850097060203552,-0.9765624403953552,0.7324218153953552,100.0,32393.0,1.0
15:30:42.565748,181572.796875,176853.625,173049.984375,207947.40625,172918.109375,163606.46875,684456.125,164417.296875,-0.057861328125,1.001953125,-0.13525390625,-1.0070799589157104,-1.0375975370407104,0.7324218153953552,100.0,32394.0,1.0
15:30:42.568268,181563.59375,176828.6875,173033.984375,208085.625,172910.953125,163578.203125,684434.0625,164433.03125,-0.05810546875,1.001708984375,-0.1337890625,-0.9765624403953552,-0.9460448622703552,0.7324218153953552,100.0,32395.0,1.0
15:30:42.584497,181564.921875,176829.390625,173033.71875,208087.953125,172908.984375,163581.34375,684485.625,164431.421875,-0.05859375,1.002197265625,-0.135498046875,-1.0681151151657104,-0.8850097060203552,0.6408690810203552,100.0,32396.0,1.0
15:30:42.588188,181574.5,176844.6875,173044.796875,208065.0625,172915.78125,163598.421875,684432.25,164422.03125,-0.058837890625,1.002685546875,-0.13525390625,-1.0986326932907104,-0.9765624403953552,0.6713866591453552,100.0,32397.0,1.0
15:30:42.588212,181567.515625,176850.5,173044.359375,207934.796875,172912.921875,163604.578125,684462.5625,164407.8125,-0.059326171875,1.005126953125,-0.134521484375,-1.0681151151657104,-1.0375975370407104,0.5798339247703552,100.0,32398.0,1.0
15:30:42.588219,181558.21875,176824.75,173027.546875,208058.984375,172903.890625,163575.078125,684440.6875,164422.21875,-0.058837890625,1.004638671875,-0.135498046875,-1.0681151151657104,-0.9765624403953552,0.5493163466453552,100.0,32399.0,1.0
15:30:42.590736,181555.0,176818.3125,173020.921875,208077.765625,172898.34375,163570.609375,684487.4375,164417.46875,-0.0595703125,1.005615234375,-0.134033203125,-1.1291502714157104,-0.9765624403953552,0.5493163466453552,100.0,32400.0,1.0
15:30:42.593502,181569.671875,176838.609375,173036.9375,208068.90625,172910.25,163592.78125,684467.0625,164419.078125,-0.058837890625,1.005126953125,-0.13525390625,-1.1596678495407104,-0.9765624403953552,0.5493163466453552,100.0,32401.0,1.0
15:30:42.595697,181570.296875,176853.265625,173044.703125,207948.84375,172912.921875,163606.8125,684441.5625,164413.09375,-0.058349609375,1.004638671875,-0.13330078125,-1.1901854276657104,-0.9765624403953552,0.5493163466453552,100.0,32402.0,1.0
15:30:42.605707,181563.5,176834.671875,173033.625,208036.8125,172908.90625,163585.453125,684444.3125,164426.953125,-0.060791015625,1.005859375,-0.134521484375,-1.2512205839157104,-0.9460448622703552,0.6408690810203552,100.0,32403.0,1.0
15:30:42.610104,181560.1875,176826.359375,173029.15625,208089.296875,172908.8125,163579.375,684482.875,164430.96875,-0.060546875,1.00537109375,-0.134765625,-1.3122557401657104,-0.8544921278953552,0.6408690810203552,100.0,32404.0,1.0
15:30:42.610129,181570.5625,176839.671875,173040.59375,208079.46875,172916.59375,163596.359375,684482.75,164430.96875,-0.062255859375,1.003662109375,-0.133056640625,-1.2512205839157104,-0.9460448622703552,0.5493163466453552,100.0,32405.0,1.0
