Timestamp,Fz,FC3,FCz,FC4,Cz,C3,C4
15:29:54.049622,181840.921875,177553.859375,175224.8125,207033.125,174114.109375,163190.453125,683869.6875,164516.53125,-0.059814453125,1.0,-0.133544921875,-1.4648436307907104,1.4343260526657104,0.7019042372703552,100.0,20253.0,1.0
15:29:54.049632,181821.25,177540.1875,175209.4375,206985.484375,174105.171875,163179.453125,683816.8125,164510.28125,-0.06005859375,0.99951171875,-0.134765625,-1.4648436307907104,1.4343260526657104,0.6408690810203552,100.0,20254.0,1.0
15:29:54.052139,181815.984375,177499.6875,175198.171875,207079.359375,174096.671875,163140.109375,683862.8125,164530.125,-0.06103515625,0.998779296875,-0.1328125,-1.3732908964157104,1.3732908964157104,0.6713866591453552,100.0,20255.0,1.0
15:29:54.052151,181819.921875,177503.53125,175201.5625,207065.3125,174098.46875,163151.296875,683847.75,164521.453125,-0.0615234375,0.997802734375,-0.1337890625,-1.3427733182907104,1.1596678495407104,0.7324218153953552,100.0,20256.0,1.0
15:29:54.061615,181832.515625,177521.859375,175215.421875,207038.140625,174106.59375,163170.515625,683877.125,164508.40625,-0.06103515625,0.99658203125,-0.133544921875,-1.1291502714157104,1.1596678495407104,0.7629393935203552,100.0,20257.0,1.0
15:29:54.064255,181826.171875,177533.203125,175212.46875,206980.109375,174102.65625,163172.921875,683826.0,164503.125,-0.0615234375,0.996826171875,-0.135009765625,-1.0375975370407104,1.0986326932907104,0.9155272841453552,100.0,20258.0,1.0
15:29:54.067813,181817.6875,177521.5,175198.078125,207055.65625,174095.421875,163156.484375,683845.8125,164517.34375,-0.06005859375,0.997802734375,-0.133544921875,-0.9460448622703552,1.0070799589157104,1.0070799589157104,100.0,20259.0,1.0
15:29:54.078380,181821.703125,177514.078125,175203.078125,207060.484375,174099.71875,163160.140625,683834.5625,164527.359375,-0.05908203125,0.998046875,-0.135498046875,-0.8544921278953552,0.8850097060203552,1.0070799589157104,100.0,20260.0,1.0
15:29:54.078388,181855.671875,177564.59375,175234.015625,207078.28125,174120.71875,163192.15625,683872.1875,164537.546875,-0.06005859375,0.99609375,-0.13720703125,-0.7324218153953552,0.7019042372703552,1.1596678495407104,100.0,20261.0,1.0
15:29:54.082227,181849.15625,177566.734375,175234.375,206992.1875,174120.453125,163191.96875,683831.375,164558.015625,-0.060302734375,0.994384765625,-0.13720703125,-0.5187987685203552,0.6713866591453552,1.2207030057907104,100.0,20262.0,1.0
15:29:54.082256,181818.84375,177521.40625,175197.984375,207054.328125,174093.359375,163153.4375,683859.0625,164512.78125,-0.0595703125,0.99365234375,-0.138671875,-0.3967284858226776,0.6713866591453552,1.3122557401657104,100.0,20263.0,1.0
15:29:54.091667,181831.09375,177518.09375,175206.125,207063.171875,174100.96875,163159.515625,683852.375,164520.375,-0.05908203125,0.99365234375,-0.135986328125,-0.2136230319738388,0.6408690810203552,1.3732908964157104,100.0,20264.0,1.0
15:29:54.100199,181873.65625,177553.421875,175244.65625,207124.328125,174134.671875,163195.375,683879.1875,164559.71875,-0.060791015625,0.995361328125,-0.137451171875,-0.03051757626235485,0.5493163466453552,1.5563963651657104,100.0,20265.0,1.0
15:29:54.100205,181846.46875,177546.625,175225.171875,206992.546875,174113.484375,163183.921875,683841.125,164515.828125,-0.0625,0.993896484375,-0.13671875,0.1525878757238388,0.4882812201976776,1.6784666776657104,100.0,20266.0,1.0
15:29:54.100207,181825.109375,177521.40625,175203.171875,207053.34375,174100.515625,163157.28125,683862.1875,164517.703125,-0.061279296875,0.9951171875,-0.135986328125,0.3662109076976776,0.4577636420726776,1.7089842557907104,100.0,20267.0,1.0
15:29:54.104085,181835.828125,177534.1875,175211.578125,207056.375,174109.28125,163171.765625,683856.5,164531.734375,-0.059814453125,0.996826171875,-0.1357421875,0.5187987685203552,0.4577636420726776,1.9226073026657104,100.0,20268.0,1.0
15:29:54.152126,181851.75,177557.4375,175225.34375,207087.046875,174118.40625,163190.453125,683866.125,164542.46875,-0.06005859375,0.996826171875,-0.13525390625,0.6713866591453552,0.3967284858226776,2.014159917831421,100.0,20269.0,1.0
15:29:54.152140,181860.59375,177563.25,175234.28125,207004.796875,174119.5625,163194.125,683858.4375,164535.671875,-0.057861328125,0.99658203125,-0.13232421875,0.7934569716453552,0.3967284858226776,2.105712652206421,100.0,20270.0,1.0
15:29:54.154017,181892.0625,177586.140625,175262.546875,207135.765625,174149.515625,163205.375,683793.25,164619.53125,-0.058837890625,0.998046875,-0.135009765625,0.9460448622703552,0.3662109076976776,2.197265386581421,100.0,20271.0,1.0
15:29:54.156522,181850.9375,177542.15625,175225.171875,207129.609375,174119.296875,163174.09375,683810.1875,164579.125,-0.059326171875,0.9990234375,-0.13427734375,1.1291502714157104,0.3051757514476776,2.288818120956421,100.0,20272.0,1.0
15:29:54.161512,181909.6875,177630.484375,175272.90625,207121.015625,174160.78125,163248.203125,683860.0,164547.921875,-0.057861328125,1.000732421875,-0.133056640625,1.2512205839157104,0.3662109076976776,2.319335699081421,100.0,20273.0,1.0
15:29:54.164013,181915.578125,177654.171875,175284.265625,207063.359375,174166.40625,163266.265625,683855.4375,164562.3125,-0.05712890625,1.000732421875,-0.134765625,1.2512205839157104,0.3051757514476776,2.319335699081421,100.0,20274.0,1.0
15:29:54.166531,181833.859375,177534.546875,175203.359375,207000.953125,174098.46875,163171.9375,683845.5625,164488.1875,-0.0556640625,1.001953125,-0.13525390625,1.3122557401657104,0.2746581733226776,2.258300542831421,100.0,20275.0,1.0
15:29:54.169028,181835.03125,177510.5,175207.5625,207105.90625,174108.5625,163156.484375,683903.3125,164548.0,-0.055419921875,1.00390625,-0.13623046875,1.3427733182907104,0.3662109076976776,2.288818120956421,100.0,20276.0,1.0
15:29:54.171493,181833.953125,177505.671875,175209.25,207124.78125,174108.828125,163159.78125,683877.0625,164553.8125,-0.05322265625,1.0029296875,-0.134521484375,1.2817381620407104,0.4577636420726776,2.349853277206421,100.0,20277.0,1.0
15:29:54.174003,181839.234375,177527.21875,175212.5625,207010.421875,174107.046875,163176.328125,683879.0,164496.59375,-0.054443359375,1.003173828125,-0.134521484375,1.3122557401657104,0.5187987685203552,2.349853277206421,100.0,20278.0,1.0
15:29:54.176591,181885.359375,177593.015625,175255.65625,207059.6875,174145.9375,163216.5625,683832.9375,164561.6875,-0.054443359375,1.004638671875,-0.135498046875,1.2207030057907104,0.5493163466453552,2.288818120956421,100.0,20279.0,1.0
15:29:54.178984,181860.859375,177575.671875,175225.53125,207093.390625,174121.34375,163191.078125,683865.75,164535.578125,-0.0556640625,1.004150390625,-0.135498046875,1.1901854276657104,0.5187987685203552,2.258300542831421,100.0,20280.0,1.0
15:29:54.181527,181873.5625,177573.359375,175236.609375,207114.40625,174128.6875,163202.25,683863.25,164560.171875,-0.056396484375,1.0068359375,-0.133544921875,1.0681151151657104,0.6713866591453552,2.166747808456421,100.0,20281.0,1.0
15:29:54.184131,181862.5625,177579.96875,175236.078125,207084.1875,174126.171875,163210.390625,683883.75,164557.9375,-0.053466796875,1.008056640625,-0.13330078125,0.9460448622703552,0.7019042372703552,2.197265386581421,100.0,20282.0,1.0
15:29:54.187103,181839.046875,177562.625,175218.640625,207011.5,174111.6875,163189.375,683840.125,164545.421875,-0.054443359375,1.009765625,-0.135986328125,0.8850097060203552,0.7934569716453552,2.166747808456421,100.0,20283.0,1.0
15:29:54.187112,181829.484375,177518.640625,175200.9375,207092.765625,174100.34375,163148.34375,683853.6875,164560.171875,-0.052734375,1.010498046875,-0.134033203125,0.6713866591453552,0.8544921278953552,2.227782964706421,100.0,20284.0,1.0
15:29:54.189618,181834.046875,177525.609375,175209.875,207097.328125,174109.453125,163171.140625,683835.375,164567.859375,-0.052001953125,1.01220703125,-0.13330078125,0.5798339247703552,0.7629393935203552,2.105712652206421,100.0,20285.0,1.0
15:29:54.189628,181834.40625,177534.375,175208.890625,207047.171875,174104.546875,163183.03125,683856.3125,164498.65625,-0.050537109375,1.01171875,-0.135986328125,0.3967284858226776,0.9155272841453552,1.9531248807907104,100.0,20286.0,1.0
15:29:54.191637,181848.078125,177543.140625,175231.25,207050.203125,174123.5,163189.46875,683824.9375,164564.1875,-0.05029296875,1.00927734375,-0.137939453125,0.2441406100988388,0.9460448622703552,2.044677495956421,100.0,20287.0,1.0
15:29:54.194742,181803.375,177484.578125,175182.34375,207084.0,174086.484375,163133.59375,683806.75,164519.671875,-0.0498046875,1.010498046875,-0.13818359375,0.0610351525247097,1.0070799589157104,2.044677495956421,100.0,20288.0,1.0
15:29:54.194800,181815.890625,177514.4375,175187.4375,207035.640625,174088.09375,163159.515625,683824.75,164490.078125,-0.052978515625,1.009765625,-0.137939453125,-0.03051757626235485,1.0986326932907104,1.9531248807907104,100.0,20289.0,1.0
15:29:54.196655,181887.515625,177596.328125,175256.015625,207120.03125,174149.6875,163235.0625,683894.125,164555.25,-0.054931640625,1.0087890625,-0.136474609375,-0.1831054538488388,1.0986326932907104,1.8310545682907104,100.0,20290.0,1.0
15:29:54.199740,181841.640625,177527.671875,175224.359375,207012.65625,174121.703125,163183.484375,683847.125,164539.78125,-0.055908203125,1.011962890625,-0.1357421875,-0.3967284858226776,1.0681151151657104,1.7395018339157104,100.0,20291.0,1.0
15:29:54.199788,181767.875,177453.71875,175149.171875,206999.96875,174058.234375,163110.34375,683826.0625,164463.078125,-0.0546875,1.011962890625,-0.135009765625,-0.6408690810203552,0.9765624403953552,1.7700194120407104,100.0,20292.0,1.0
15:29:54.213439,181803.375,177500.671875,175178.59375,207045.296875,174082.28125,163142.078125,683832.25,164515.546875,-0.053955078125,1.008544921875,-0.13720703125,-0.7324218153953552,1.0986326932907104,1.6784666776657104,100.0,20293.0,1.0
15:29:54.213453,181855.671875,177553.140625,175224.28125,207125.21875,174119.921875,163188.21875,683861.5625,164568.21875,-0.05322265625,1.010009765625,-0.139892578125,-0.9155272841453552,1.0986326932907104,1.4648436307907104,100.0,20294.0,1.0
15:29:54.215864,181822.0625,177523.109375,175200.046875,206965.8125,174096.671875,163174.8125,683848.0,164494.71875,-0.05517578125,1.009033203125,-0.139892578125,-1.0375975370407104,1.0070799589157104,1.3122557401657104,100.0,20295.0,1.0
15:29:54.215897,181823.9375,177520.953125,175199.515625,207039.65625,174099.625,163164.703125,683843.0,164522.265625,-0.056884765625,1.00732421875,-0.14013671875,-1.1596678495407104,0.9155272841453552,1.2512205839157104,100.0,20296.0,1.0
15:29:54.221644,181817.765625,177495.390625,175192.53125,207094.203125,174095.15625,163143.421875,683846.5625,164565.0,-0.055419921875,1.007568359375,-0.139892578125,-1.2207030057907104,0.9155272841453552,1.0986326932907104,100.0,20297.0,1.0
15:29:54.232133,181826.359375,177522.390625,175197.1875,207076.046875,174095.0625,163164.25,683862.8125,164522.53125,-0.0556640625,1.0048828125,-0.138427734375,-1.3427733182907104,0.8544921278953552,0.9155272841453552,100.0,20298.0,1.0
15:29:54.232138,181847.1875,177554.671875,175226.515625,207012.390625,174120.015625,163202.515625,683890.1875,164509.734375,-0.05712890625,1.004638671875,-0.139892578125,-1.4343260526657104,0.8544921278953552,0.7019042372703552,100.0,20299.0,1.0
15:29:54.234645,181840.03125,177550.46875,175213.015625,207034.65625,174109.8125,163178.375,683849.6875,164527.265625,-0.06005859375,1.005859375,-0.13916015625,-1.6479490995407104,0.7324218153953552,0.6713866591453552,100.0,20300.0,1.0
15:29:54.234654,181815.890625,177533.75,175182.515625,207067.375,174081.203125,163148.25,683855.6875,164518.765625,-0.06103515625,1.00537109375,-0.1396484375,-1.6479490995407104,0.4577636420726776,0.5798339247703552,100.0,20301.0,1.0
15:29:54.244060,181810.890625,177501.109375,175177.15625,207087.578125,174074.59375,163145.921875,683855.5625,164500.53125,-0.062744140625,1.002197265625,-0.137451171875,-1.6784666776657104,0.3051757514476776,0.4882812201976776,100.0,20302.0,1.0
15:29:54.248451,181806.59375,177487.609375,175177.875,207016.859375,174074.140625,163145.03125,683888.5,164482.296875,-0.061767578125,1.003662109375,-0.138916015625,-1.5869139432907104,0.2136230319738388,0.3662109076976776,100.0,20303.0,1.0
15:29:54.248479,181826.890625,177514.078125,175201.03125,207039.75,174098.375,163159.875,683828.5625,164548.546875,-0.06103515625,1.001220703125,-0.142822265625,-1.6784666776657104,0.03051757626235485,0.3356933295726776,100.0,20304.0,1.0
15:29:54.258456,181816.25,177502.0,175191.375,207117.890625,174096.9375,163147.53125,683846.125,164592.265625,-0.062255859375,1.00146484375,-0.143798828125,-1.6784666776657104,-0.0610351525247097,0.3967284858226776,100.0,20305.0,1.0
15:29:54.258478,181805.875,177497.625,175177.609375,207059.953125,174080.578125,163144.859375,683842.875,164509.203125,-0.061767578125,1.001708984375,-0.140869140625,-1.5563963651657104,-0.1831054538488388,0.3051757514476776,100.0,20306.0,1.0
15:29:54.264640,181810.96875,177499.40625,175181.53125,207020.890625,174079.234375,163147.265625,683867.6875,164479.34375,-0.060546875,1.001708984375,-0.1416015625,-1.6174315214157104,-0.3967284858226776,0.3051757514476776,100.0,20307.0,1.0
15:29:54.264653,181829.9375,177526.59375,175203.984375,207006.046875,174100.78125,163167.203125,683825.125,164523.6875,-0.0595703125,1.002197265625,-0.140869140625,-1.6784666776657104,-0.3967284858226776,0.1525878757238388,100.0,20308.0,1.0
15:29:54.269023,181787.90625,177472.953125,175164.1875,207078.734375,174072.984375,163120.71875,683846.9375,164524.671875,-0.061279296875,1.001953125,-0.141357421875,-1.6174315214157104,-0.4882812201976776,0.1525878757238388,100.0,20309.0,1.0
15:29:54.271545,181786.203125,177473.125,175158.46875,207018.015625,174066.359375,163128.140625,683831.25,164477.640625,-0.058837890625,1.00048828125,-0.141357421875,-1.5258787870407104,-0.7324218153953552,0.03051757626235485,100.0,20310.0,1.0
15:29:54.275318,181831.359375,177545.546875,175201.828125,207034.46875,174102.75,163189.375,683866.0625,164488.546875,-0.060302734375,0.998046875,-0.14111328125,-1.5258787870407104,-0.8850097060203552,0.1220703050494194,100.0,20311.0,1.0
15:29:54.290939,181829.75,177558.953125,175205.765625,206973.140625,174105.4375,163199.75,683822.0625,164502.5,-0.060546875,1.000244140625,-0.141845703125,-1.4648436307907104,-1.0375975370407104,0.0915527269244194,100.0,20312.0,1.0
15:29:54.290953,181818.84375,177509.15625,175191.46875,207093.125,174102.03125,163150.125,683870.4375,164553.46875,-0.05859375,1.00048828125,-0.1435546875,-1.4953612089157104,-1.0681151151657104,0.1525878757238388,100.0,20313.0,1.0
15:29:54.297108,181815.171875,177506.921875,175185.828125,207065.9375,174095.515625,163151.921875,683842.375,164527.0,-0.05908203125,1.0,-0.1435546875,-1.3122557401657104,-1.2512205839157104,0.2136230319738388,100.0,20314.0,1.0
15:29:54.297123,181810.34375,177504.0625,175180.28125,207055.75,174086.484375,163157.1875,683871.4375,164482.921875,-0.058349609375,0.998291015625,-0.14111328125,-1.3122557401657104,-1.3122557401657104,0.1220703050494194,100.0,20315.0,1.0
15:29:54.300323,181836.28125,177537.140625,175214.53125,207001.390625,174118.21875,163188.3125,683864.4375,164535.484375,-0.058349609375,0.995849609375,-0.14208984375,-1.2207030057907104,-1.2512205839157104,0.1220703050494194,100.0,20316.0,1.0
15:29:54.300338,181833.0625,177517.734375,175202.90625,207073.1875,174113.296875,163161.03125,683830.75,164570.0,-0.05810546875,0.994384765625,-0.146484375,-1.1596678495407104,-1.3732908964157104,0.1831054538488388,100.0,20317.0,1.0
15:29:54.300345,181797.296875,177489.75,175169.203125,207042.15625,174082.375,163138.859375,683838.0,164514.75,-0.056884765625,0.9931640625,-0.140380859375,-1.1291502714157104,-1.3732908964157104,0.0915527269244194,100.0,20318.0,1.0
15:29:54.331602,181850.765625,177551.625,175216.578125,207104.84375,174120.453125,163195.546875,683897.8125,164522.796875,-0.05517578125,0.9912109375,-0.141845703125,-1.0070799589157104,-1.3732908964157104,0.03051757626235485,100.0,20319.0,1.0
15:29:54.335925,181843.34375,177538.390625,175219.171875,207038.765625,174121.078125,163190.546875,683876.3125,164549.4375,-0.054931640625,0.993896484375,-0.142333984375,-0.8850097060203552,-1.4038084745407104,0.1220703050494194,100.0,20320.0,1.0
15:29:54.337826,181806.5,177497.171875,175179.21875,207037.875,174089.703125,163147.09375,683796.9375,164507.6875,-0.056884765625,0.9931640625,-0.14208984375,-0.7934569716453552,-1.4038084745407104,0.0610351525247097,100.0,20321.0,1.0
15:29:54.337838,181809.640625,177491.90625,175178.5,207091.421875,174087.828125,163142.0,683819.8125,164535.765625,-0.0556640625,0.9970703125,-0.14501953125,-0.7324218153953552,-1.4648436307907104,-0.0915527269244194,100.0,20322.0,1.0
15:29:54.337841,181827.96875,177521.671875,175192.0,207086.953125,174097.65625,163166.765625,683833.4375,164526.375,-0.05322265625,1.0009765625,-0.142578125,-0.6408690810203552,-1.3732908964157104,-0.03051757626235485,100.0,20323.0,1.0
15:29:54.340336,181837.703125,177550.46875,175207.375,207008.546875,174107.40625,163194.65625,683844.4375,164512.953125,-0.052734375,1.001953125,-0.1435546875,-0.5493163466453552,-1.3732908964157104,0.0,100.0,20324.0,1.0
15:29:54.343366,181814.46875,177517.46875,175188.515625,207014.171875,174097.03125,163165.0625,683829.125,164518.234375,-0.05224609375,1.003173828125,-0.14404296875,-0.4272460639476776,-1.3732908964157104,-0.1220703050494194,100.0,20325.0,1.0
15:29:54.343375,181809.546875,177509.609375,175174.921875,207055.9375,174084.421875,163147.71875,683864.6875,164506.171875,-0.052734375,1.004150390625,-0.143798828125,-0.3967284858226776,-1.2817381620407104,-0.1525878757238388,100.0,20326.0,1.0
15:29:54.345282,181843.515625,177529.8125,175202.453125,207096.96875,174106.953125,163174.71875,683846.125,164524.578125,-0.054931640625,1.00439453125,-0.1435546875,-0.3967284858226776,-1.2207030057907104,-0.2441406100988388,100.0,20327.0,1.0
15:29:54.347787,181844.953125,177543.40625,175210.859375,207053.875,174112.40625,163190.0,683877.9375,164528.609375,-0.055419921875,1.00390625,-0.1416015625,-0.4577636420726776,-1.2207030057907104,-0.2441406100988388,100.0,20328.0,1.0
15:29:54.350413,181839.578125,177557.34375,175206.75,207035.8125,174107.84375,163187.5,683818.125,164533.078125,-0.056396484375,1.00634765625,-0.14208984375,-0.4577636420726776,-1.2207030057907104,-0.3051757514476776,100.0,20329.0,1.0
15:29:54.352964,181793.359375,177491.015625,175156.234375,207034.828125,174068.15625,163132.96875,683859.0,164480.859375,-0.055419921875,1.006591796875,-0.141357421875,-0.5187987685203552,-1.2817381620407104,-0.3051757514476776,100.0,20330.0,1.0
15:29:54.368391,181823.5,177508.53125,175184.3125,207072.5625,174093.453125,163157.734375,683842.6875,164516.71875,-0.058349609375,1.00537109375,-0.14306640625,-0.5798339247703552,-1.0986326932907104,-0.3356933295726776,100.0,20331.0,1.0
15:29:54.368404,181866.40625,177560.390625,175229.015625,207083.109375,174132.4375,163207.53125,683905.75,164543.8125,-0.05908203125,1.0078125,-0.14404296875,-0.7934569716453552,-1.1901854276657104,-0.4882812201976776,100.0,20332.0,1.0
15:29:54.370949,181839.046875,177559.671875,175202.28125,206984.40625,174102.390625,163187.6875,683846.1875,164506.515625,-0.06005859375,1.0087890625,-0.14111328125,-0.9155272841453552,-1.2512205839157104,-0.5493163466453552,100.0,20333.0,1.0
15:29:54.370965,181794.53125,177493.515625,175162.046875,207068.8125,174074.328125,163131.53125,683891.25,164521.90625,-0.0595703125,1.007568359375,-0.141357421875,-0.9765624403953552,-1.2817381620407104,-0.6103515028953552,100.0,20334.0,1.0
15:29:54.372798,181809.90625,177489.21875,175176.53125,207077.921875,174087.46875,163144.671875,683870.0625,164529.046875,-0.0595703125,1.006103515625,-0.139892578125,-1.1596678495407104,-1.3122557401657104,-0.7324218153953552,100.0,20335.0,1.0
15:29:54.375328,181860.5,177544.5625,175221.5,207122.984375,174122.875,163190.1875,683889.1875,164555.875,-0.059814453125,1.006591796875,-0.138427734375,-1.3427733182907104,-1.2817381620407104,-0.7019042372703552,100.0,20336.0,1.0
15:29:54.381551,181851.203125,177558.78125,175218.015625,207031.515625,174118.125,163198.046875,683842.6875,164558.734375,-0.058349609375,1.0068359375,-0.140869140625,-1.4648436307907104,-1.3732908964157104,-0.6713866591453552,100.0,20337.0,1.0
15:29:54.390920,181828.859375,177529.640625,175189.9375,207079.890625,174099.796875,163165.15625,683831.875,164544.875,-0.060302734375,1.00830078125,-0.141845703125,-1.6479490995407104,-1.4648436307907104,-0.7019042372703552,100.0,20338.0,1.0
15:29:54.390928,181826.0,177524.53125,175189.140625,207076.765625,174099.890625,163172.921875,683844.875,164538.4375,-0.05908203125,1.009033203125,-0.139892578125,-1.7700194120407104,-1.3427733182907104,-0.6103515028953552,100.0,20339.0,1.0
15:29:54.393396,181835.828125,177534.640625,175195.65625,207072.109375,174102.03125,163186.078125,683886.0,164521.625,-0.0576171875,1.00830078125,-0.141845703125,-1.8920897245407104,-1.3122557401657104,-0.4882812201976776,100.0,20340.0,1.0
15:29:54.393407,181835.296875,177536.875,175200.484375,206989.59375,174102.75,163187.765625,683864.4375,164513.046875,-0.05712890625,1.009765625,-0.1416015625,-1.9531248807907104,-1.3427733182907104,-0.3967284858226776,100.0,20341.0,1.0
15:29:54.400322,181833.15625,177520.953125,175193.515625,207079.53125,174103.015625,163169.890625,683870.9375,164538.0,-0.05615234375,1.011962890625,-0.14013671875,-1.9836424589157104,-1.2512205839157104,-0.3356933295726776,100.0,20342.0,1.0
15:29:54.408399,181838.421875,177522.921875,175194.328125,207097.5,174102.390625,163173.015625,683871.4375,164544.609375,-0.055419921875,1.008544921875,-0.1416015625,-2.197265386581421,-1.2817381620407104,-0.1220703050494194,100.0,20343.0,1.0
15:29:54.408410,181845.125,177537.140625,175201.828125,207101.890625,174107.3125,163189.296875,683883.375,164543.09375,-0.054931640625,1.0087890625,-0.138671875,-2.288818120956421,-1.1291502714157104,-0.03051757626235485,100.0,20344.0,1.0
15:29:54.414766,181825.640625,177536.34375,175189.3125,206977.078125,174091.84375,163188.125,683870.25,164504.640625,-0.0556640625,1.005126953125,-0.140869140625,-2.349853277206421,-1.0986326932907104,0.1525878757238388,100.0,20345.0,1.0
15:29:54.414780,181848.96875,177544.921875,175203.625,207071.40625,174106.859375,163187.5,683806.4375,164531.828125,-0.056396484375,1.00537109375,-0.139892578125,-2.441406011581421,-1.1291502714157104,0.1831054538488388,100.0,20346.0,1.0
15:29:54.422896,181856.390625,177546.703125,175213.453125,207129.953125,174119.734375,163193.9375,683856.5,164581.359375,-0.0556640625,1.00537109375,-0.14111328125,-2.655029058456421,-1.0070799589157104,0.1831054538488388,100.0,20347.0,1.0
15:29:54.428379,181876.6875,177561.1875,175231.6875,207149.625,174134.765625,163212.796875,683891.8125,164592.265625,-0.0537109375,1.0048828125,-0.137939453125,-2.716064214706421,-1.0070799589157104,0.3662109076976776,100.0,20348.0,1.0
15:29:54.428403,181843.34375,177547.609375,175205.3125,207012.84375,174106.0625,163198.59375,683863.8125,164525.03125,-0.054443359375,1.0048828125,-0.13623046875,-2.807616949081421,-0.8850097060203552,0.3967284858226776,100.0,20349.0,1.0
15:29:54.430298,181843.15625,177544.921875,175196.734375,207029.375,174096.671875,163182.140625,683839.0625,164515.375,-0.055419921875,1.00537109375,-0.139404296875,-2.960204839706421,-0.7629393935203552,0.3967284858226776,100.0,20350.0,1.0
15:29:54.434326,181835.828125,177524.171875,175189.046875,207093.84375,174094.4375,163170.25,683854.3125,164527.0,-0.0556640625,1.0048828125,-0.14013671875,-2.990722417831421,-0.7934569716453552,0.3967284858226776,100.0,20351.0,1.0
15:29:54.442810,181846.734375,177534.8125,175200.046875,207098.578125,174103.109375,163185.171875,683849.25,164534.15625,-0.05859375,1.003173828125,-0.14111328125,-3.021239995956421,-0.6408690810203552,0.3356933295726776,100.0,20352.0,1.0
15:29:54.447145,181890.09375,177584.96875,175249.125,207101.796875,174146.921875,163235.78125,683905.8125,164577.875,-0.054931640625,1.0029296875,-0.139404296875,-3.051757574081421,-0.4882812201976776,0.2746581733226776,100.0,20353.0,1.0
15:29:54.447155,181868.28125,177569.6875,175230.796875,207074.078125,174131.1875,163213.609375,683845.0625,164577.15625,-0.054443359375,1.002685546875,-0.140380859375,-3.173827886581421,-0.4882812201976776,0.1525878757238388,100.0,20354.0,1.0
15:29:54.464782,181827.25,177512.5625,175182.4375,207074.703125,174090.765625,163161.578125,683860.6875,164506.96875,-0.05322265625,1.00146484375,-0.14013671875,-3.173827886581421,-0.3967284858226776,0.1831054538488388,100.0,20355.0,1.0
15:29:54.464861,181870.875,177558.0625,175224.09375,207101.96875,174128.40625,163207.078125,683877.0625,164545.234375,-0.054443359375,1.003173828125,-0.14208984375,-3.265380620956421,-0.2441406100988388,0.1220703050494194,100.0,20356.0,1.0
15:29:54.465129,181879.109375,177579.515625,175235.546875,207087.40625,174135.75,163225.5,683905.3125,164543.09375,-0.0537109375,1.003173828125,-0.140625,-3.265380620956421,-0.1831054538488388,0.2136230319738388,100.0,20357.0,1.0
15:29:54.465142,181849.15625,177542.859375,175212.109375,207022.84375,174114.640625,163194.125,683834.0625,164536.203125,-0.0546875,1.003662109375,-0.138916015625,-3.295898199081421,-0.1220703050494194,0.1220703050494194,100.0,20358.0,1.0
15:29:54.469540,181825.1875,177512.90625,175184.84375,207090.359375,174095.59375,163161.65625,683880.1875,164537.09375,-0.054443359375,1.003173828125,-0.13720703125,-3.326415777206421,-0.03051757626235485,0.2441406100988388,100.0,20359.0,1.0
15:29:54.470287,181835.5625,177521.3125,175193.25,207076.578125,174102.03125,163176.0625,683862.625,164538.171875,-0.052978515625,1.001708984375,-0.138916015625,-3.356933355331421,0.0915527269244194,0.3051757514476776,100.0,20360.0,1.0
15:29:54.513347,181867.5625,177559.21875,175224.625,207100.640625,174126.0,163213.15625,683897.3125,164540.5,-0.051025390625,1.00341796875,-0.140380859375,-3.295898199081421,0.2136230319738388,0.2746581733226776,100.0,20361.0,1.0
15:29:54.513360,181851.203125,177550.109375,175215.78125,207000.5,174116.703125,163203.328125,683859.3125,164533.171875,-0.05322265625,1.001708984375,-0.13818359375,-3.326415777206421,0.2746581733226776,0.4272460639476776,100.0,20362.0,1.0
15:29:54.530647,181841.375,177524.8125,175202.640625,207108.6875,174111.25,163173.90625,683862.0,164571.34375,-0.052490234375,1.000732421875,-0.138671875,-3.326415777206421,0.3662109076976776,0.5187987685203552,100.0,20363.0,1.0
15:29:54.533335,181832.171875,177520.78125,175191.109375,207073.359375,174099.359375,163173.90625,683837.0,164532.1875,-0.05224609375,0.998779296875,-0.136474609375,-3.265380620956421,0.4577636420726776,0.5187987685203552,100.0,20364.0,1.0
15:29:54.533346,181857.734375,177547.328125,175217.203125,207103.765625,174120.546875,163200.546875,683877.75,164547.65625,-0.0537109375,0.99951171875,-0.13623046875,-3.173827886581421,0.5493163466453552,0.5798339247703552,100.0,20365.0,1.0
15:29:54.535289,181878.296875,177573.0,175242.25,207038.40625,174140.75,163223.625,683861.3125,164555.703125,-0.0556640625,0.997802734375,-0.139404296875,-3.173827886581421,0.5798339247703552,0.5493163466453552,100.0,20366.0,1.0
15:29:54.537775,181863.546875,177546.796875,175225.34375,207119.140625,174132.875,163197.609375,683813.5625,164579.125,-0.05712890625,0.9990234375,-0.137451171875,-3.143310308456421,0.5798339247703552,0.5493163466453552,100.0,20367.0,1.0
15:29:54.540287,181847.359375,177534.375,175207.828125,207106.984375,174116.34375,163184.640625,683820.875,164579.390625,-0.057861328125,0.99853515625,-0.1376953125,-3.082275152206421,0.6713866591453552,0.6408690810203552,100.0,20368.0,1.0
15:29:54.542881,181866.140625,177557.703125,175224.359375,207124.328125,174129.125,163212.984375,683868.3125,164553.46875,-0.058837890625,0.99853515625,-0.13623046875,-2.929687261581421,0.6103515028953552,0.6713866591453552,100.0,20369.0,1.0
15:29:54.545325,181857.203125,177561.015625,175220.78125,207012.84375,174122.78125,163215.578125,683855.5,164521.546875,-0.06005859375,0.998291015625,-0.137939453125,-2.960204839706421,0.6103515028953552,0.7324218153953552,100.0,20370.0,1.0
15:29:54.547931,181857.203125,177551.359375,175217.84375,207085.875,174125.28125,163198.671875,683822.4375,164554.265625,-0.059326171875,0.99853515625,-0.13720703125,-2.807616949081421,0.4882812201976776,0.8239745497703552,100.0,20371.0,1.0
15:29:54.553217,181845.125,177535.796875,175204.0625,207105.734375,174114.734375,163185.0,683846.8125,164553.109375,-0.060302734375,0.998779296875,-0.13916015625,-2.716064214706421,0.4882812201976776,0.7629393935203552,100.0,20372.0,1.0
15:29:54.557887,181863.09375,177551.71875,175221.234375,207119.59375,174128.859375,163206.453125,683868.625,164551.859375,-0.060302734375,0.998779296875,-0.138916015625,-2.716064214706421,0.6103515028953552,0.8239745497703552,100.0,20373.0,1.0
15:29:54.560377,181871.59375,177574.0625,175239.296875,207057.09375,174141.46875,163228.453125,683870.9375,164552.125,-0.06005859375,0.99951171875,-0.138916015625,-2.655029058456421,0.4577636420726776,0.6713866591453552,100.0,20374.0,1.0
15:29:54.562831,181856.65625,177554.75,175224.09375,207072.03125,174131.1875,163204.9375,683849.25,164561.15625,-0.060546875,1.00244140625,-0.134521484375,-2.624511480331421,0.4882812201976776,0.7019042372703552,100.0,20375.0,1.0
15:29:54.569116,181852.109375,177538.21875,175215.25,207135.0625,174125.8125,163187.953125,683883.9375,164573.3125,-0.06201171875,1.00439453125,-0.13525390625,-2.593993902206421,0.3356933295726776,0.7019042372703552,100.0,20376.0,1.0
15:29:54.576519,181853.09375,177540.265625,175214.96875,207114.84375,174122.15625,163194.921875,683864.1875,164555.96875,-0.06201171875,1.002197265625,-0.136962890625,-2.593993902206421,0.3051757514476776,0.7019042372703552,100.0,20377.0,1.0
15:29:54.580269,181875.078125,177572.375,175239.828125,207078.546875,174142.53125,163225.671875,683890.1875,164561.0625,-0.063232421875,1.003662109375,-0.13525390625,-2.563476324081421,0.1831054538488388,0.7019042372703552,100.0,20378.0,1.0
15:29:54.580276,181854.96875,177552.25,175222.390625,207033.9375,174129.84375,163203.421875,683824.625,164554.53125,-0.063232421875,1.00244140625,-0.13427734375,-2.624511480331421,0.0915527269244194,0.6408690810203552,100.0,20379.0,1.0
15:29:54.580277,181847.546875,177534.734375,175210.140625,207111.09375,174122.421875,163182.9375,683856.1875,164560.53125,-0.061279296875,1.00244140625,-0.138671875,-2.502441167831421,0.0610351525247097,0.7019042372703552,100.0,20380.0,1.0
15:29:54.582797,181866.5,177554.21875,175226.78125,207121.46875,174134.046875,163205.65625,683874.375,164563.5625,-0.0615234375,1.000244140625,-0.138671875,-2.532958745956421,-0.03051757626235485,0.7629393935203552,100.0,20381.0,1.0
15:29:54.585894,181879.1875,177575.671875,175240.453125,207091.25,174143.25,163227.28125,683914.875,164554.265625,-0.060302734375,1.00244140625,-0.140380859375,-2.502441167831421,-0.0915527269244194,0.7324218153953552,100.0,20382.0,1.0
15:29:54.585914,181881.34375,177581.3125,175245.28125,207044.046875,174147.90625,163230.140625,683861.0625,164569.546875,-0.058349609375,1.000732421875,-0.1376953125,-2.380370855331421,-0.1525878757238388,0.8850097060203552,100.0,20383.0,1.0
15:29:54.587953,181855.234375,177541.703125,175213.640625,207117.796875,174124.390625,163189.46875,683854.6875,164569.546875,-0.05810546875,1.0009765625,-0.135986328125,-2.288818120956421,-0.1220703050494194,0.9765624403953552,100.0,20384.0,1.0
15:29:54.592801,181841.015625,177527.21875,175197.265625,207082.65625,174105.703125,163181.15625,683839.5,164533.609375,-0.05712890625,1.00146484375,-0.139404296875,-2.288818120956421,-0.1831054538488388,1.0375975370407104,100.0,20385.0,1.0
15:29:54.595347,181874.453125,177561.546875,175230.71875,207111.625,174133.59375,163214.953125,683891.8125,164563.203125,-0.05859375,1.001708984375,-0.140625,-2.288818120956421,-0.3051757514476776,1.0070799589157104,100.0,20386.0,1.0
15:29:54.600360,181878.03125,177577.28125,175241.171875,207039.03125,174144.328125,163229.171875,683853.5625,164568.296875,-0.0576171875,0.999755859375,-0.13818359375,-2.197265386581421,-0.2746581733226776,0.9460448622703552,100.0,20387.0,1.0
15:29:54.603333,181860.328125,177546.984375,175222.390625,207136.484375,174134.671875,163198.859375,683870.4375,164595.03125,-0.057861328125,0.998291015625,-0.13671875,-2.166747808456421,-0.3356933295726776,0.9765624403953552,100.0,20388.0,1.0
15:29:54.603338,181849.0625,177536.875,175207.640625,207107.875,174118.3125,163190.453125,683856.8125,164558.828125,-0.057861328125,0.998046875,-0.138671875,-2.136230230331421,-0.3662109076976776,0.9765624403953552,100.0,20389.0,1.0
15:29:54.607891,181871.0625,177560.5625,175225.609375,207115.125,174129.84375,163212.453125,683897.3125,164541.03125,-0.057373046875,0.99853515625,-0.137939453125,-2.044677495956421,-0.4577636420726776,0.9460448622703552,100.0,20390.0,1.0
15:29:54.610305,181866.9375,177570.140625,175229.90625,207016.5,174131.546875,163219.953125,683859.5,164543.453125,-0.05712890625,1.001220703125,-0.138916015625,-1.9836424589157104,-0.4272460639476776,0.9460448622703552,100.0,20391.0,1.0
15:29:54.615897,181852.375,177537.59375,175213.640625,207116.453125,174122.25,163185.4375,683828.5,164567.9375,-0.055419921875,1.00146484375,-0.138427734375,-1.9836424589157104,-0.4882812201976776,0.9460448622703552,100.0,20392.0,1.0
15:29:54.615909,181861.3125,177547.875,175218.46875,207126.03125,174126.453125,163197.0625,683848.875,164570.71875,-0.058349609375,1.0029296875,-0.135498046875,-1.9226073026657104,-0.4577636420726776,0.7629393935203552,100.0,20393.0,1.0
15:29:54.620505,181854.34375,177545.015625,175210.140625,207104.203125,174117.0625,163199.296875,683883.0625,164535.125,-0.05908203125,1.00341796875,-0.134521484375,-1.9226073026657104,-0.5798339247703552,0.7629393935203552,100.0,20394.0,1.0
15:29:54.622861,181848.34375,177549.578125,175210.5,207005.140625,174115.359375,163202.96875,683854.875,164526.640625,-0.059814453125,1.003173828125,-0.13525390625,-1.9226073026657104,-0.5493163466453552,0.5798339247703552,100.0,20395.0,1.0
15:29:54.636510,181835.109375,177528.296875,175194.859375,207056.28125,174108.390625,163180.96875,683823.3125,164535.578125,-0.06005859375,1.00244140625,-0.137451171875,-1.9226073026657104,-0.4577636420726776,0.4577636420726776,100.0,20396.0,1.0
15:29:54.641520,181828.953125,177517.03125,175184.484375,207075.0625,174100.34375,163171.59375,683850.75,164538.0,-0.060302734375,1.001953125,-0.136962890625,-1.8920897245407104,-0.5187987685203552,0.4882812201976776,100.0,20397.0,1.0
15:29:54.646517,181827.78125,177516.765625,175182.609375,207078.734375,174095.59375,163177.046875,683856.9375,164515.375,-0.057373046875,1.00341796875,-0.135498046875,-1.9531248807907104,-0.5187987685203552,0.4272460639476776,100.0,20398.0,1.0
15:29:54.649025,181843.15625,177544.109375,175203.625,207022.578125,174110.4375,163201.53125,683878.5625,164521.0,-0.05810546875,1.001953125,-0.138671875,-1.8310545682907104,-0.6103515028953552,0.3356933295726776,100.0,20399.0,1.0
15:29:54.651751,181839.140625,177535.265625,175198.609375,207047.890625,174110.359375,163186.875,683855.6875,164539.328125,-0.05712890625,1.00341796875,-0.136474609375,-1.7700194120407104,-0.6103515028953552,0.2746581733226776,100.0,20400.0,1.0
15:29:54.659637,181823.40625,177511.578125,175180.828125,207086.953125,174096.859375,163165.0625,683894.375,164536.390625,-0.056396484375,1.003662109375,-0.138671875,-1.7395018339157104,-0.6103515028953552,0.1831054538488388,100.0,20401.0,1.0
15:29:54.659650,181839.859375,177527.75,175193.703125,207085.609375,174106.953125,163184.1875,683880.0,164536.109375,-0.05517578125,1.003173828125,-0.1357421875,-1.6784666776657104,-0.6103515028953552,0.1831054538488388,100.0,20402.0,1.0
15:29:54.692506,181847.625,177543.671875,175207.28125,207048.15625,174115.984375,163201.984375,683903.0625,164531.015625,-0.0556640625,1.003173828125,-0.136962890625,-1.7089842557907104,-0.5187987685203552,0.3051757514476776,100.0,20403.0,1.0
15:29:54.692518,181842.71875,177540.1875,175203.359375,207032.78125,174115.453125,163195.09375,683836.75,164540.9375,-0.055419921875,1.00341796875,-0.135009765625,-1.5869139432907104,-0.5798339247703552,0.3967284858226776,100.0,20404.0,1.0
15:29:54.697830,181838.515625,177518.640625,175193.515625,207139.96875,174110.625,163169.625,683847.4375,164585.921875,-0.05615234375,1.00244140625,-0.135986328125,-1.6479490995407104,-0.5493163466453552,0.5493163466453552,100.0,20405.0,1.0
15:29:54.700939,181832.96875,177520.0625,175185.03125,207097.140625,174099.171875,163174.984375,683846.625,164543.984375,-0.05517578125,1.003173828125,-0.133544921875,-1.6784666776657104,-0.4577636420726776,0.6408690810203552,100.0,20406.0,1.0
15:29:54.702821,181841.46875,177539.109375,175195.125,207063.53125,174105.25,163195.8125,683882.5625,164507.78125,-0.056640625,1.00341796875,-0.1318359375,-1.7395018339157104,-0.4577636420726776,0.7324218153953552,100.0,20407.0,1.0
15:29:54.705303,181821.53125,177525.609375,175181.0,206976.09375,174094.265625,163181.953125,683828.75,164499.28125,-0.05615234375,1.003173828125,-0.13330078125,-1.7395018339157104,-0.3051757514476776,0.7934569716453552,100.0,20408.0,1.0
15:29:54.731650,181810.53125,177497.53125,175163.296875,207075.328125,174083.34375,163151.65625,683882.25,164518.765625,-0.055908203125,1.003662109375,-0.135009765625,-1.8310545682907104,-0.2441406100988388,0.7324218153953552,100.0,20409.0,1.0
15:29:54.734637,181823.9375,177509.96875,175175.71875,207088.921875,174094.078125,163166.765625,683852.4375,164541.5625,-0.05712890625,1.001953125,-0.13525390625,-1.8005369901657104,-0.3356933295726776,0.8239745497703552,100.0,20410.0,1.0
15:29:54.734658,181849.0625,177543.84375,175202.453125,207106.453125,174116.15625,163199.75,683886.625,164550.15625,-0.057373046875,1.003173828125,-0.13330078125,-1.6174315214157104,-0.2746581733226776,0.9155272841453552,100.0,20411.0,1.0
15:29:54.736491,181816.78125,177524.8125,175174.203125,206964.375,174087.828125,163181.953125,683837.0,164481.125,-0.056884765625,1.00341796875,-0.134765625,-1.7395018339157104,-0.2746581733226776,0.7629393935203552,100.0,20412.0,1.0
15:29:54.739135,181804.453125,177495.390625,175157.75,207058.609375,174078.609375,163151.921875,683849.6875,164502.953125,-0.057373046875,1.00390625,-0.13525390625,-1.6479490995407104,-0.3967284858226776,0.8850097060203552,100.0,20413.0,1.0
15:29:54.741532,181814.734375,177502.1875,175165.53125,207070.140625,174085.046875,163159.34375,683848.375,164524.140625,-0.05712890625,1.00341796875,-0.1328125,-1.6479490995407104,-0.3051757514476776,0.8544921278953552,100.0,20414.0,1.0
15:29:54.744021,181838.515625,177526.953125,175187.890625,207109.75,174101.140625,163183.65625,683887.6875,164536.390625,-0.056884765625,1.006103515625,-0.13232421875,-1.7395018339157104,-0.3051757514476776,0.8239745497703552,100.0,20415.0,1.0
15:29:54.746525,181823.140625,177525.703125,175181.0,206980.203125,174093.0,163183.921875,683848.6875,164503.125,-0.05517578125,1.007568359375,-0.1298828125,-1.8005369901657104,-0.3051757514476776,0.7324218153953552,100.0,20416.0,1.0
15:29:54.749035,181814.375,177499.953125,175168.21875,207061.5625,174088.8125,163156.03125,683868.0,164522.96875,-0.056884765625,1.006591796875,-0.131103515625,-1.9226073026657104,-0.1525878757238388,0.7324218153953552,100.0,20417.0,1.0
15:29:54.754030,181810.96875,177500.21875,175164.453125,207064.6875,174087.015625,163157.109375,683873.1875,164532.8125,-0.056396484375,1.006591796875,-0.1318359375,-1.8920897245407104,-0.1525878757238388,0.7324218153953552,100.0,20418.0,1.0
15:29:54.756498,181835.5625,177522.125,175185.109375,207103.3125,174102.3125,163180.796875,683901.125,164538.171875,-0.05615234375,1.005859375,-0.131591796875,-2.014159917831421,-0.1220703050494194,0.6408690810203552,100.0,20419.0,1.0
15:29:54.761681,181835.296875,177530.53125,175192.890625,207020.171875,174105.4375,163189.375,683886.8125,164541.125,-0.05419921875,1.00537109375,-0.13330078125,-2.014159917831421,-0.1525878757238388,0.5493163466453552,100.0,20420.0,1.0
15:29:54.761692,181809.1875,177501.921875,175164.28125,207046.1875,174084.421875,163156.65625,683830.0,164519.84375,-0.0556640625,1.005126953125,-0.138427734375,-2.075195074081421,0.0610351525247097,0.4882812201976776,100.0,20421.0,1.0
15:29:54.761694,181808.65625,177490.5625,175159.359375,207067.734375,174082.90625,163149.234375,683875.4375,164515.734375,-0.053955078125,1.003662109375,-0.13330078125,-2.105712652206421,0.0,0.6103515028953552,100.0,20422.0,1.0
15:29:54.767472,181842.71875,177523.734375,175190.65625,207112.53125,174109.015625,163183.296875,683887.4375,164542.203125,-0.05224609375,1.001953125,-0.133544921875,-2.044677495956421,0.0,0.6103515028953552,100.0,20423.0,1.0
15:29:54.767509,181845.484375,177541.53125,175200.671875,207045.5625,174113.484375,163198.671875,683878.5625,164547.203125,-0.051513671875,1.0,-0.133056640625,-2.044677495956421,0.0915527269244194,0.5493163466453552,100.0,20424.0,1.0
15:29:54.767514,181834.84375,177524.265625,175190.125,207050.296875,174107.40625,163180.96875,683839.375,164543.359375,-0.05224609375,0.99853515625,-0.13623046875,-2.014159917831421,0.1220703050494194,0.7324218153953552,100.0,20425.0,1.0
15:29:54.769040,181803.828125,177488.421875,175156.0625,207067.203125,174078.4375,163146.640625,683870.0625,164514.5625,-0.052734375,0.998291015625,-0.134033203125,-2.014159917831421,0.2441406100988388,0.5798339247703552,100.0,20426.0,1.0
15:29:54.778030,181826.265625,177511.125,175176.984375,207109.125,174095.59375,163172.125,683865.75,164542.015625,-0.053466796875,0.998291015625,-0.132080078125,-1.9226073026657104,0.3051757514476776,0.6408690810203552,100.0,20427.0,1.0
15:29:54.781002,181828.953125,177520.421875,175184.671875,207049.5,174098.1875,163184.8125,683878.75,164526.640625,-0.0546875,1.00048828125,-0.132568359375,-1.8310545682907104,0.3967284858226776,0.6103515028953552,100.0,20428.0,1.0
15:29:54.781043,181815.453125,177514.078125,175170.984375,206988.96875,174087.015625,163171.671875,683823.0625,164500.796875,-0.0537109375,1.001708984375,-0.133056640625,-1.7700194120407104,0.4577636420726776,0.6103515028953552,100.0,20429.0,1.0
15:29:54.783522,181810.53125,177496.640625,175161.15625,207086.0625,174082.09375,163152.8125,683857.625,164523.328125,-0.05419921875,1.001708984375,-0.131591796875,-1.8005369901657104,0.4882812201976776,0.5798339247703552,100.0,20430.0,1.0
15:29:54.783528,181827.6875,177514.25,175174.921875,207090.078125,174092.296875,163173.828125,683840.6875,164535.125,-0.05517578125,1.00244140625,-0.1318359375,-1.6784666776657104,0.4882812201976776,0.6103515028953552,100.0,20431.0,1.0
15:29:54.785976,181825.453125,177525.078125,175176.796875,207054.953125,174092.296875,163186.421875,683867.375,164520.828125,-0.056884765625,1.004150390625,-0.132080078125,-1.6784666776657104,0.4882812201976776,0.5187987685203552,100.0,20432.0,1.0
15:29:54.785985,181820.71875,177520.609375,175175.90625,206998.078125,174091.125,163181.875,683826.0625,164521.09375,-0.05859375,1.002197265625,-0.1328125,-1.6784666776657104,0.6103515028953552,0.5187987685203552,100.0,20433.0,1.0
15:29:54.787887,181804.453125,177490.203125,175154.453125,207088.390625,174077.8125,163149.140625,683837.625,164541.21875,-0.05859375,1.003173828125,-0.1337890625,-1.7089842557907104,0.5493163466453552,0.5493163466453552,100.0,20434.0,1.0
15:29:54.790313,181808.921875,177491.09375,175153.28125,207064.25,174073.96875,163153.53125,683821.8125,164510.640625,-0.05810546875,1.001708984375,-0.13232421875,-1.6174315214157104,0.7019042372703552,0.6408690810203552,100.0,20435.0,1.0
15:29:54.792850,181831.8125,177520.609375,175178.765625,207089.546875,174094.265625,163184.1875,683877.0625,164521.453125,-0.05810546875,1.003662109375,-0.1337890625,-1.6479490995407104,0.6713866591453552,0.6408690810203552,100.0,20436.0,1.0
15:29:54.795851,181823.21875,177525.78125,175175.546875,206996.75,174090.6875,163184.546875,683842.375,164521.28125,-0.05859375,1.00537109375,-0.1328125,-1.6784666776657104,0.6408690810203552,0.6408690810203552,100.0,20437.0,1.0
15:29:54.795860,181802.21875,177486.984375,175147.5625,207061.03125,174070.65625,163146.1875,683893.9375,164505.8125,-0.05859375,1.00390625,-0.134765625,-1.6479490995407104,0.7324218153953552,0.5798339247703552,100.0,20438.0,1.0
15:29:54.797920,181811.15625,177493.515625,175155.515625,207070.953125,174076.46875,163154.875,683879.9375,164526.90625,-0.058349609375,1.005615234375,-0.1357421875,-1.6479490995407104,0.6713866591453552,0.4882812201976776,100.0,20439.0,1.0
15:29:54.800401,181822.234375,177515.953125,175165.890625,207071.75,174081.5625,163175.515625,683876.3125,164513.765625,-0.057861328125,1.00732421875,-0.134765625,-1.6784666776657104,0.6408690810203552,0.4882812201976776,100.0,20440.0,1.0
15:29:54.805882,181818.390625,177520.953125,175167.765625,206978.328125,174080.671875,163179.71875,683850.5625,164491.140625,-0.059814453125,1.0068359375,-0.137451171875,-1.7089842557907104,0.5493163466453552,0.4882812201976776,100.0,20441.0,1.0
15:29:54.805891,181811.78125,177494.9375,175156.234375,207070.59375,174077.0,163154.15625,683856.0625,164522.34375,-0.06005859375,1.007568359375,-0.134765625,-1.7700194120407104,0.5798339247703552,0.5187987685203552,100.0,20442.0,1.0
15:29:54.807848,181802.390625,177485.90625,175146.125,207062.28125,174069.578125,163147.625,683862.625,164524.9375,-0.06005859375,1.007080078125,-0.13037109375,-1.8310545682907104,0.4882812201976776,0.5493163466453552,100.0,20443.0,1.0
15:29:54.810837,181809.90625,177497.984375,175153.546875,207063.890625,174074.40625,163163.359375,683894.9375,164499.546875,-0.060546875,1.007080078125,-0.131591796875,-1.9226073026657104,0.4272460639476776,0.5798339247703552,100.0,20444.0,1.0
15:29:54.810847,181830.640625,177529.546875,175177.421875,206997.640625,174091.125,163191.25,683887.25,164500.4375,-0.06103515625,1.006591796875,-0.1337890625,-1.8920897245407104,0.3356933295726776,0.7629393935203552,100.0,20445.0,1.0
15:29:54.814041,181814.375,177506.203125,175160.890625,207050.65625,174081.921875,163164.171875,683834.0625,164523.6875,-0.0615234375,1.00390625,-0.13623046875,-1.9531248807907104,0.3662109076976776,0.6713866591453552,100.0,20446.0,1.0
15:29:54.829633,181805.875,177489.84375,175150.609375,207101.96875,174073.78125,163150.671875,683867.6875,164538.703125,-0.0595703125,1.001708984375,-0.135986328125,-1.9531248807907104,0.2746581733226776,0.6713866591453552,100.0,20447.0,1.0
15:29:54.829644,181807.046875,177496.90625,175147.65625,207067.640625,174068.234375,163161.390625,683880.1875,164494.0,-0.059814453125,1.001708984375,-0.13427734375,-1.8920897245407104,0.2136230319738388,0.7019042372703552,100.0,20448.0,1.0
15:29:54.837229,181821.53125,177525.96875,175166.515625,206998.078125,174082.375,163189.203125,683887.625,164493.109375,-0.058349609375,1.002685546875,-0.1318359375,-1.9531248807907104,0.2441406100988388,0.6713866591453552,100.0,20449.0,1.0
15:29:54.837242,181812.671875,177512.109375,175158.828125,207018.109375,174080.578125,163174.359375,683819.5625,164512.78125,-0.05859375,1.00390625,-0.134765625,-1.8615721464157104,0.2136230319738388,0.7629393935203552,100.0,20450.0,1.0
15:29:54.861549,181799.890625,177488.0625,175141.125,207066.75,174066.625,163147.71875,683840.375,164508.75,-0.05859375,1.00341796875,-0.13330078125,-1.9226073026657104,0.0610351525247097,0.7629393935203552,100.0,20451.0,1.0
15:29:54.890924,181813.921875,177497.171875,175152.5625,207082.578125,174074.5,163161.3125,683852.125,164513.9375,-0.05712890625,1.003662109375,-0.134765625,-1.9226073026657104,0.0610351525247097,0.8544921278953552,100.0,20452.0,1.0
15:29:54.890934,181815.453125,177512.109375,175159.8125,207016.859375,174077.0,163177.390625,683870.875,164495.53125,-0.057373046875,1.00439453125,-0.134521484375,-1.9226073026657104,0.1220703050494194,0.9460448622703552,100.0,20453.0,1.0
15:29:54.896607,181814.734375,177520.609375,175160.4375,206994.0625,174079.59375,163176.234375,683834.0625,164513.859375,-0.056640625,1.003173828125,-0.13671875,-1.8920897245407104,0.0610351525247097,0.9155272841453552,100.0,20454.0,1.0
15:29:54.901498,181796.21875,177484.03125,175138.359375,207069.609375,174063.59375,163144.046875,683896.4375,164510.09375,-0.056396484375,1.00146484375,-0.135009765625,-1.8615721464157104,0.0915527269244194,0.8239745497703552,100.0,20455.0,1.0
15:29:54.901512,181810.96875,177490.03125,175150.609375,207069.796875,174071.640625,163155.578125,683865.875,164510.359375,-0.054931640625,1.00244140625,-0.132080078125,-1.7089842557907104,-0.03051757626235485,1.0070799589157104,100.0,20456.0,1.0
15:29:54.901513,181825.734375,177519.703125,175168.9375,207055.3125,174085.9375,163183.75,683893.9375,164511.796875,-0.05517578125,1.00341796875,-0.1337890625,-1.8005369901657104,0.0610351525247097,0.8850097060203552,100.0,20457.0,1.0
15:29:54.904113,181820.625,177522.390625,175169.203125,206994.421875,174088.265625,163185.53125,683838.625,164511.34375,-0.056884765625,1.00244140625,-0.130615234375,-1.7700194120407104,0.0610351525247097,0.8239745497703552,100.0,20458.0,1.0
15:29:54.909596,181810.265625,177497.359375,175153.46875,207080.875,174080.484375,163158.171875,683852.4375,164524.046875,-0.0556640625,1.00244140625,-0.1337890625,-1.7700194120407104,0.0,0.9155272841453552,100.0,20459.0,1.0
15:29:54.909604,181817.328125,177503.34375,175159.625,207081.40625,174084.875,163166.21875,683848.375,164537.375,-0.056640625,1.001953125,-0.13818359375,-1.8615721464157104,0.1220703050494194,0.9460448622703552,100.0,20460.0,1.0
15:29:54.911770,181827.875,177521.671875,175169.203125,207077.828125,174089.15625,163183.5625,683876.5,164507.953125,-0.054931640625,1.001953125,-0.136962890625,-1.8005369901657104,0.1525878757238388,0.9155272841453552,100.0,20461.0,1.0
15:29:54.914009,181817.328125,177519.796875,175164.109375,206970.8125,174083.4375,163182.859375,683834.9375,164489.359375,-0.05517578125,1.003662109375,-0.13525390625,-1.8615721464157104,0.1525878757238388,0.9460448622703552,100.0,20462.0,1.0
15:29:54.916625,181808.375,177495.03125,175149.703125,207067.90625,174074.40625,163153.171875,683823.9375,164514.75,-0.054931640625,1.00341796875,-0.134765625,-1.9226073026657104,0.0610351525247097,0.9155272841453552,100.0,20463.0,1.0
15:29:54.919169,181809.90625,177493.25,175148.1875,207064.609375,174070.65625,163154.15625,683829.5625,164514.5625,-0.052978515625,1.004150390625,-0.13232421875,-1.9226073026657104,-0.03051757626235485,1.0070799589157104,100.0,20464.0,1.0
15:29:54.921560,181832.96875,177517.828125,175170.0,207087.84375,174088.265625,163182.5,683874.75,164522.703125,-0.0537109375,1.00390625,-0.132568359375,-1.9226073026657104,0.0915527269244194,1.0681151151657104,100.0,20465.0,1.0
15:29:54.924101,181835.390625,177531.78125,175179.484375,207001.75,174094.34375,163194.828125,683840.8125,164519.671875,-0.05419921875,1.003173828125,-0.13134765625,-2.014159917831421,0.1525878757238388,0.9765624403953552,100.0,20466.0,1.0
15:29:54.926535,181812.671875,177500.84375,175153.640625,207060.671875,174077.265625,163160.671875,683840.8125,164515.828125,-0.0546875,1.001708984375,-0.13232421875,-1.8920897245407104,0.1220703050494194,0.9460448622703552,100.0,20467.0,1.0
15:29:54.929111,181810.265625,177492.96875,175147.734375,207065.9375,174070.03125,163153.53125,683849.9375,164507.421875,-0.052734375,1.00390625,-0.131591796875,-1.8310545682907104,0.1831054538488388,0.9765624403953552,100.0,20468.0,1.0
15:29:54.931509,181822.421875,177503.96875,175159.453125,207085.53125,174077.546875,163168.546875,683872.5,164508.9375,-0.053955078125,1.0029296875,-0.13037109375,-1.9226073026657104,0.1831054538488388,0.9155272841453552,100.0,20469.0,1.0
15:29:54.934625,181832.25,177532.21875,175175.453125,206994.515625,174092.109375,163193.046875,683860.75,164504.90625,-0.052978515625,1.0029296875,-0.13037109375,-1.9226073026657104,0.2441406100988388,0.9460448622703552,100.0,20470.0,1.0
15:29:54.934640,181820.90625,177510.046875,175162.140625,207048.6875,174088.0,163168.015625,683847.125,164519.046875,-0.054443359375,1.00146484375,-0.13134765625,-1.9531248807907104,0.3051757514476776,0.9460448622703552,100.0,20471.0,1.0
15:29:54.936509,181801.671875,177481.625,175141.125,207069.4375,174070.203125,163142.703125,683868.375,164515.640625,-0.052734375,1.0,-0.133544921875,-1.9836424589157104,0.3662109076976776,0.8544921278953552,100.0,20472.0,1.0
15:29:54.939139,181821.890625,177503.171875,175158.921875,207087.3125,174081.46875,163167.296875,683877.25,164516.53125,-0.051025390625,0.999267578125,-0.13525390625,-1.9226073026657104,0.3662109076976776,0.8850097060203552,100.0,20473.0,1.0
15:29:54.970934,181837.890625,177534.640625,175179.921875,207030.625,174096.046875,163194.65625,683883.125,164519.390625,-0.051025390625,1.000732421875,-0.1357421875,-1.8615721464157104,0.4577636420726776,0.8850097060203552,100.0,20474.0,1.0
15:29:54.970948,181825.640625,177518.375,175168.484375,207037.15625,174090.234375,163175.875,683835.5625,164529.234375,-0.053955078125,1.001708984375,-0.13671875,-1.8615721464157104,0.6103515028953552,0.8544921278953552,100.0,20475.0,1.0
15:29:54.972806,181804.71875,177486.71875,175143.71875,207077.5625,174068.78125,163146.109375,683872.5625,164520.296875,-0.0537109375,1.000732421875,-0.134765625,-1.8310545682907104,0.6408690810203552,0.8544921278953552,100.0,20476.0,1.0
15:29:54.978363,181817.0625,177499.40625,175152.65625,207079.4375,174073.78125,163160.671875,683860.875,164511.96875,-0.054931640625,0.9990234375,-0.133544921875,-1.7395018339157104,0.6408690810203552,0.9155272841453552,100.0,20477.0,1.0
15:29:54.978371,181825.546875,177516.765625,175163.75,207031.609375,174081.03125,163178.109375,683882.5625,164504.828125,-0.05517578125,1.001708984375,-0.132568359375,-1.7395018339157104,0.5493163466453552,0.9155272841453552,100.0,20478.0,1.0
15:29:54.980391,181812.234375,177505.140625,175153.640625,206992.71875,174073.25,163163.625,683819.4375,164500.890625,-0.056396484375,1.000732421875,-0.13232421875,-1.7089842557907104,0.4882812201976776,0.8544921278953552,100.0,20479.0,1.0
15:29:54.982889,181806.6875,177487.703125,175143.890625,207081.5,174068.15625,163144.578125,683848.0,164520.296875,-0.054931640625,1.00341796875,-0.136474609375,-1.7700194120407104,0.5493163466453552,0.8544921278953552,100.0,20480.0,1.0
15:29:54.985585,181820.984375,177500.21875,175155.078125,207082.03125,174075.9375,163160.765625,683836.25,164523.953125,-0.055419921875,1.001220703125,-0.13525390625,-1.6174315214157104,0.6103515028953552,0.8850097060203552,100.0,20481.0,1.0
15:29:54.990369,181828.40625,177519.078125,175164.734375,207052.09375,174081.390625,163180.4375,683852.8125,164509.828125,-0.055419921875,1.001953125,-0.136962890625,-1.6784666776657104,0.6408690810203552,0.7324218153953552,100.0,20482.0,1.0
15:29:54.993482,181808.734375,177501.375,175150.15625,206982.171875,174068.0625,163162.734375,683830.75,164496.859375,-0.057373046875,1.00341796875,-0.134521484375,-1.6479490995407104,0.5187987685203552,0.8544921278953552,100.0,20483.0,1.0
15:29:54.993504,181795.78125,177476.078125,175132.453125,207070.140625,174057.328125,163133.59375,683880.25,164509.390625,-0.056884765625,1.002197265625,-0.136474609375,-1.6479490995407104,0.6103515028953552,0.8239745497703552,100.0,20484.0,1.0
15:29:54.995432,181805.875,177487.078125,175139.6875,207061.65625,174061.453125,163147.53125,683837.6875,164511.171875,-0.05712890625,1.0009765625,-0.134521484375,-1.6479490995407104,0.6408690810203552,0.7934569716453552,100.0,20485.0,1.0
15:29:54.997921,181813.84375,177497.796875,175148.453125,207066.390625,174065.46875,163160.40625,683860.875,164505.8125,-0.056396484375,1.00146484375,-0.134765625,-1.6479490995407104,0.5798339247703552,0.7934569716453552,100.0,20486.0,1.0
15:29:55.000377,181798.09375,177493.328125,175138.71875,206962.234375,174054.921875,163155.046875,683832.875,164493.5625,-0.0546875,1.004638671875,-0.134033203125,-1.6784666776657104,0.6103515028953552,0.7629393935203552,100.0,20487.0,1.0
15:29:55.003373,181786.5625,177470.171875,175120.296875,207052.09375,174044.109375,163127.78125,683866.125,164499.734375,-0.0556640625,1.00439453125,-0.130126953125,-1.7089842557907104,0.5798339247703552,0.8239745497703552,100.0,20488.0,1.0
15:29:55.003382,181785.3125,177465.96875,175116.1875,207042.875,174038.46875,163128.046875,683845.0625,164492.03125,-0.056640625,1.0048828125,-0.133056640625,-1.6784666776657104,0.5798339247703552,0.7934569716453552,100.0,20489.0,1.0
15:29:55.005331,181805.25,177490.203125,175135.21875,207061.203125,174053.9375,163152.71875,683870.1875,164486.3125,-0.056884765625,1.005126953125,-0.134033203125,-1.7395018339157104,0.4272460639476776,0.7934569716453552,100.0,20490.0,1.0
15:29:55.008433,181811.6875,177515.328125,175149.34375,206971.625,174066.1875,163174.09375,683853.4375,164488.375,-0.056640625,1.005615234375,-0.133056640625,-1.6479490995407104,0.4272460639476776,0.8239745497703552,100.0,20491.0,1.0
15:29:55.008440,181794.609375,177481.53125,175128.15625,207042.703125,174054.46875,163140.5625,683838.0,164499.015625,-0.0576171875,1.00537109375,-0.13232421875,-1.6784666776657104,0.3967284858226776,0.7629393935203552,100.0,20492.0,1.0
15:29:55.010303,181788.09375,177471.703125,175118.859375,207046.984375,174047.859375,163133.765625,683848.25,164497.21875,-0.0576171875,1.005126953125,-0.132568359375,-1.7700194120407104,0.4577636420726776,0.7934569716453552,100.0,20493.0,1.0
15:29:55.013405,181810.703125,177494.234375,175140.140625,207073.8125,174065.015625,163158.171875,683867.125,164501.421875,-0.0595703125,1.006103515625,-0.130126953125,-1.7700194120407104,0.3662109076976776,0.8850097060203552,100.0,20494.0,1.0
15:29:55.013411,181811.15625,177509.15625,175146.125,206982.53125,174067.4375,163171.40625,683851.5,164489.171875,-0.05859375,1.005859375,-0.12890625,-1.8615721464157104,0.2746581733226776,0.8239745497703552,100.0,20495.0,1.0
15:29:55.015330,181806.6875,177495.75,175139.25,207034.46875,174065.65625,163154.234375,683816.25,164505.359375,-0.05810546875,1.005859375,-0.13037109375,-1.8920897245407104,0.1831054538488388,0.7934569716453552,100.0,20496.0,1.0
15:29:55.026609,181800.0625,177478.9375,175129.859375,207065.59375,174057.875,163140.296875,683850.125,164506.703125,-0.05908203125,1.005126953125,-0.131103515625,-2.044677495956421,0.1831054538488388,0.7934569716453552,100.0,20497.0,1.0
15:29:55.026625,181819.734375,177497.171875,175146.3125,207082.65625,174069.140625,163159.515625,683846.8125,164506.796875,-0.057373046875,1.0048828125,-0.1328125,-2.105712652206421,0.1525878757238388,0.6408690810203552,100.0,20498.0,1.0
15:29:55.027978,181824.03125,177516.671875,175156.59375,207006.3125,174075.296875,163177.390625,683857.125,164491.953125,-0.05908203125,1.007080078125,-0.131103515625,-2.166747808456421,0.1525878757238388,0.7629393935203552,100.0,20499.0,1.0
15:29:55.031529,181812.578125,177501.375,175145.953125,207016.140625,174068.328125,163159.0625,683817.875,164500.265625,-0.058349609375,1.005859375,-0.130615234375,-2.319335699081421,0.0915527269244194,0.6103515028953552,100.0,20500.0,1.0
15:29:55.042238,181796.9375,177479.46875,175126.46875,207064.15625,174052.78125,163138.421875,683859.875,164501.0625,-0.058349609375,1.007080078125,-0.131103515625,-2.410888433456421,0.0610351525247097,0.7019042372703552,100.0,20501.0,1.0
15:29:55.042252,181804.0,177489.046875,175131.203125,207057.453125,174052.953125,163150.578125,683856.6875,164493.203125,-0.05712890625,1.00732421875,-0.1298828125,-2.502441167831421,0.0610351525247097,0.6713866591453552,100.0,20502.0,1.0
15:29:55.044693,181809.1875,177503.4375,175141.484375,207010.78125,174058.9375,163164.96875,683863.375,164487.03125,-0.05712890625,1.00537109375,-0.1318359375,-2.563476324081421,0.0,0.6713866591453552,100.0,20503.0,1.0
15:29:55.044762,181803.734375,177499.59375,175137.640625,206985.390625,174058.234375,163159.875,683810.875,164495.53125,-0.055908203125,1.005126953125,-0.1328125,-2.593993902206421,-0.0610351525247097,0.5798339247703552,100.0,20504.0,1.0
15:29:55.055337,181785.765625,177470.71875,175113.671875,207059.5,174040.4375,163129.921875,683867.9375,164496.421875,-0.056640625,1.00341796875,-0.131591796875,-2.502441167831421,-0.0610351525247097,0.6408690810203552,100.0,20505.0,1.0
15:29:55.058428,181786.921875,177472.953125,175114.296875,207045.203125,174038.375,163136.265625,683837.5,164487.125,-0.056396484375,1.0048828125,-0.13232421875,-2.563476324081421,-0.1220703050494194,0.6408690810203552,100.0,20506.0,1.0
15:29:55.058456,181804.984375,177496.640625,175135.21875,207033.125,174055.09375,163160.765625,683869.6875,164485.421875,-0.055908203125,1.00390625,-0.130126953125,-2.593993902206421,-0.1831054538488388,0.5798339247703552,100.0,20507.0,1.0
15:29:55.065337,181801.40625,177499.953125,175135.765625,206969.921875,174055.015625,163161.125,683813.1875,164486.671875,-0.055419921875,1.003662109375,-0.1318359375,-2.593993902206421,-0.2746581733226776,0.5798339247703552,100.0,20508.0,1.0
15:29:55.069646,181792.46875,177479.125,175120.828125,207065.046875,174046.6875,163137.609375,683837.375,164499.734375,-0.05517578125,1.003173828125,-0.13037109375,-2.563476324081421,-0.2136230319738388,0.5493163466453552,100.0,20509.0,1.0
15:29:55.069674,181793.71875,177479.03125,175118.953125,207046.09375,174042.671875,163139.765625,683827.8125,164493.5625,-0.056396484375,1.000732421875,-0.131591796875,-2.624511480331421,-0.0915527269244194,0.6408690810203552,100.0,20510.0,1.0
15:29:55.071615,181806.953125,177495.390625,175133.34375,207050.828125,174052.59375,163157.375,683869.875,164487.84375,-0.055419921875,0.999267578125,-0.132080078125,-2.593993902206421,-0.0610351525247097,0.6408690810203552,100.0,20511.0,1.0
15:29:55.084136,181815.0,177513.1875,175146.84375,206973.859375,174064.578125,163173.828125,683837.8125,164494.359375,-0.05615234375,0.998046875,-0.13134765625,-2.655029058456421,-0.1831054538488388,0.6408690810203552,100.0,20512.0,1.0
15:29:55.087098,181789.078125,177474.109375,175116.890625,207053.78125,174042.40625,163132.421875,683823.75,164497.40625,-0.055908203125,0.998779296875,-0.1328125,-2.593993902206421,-0.1220703050494194,0.6103515028953552,100.0,20513.0,1.0
15:29:55.087126,181795.0625,177478.140625,175121.28125,207048.6875,174046.0625,163139.046875,683824.8125,164501.34375,-0.05615234375,1.0,-0.132080078125,-2.502441167831421,-0.1831054538488388,0.6103515028953552,100.0,20514.0,1.0
15:29:55.089059,181815.625,177502.359375,175139.78125,207071.40625,174061.625,163166.40625,683878.9375,164500.078125,-0.054443359375,1.001953125,-0.129150390625,-2.441406011581421,-0.1525878757238388,0.5187987685203552,100.0,20515.0,1.0
15:29:55.107306,181817.40625,177517.109375,175146.765625,206978.234375,174065.46875,163177.046875,683853.6875,164492.671875,-0.0556640625,1.003173828125,-0.13232421875,-2.441406011581421,-0.03051757626235485,0.3662109076976776,100.0,20516.0,1.0
15:29:55.107352,181791.9375,177481.171875,175118.78125,207038.671875,174043.5625,163135.640625,683841.0,164491.953125,-0.052978515625,1.004150390625,-0.13232421875,-2.471923589706421,-0.0915527269244194,0.3967284858226776,100.0,20517.0,1.0
15:29:55.109818,181787.28125,177468.484375,175111.53125,207044.21875,174036.59375,163127.859375,683851.0,164491.953125,-0.0517578125,1.003173828125,-0.1318359375,-2.349853277206421,-0.03051757626235485,0.4272460639476776,100.0,20518.0,1.0
15:29:55.109871,181820.546875,177503.53125,175142.375,207078.546875,174063.140625,163163.546875,683867.375,164504.015625,-0.05224609375,1.001953125,-0.129638671875,-2.410888433456421,-0.1220703050494194,0.3051757514476776,100.0,20519.0,1.0
15:29:55.111739,181838.25,177541.796875,175168.75,206999.875,174085.40625,163198.671875,683868.5625,164507.140625,-0.052490234375,1.00390625,-0.130126953125,-2.288818120956421,-0.1525878757238388,0.3967284858226776,100.0,20520.0,1.0
15:29:55.115549,181830.640625,177525.34375,175161.421875,207052.984375,174084.15625,163177.75,683855.5,164529.671875,-0.052734375,1.0048828125,-0.12841796875,-2.319335699081421,-0.2136230319738388,0.2746581733226776,100.0,20521.0,1.0
15:29:55.124761,181828.5,177506.65625,175155.703125,207092.765625,174082.640625,163164.875,683872.75,164547.03125,-0.052490234375,1.00439453125,-0.130126953125,-2.319335699081421,-0.1220703050494194,0.3662109076976776,100.0,20522.0,1.0
15:29:55.124794,181832.25,177511.578125,175157.9375,207096.796875,174081.46875,163173.28125,683855.75,164530.84375,-0.050537109375,1.005859375,-0.12548828125,-2.319335699081421,-0.1220703050494194,0.2746581733226776,100.0,20523.0,1.0
15:29:55.134792,181840.921875,177537.953125,175171.703125,207024.8125,174089.96875,163195.546875,683863.5625,164517.703125,-0.050537109375,1.006591796875,-0.126708984375,-2.410888433456421,-0.1220703050494194,0.2441406100988388,100.0,20524.0,1.0
15:29:55.134813,181829.578125,177523.375,175160.4375,207030.359375,174082.640625,163179.90625,683821.875,164523.78125,-0.04931640625,1.00634765625,-0.127685546875,-2.471923589706421,-0.0610351525247097,0.3051757514476776,100.0,20525.0,1.0
15:29:55.139731,181805.171875,177488.0625,175131.203125,207072.109375,174059.21875,163147.359375,683873.5,164513.578125,-0.0498046875,1.00439453125,-0.127685546875,-2.532958745956421,0.0915527269244194,0.2441406100988388,100.0,20526.0,1.0
15:29:55.139747,181813.84375,177496.015625,175137.8125,207067.109375,174062.78125,163158.625,683867.375,164503.84375,-0.05126953125,1.002197265625,-0.12890625,-2.655029058456421,0.0915527269244194,0.2746581733226776,100.0,20527.0,1.0
15:29:55.141737,181831.71875,177531.328125,175160.265625,207031.96875,174080.578125,163191.703125,683872.75,164504.109375,-0.05078125,1.00244140625,-0.132080078125,-2.746581792831421,0.1525878757238388,0.2441406100988388,100.0,20528.0,1.0
15:29:55.148011,181810.703125,177505.765625,175142.015625,206994.234375,174065.296875,163164.078125,683824.625,164500.0,-0.051513671875,1.003173828125,-0.132080078125,-2.716064214706421,0.1525878757238388,0.2136230319738388,100.0,20529.0,1.0
15:29:55.160919,181811.15625,177491.09375,175136.296875,207083.828125,174064.9375,163145.84375,683860.3125,164522.34375,-0.0517578125,1.0029296875,-0.130615234375,-2.685546636581421,0.1525878757238388,0.1220703050494194,100.0,20530.0,1.0
15:29:55.160932,181813.03125,177496.375,175133.25,207063.171875,174058.578125,163152.0,683858.625,164498.03125,-0.052490234375,1.00439453125,-0.133056640625,-2.685546636581421,0.1525878757238388,0.0915527269244194,100.0,20531.0,1.0
15:29:55.167754,181825.546875,177514.078125,175148.015625,207051.640625,174071.28125,163173.015625,683921.0625,164495.53125,-0.05126953125,1.002197265625,-0.1318359375,-2.593993902206421,0.2136230319738388,0.1220703050494194,100.0,20532.0,1.0
15:29:55.167760,181835.203125,177529.1875,175164.015625,207001.390625,174087.90625,163188.84375,683867.8125,164513.234375,-0.052734375,1.002197265625,-0.1328125,-2.593993902206421,0.2136230319738388,0.0610351525247097,100.0,20533.0,1.0
15:29:55.167762,181809.1875,177488.78125,175132.90625,207082.125,174063.59375,163146.828125,683851.9375,164513.859375,-0.0537109375,1.00146484375,-0.1328125,-2.532958745956421,0.2441406100988388,0.0,100.0,20534.0,1.0
15:29:55.180479,181802.84375,177481.265625,175124.5,207058.609375,174052.859375,163143.421875,683850.375,164501.34375,-0.053466796875,1.000732421875,-0.134765625,-2.380370855331421,0.2441406100988388,-0.0610351525247097,100.0,20535.0,1.0
15:29:55.186057,181821.25,177507.640625,175143.890625,207063.359375,174068.15625,163170.6875,683901.8125,164495.796875,-0.052490234375,1.0029296875,-0.1337890625,-2.258300542831421,0.2746581733226776,-0.1525878757238388,100.0,20536.0,1.0
15:29:55.187836,181825.640625,177520.0625,175153.734375,206978.859375,174076.5625,163180.796875,683834.75,164502.234375,-0.05517578125,1.0009765625,-0.132080078125,-2.014159917831421,0.3051757514476776,-0.1220703050494194,100.0,20537.0,1.0
15:29:55.197785,181813.203125,177491.28125,175136.5625,207073.640625,174066.546875,163149.40625,683852.5625,164517.25,-0.05615234375,1.005126953125,-0.13134765625,-2.014159917831421,0.3662109076976776,-0.1831054538488388,100.0,20538.0,1.0
15:29:55.200289,181815.453125,177495.21875,175138.4375,207070.765625,174069.40625,163158.0,683872.5625,164516.265625,-0.056884765625,1.007080078125,-0.12841796875,-2.014159917831421,0.3356933295726776,-0.1831054538488388,100.0,20539.0,1.0
15:29:55.202761,181826.4375,177509.34375,175146.578125,207078.640625,174072.265625,163170.515625,683874.8125,164505.53125,-0.058349609375,1.007568359375,-0.128173828125,-2.136230230331421,0.2441406100988388,-0.1831054538488388,100.0,20540.0,1.0
15:29:55.245354,181811.15625,177504.859375,175137.734375,206967.421875,174059.65625,163164.53125,683816.4375,164485.953125,-0.061767578125,1.00830078125,-0.1259765625,-2.166747808456421,0.1525878757238388,-0.2441406100988388,100.0,20541.0,1.0
15:29:55.257784,181820.984375,177504.59375,175145.59375,207064.0625,174074.5,163163.453125,683825.375,164518.6875,-0.06494140625,1.006591796875,-0.1279296875,-2.227782964706421,0.0915527269244194,-0.2746581733226776,100.0,20542.0,1.0
15:29:55.265339,181825.546875,177506.203125,175147.734375,207079.171875,174076.28125,163167.203125,683879.75,164523.78125,-0.06298828125,1.005859375,-0.12744140625,-2.319335699081421,-0.03051757626235485,-0.3662109076976776,100.0,20543.0,1.0
15:29:55.267807,181837.265625,177523.28125,175157.484375,207093.65625,174081.203125,163184.734375,683894.375,164515.734375,-0.0625,1.005126953125,-0.12841796875,-2.441406011581421,-0.2136230319738388,-0.3967284858226776,100.0,20544.0,1.0
15:29:55.270963,181835.390625,177530.609375,175164.28125,207002.015625,174085.140625,163194.390625,683880.0,164508.578125,-0.063232421875,1.00390625,-0.12939453125,-2.502441167831421,-0.3051757514476776,-0.3356933295726776,100.0,20545.0,1.0
15:29:55.270974,181807.578125,177494.140625,175132.71875,207029.90625,174058.578125,163152.625,683839.6875,164504.203125,-0.061767578125,1.00341796875,-0.1279296875,-2.502441167831421,-0.4882812201976776,-0.3967284858226776,100.0,20546.0,1.0
15:29:55.273986,181806.859375,177489.21875,175129.59375,207068.453125,174058.671875,163149.765625,683870.0625,164508.75,-0.0654296875,1.003173828125,-0.127685546875,-2.471923589706421,-0.6408690810203552,-0.3662109076976776,100.0,20547.0,1.0
15:29:55.274000,181830.640625,177514.96875,175151.578125,207088.75,174076.90625,163179.71875,683876.25,164514.484375,-0.0625,1.002197265625,-0.12841796875,-2.441406011581421,-0.8239745497703552,-0.3051757514476776,100.0,20548.0,1.0
15:29:55.274005,181839.765625,177535.796875,175164.734375,207020.53125,174084.78125,163199.390625,683889.9375,164507.859375,-0.06494140625,1.002685546875,-0.1279296875,-2.441406011581421,-1.0070799589157104,-0.1831054538488388,100.0,20549.0,1.0
15:29:55.282748,181819.5625,177510.328125,175143.625,207016.328125,174068.953125,163171.40625,683844.3125,164508.75,-0.0634765625,1.001953125,-0.125732421875,-2.441406011581421,-1.0986326932907104,-0.2746581733226776,100.0,20550.0,1.0
15:29:55.282765,181813.390625,177496.015625,175133.171875,207078.28125,174063.859375,163157.90625,683919.3125,164516.53125,-0.064697265625,1.002197265625,-0.1259765625,-2.380370855331421,-1.1291502714157104,-0.0915527269244194,100.0,20551.0,1.0
15:29:55.282772,181816.15625,177498.609375,175134.953125,207072.203125,174061.984375,163164.703125,683893.5,164506.171875,-0.06201171875,1.00048828125,-0.124755859375,-2.349853277206421,-1.2817381620407104,-0.0915527269244194,100.0,20552.0,1.0
15:29:55.285296,181821.609375,177513.984375,175145.421875,207027.953125,174067.265625,163179.453125,683915.0625,164494.90625,-0.06103515625,0.99853515625,-0.126708984375,-2.227782964706421,-1.4038084745407104,-0.0610351525247097,100.0,20553.0,1.0
15:29:55.287751,181824.390625,177515.859375,175150.0625,207003.625,174072.53125,163178.375,683849.4375,164507.5,-0.060546875,0.995849609375,-0.1279296875,-2.044677495956421,-1.4953612089157104,0.1831054538488388,100.0,20554.0,1.0
15:29:55.290333,181807.3125,177484.84375,175125.84375,207074.96875,174052.6875,163144.578125,683835.9375,164509.5625,-0.05908203125,0.998046875,-0.128173828125,-1.8920897245407104,-1.4648436307907104,0.1220703050494194,100.0,20555.0,1.0
15:29:55.292787,181816.609375,177493.515625,175132.0,207068.265625,174055.359375,163157.1875,683847.875,164506.609375,-0.05908203125,0.99755859375,-0.127685546875,-1.7700194120407104,-1.5258787870407104,0.2746581733226776,100.0,20556.0,1.0
15:29:55.295314,181838.0625,177524.171875,175157.578125,207064.6875,174077.890625,163190.8125,683906.4375,164509.65625,-0.05810546875,0.997314453125,-0.125732421875,-1.5869139432907104,-1.5869139432907104,0.3356933295726776,100.0,20557.0,1.0
15:29:55.297888,181835.46875,177527.3125,175159.90625,206998.4375,174081.734375,163192.59375,683863.5625,164514.921875,-0.059814453125,1.000732421875,-0.123291015625,-1.4953612089157104,-1.5869139432907104,0.5187987685203552,100.0,20558.0,1.0
15:29:55.300636,181810.265625,177488.421875,175129.953125,207077.828125,174059.75,163150.9375,683862.9375,164514.921875,-0.057861328125,1.00390625,-0.123291015625,-1.4038084745407104,-1.4953612089157104,0.7324218153953552,100.0,20559.0,1.0
15:29:55.302992,181811.421875,177490.5625,175129.765625,207063.984375,174057.875,163155.9375,683844.125,164510.09375,-0.056640625,1.004638671875,-0.123779296875,-1.4953612089157104,-1.4953612089157104,0.6103515028953552,100.0,20560.0,1.0
15:29:55.305329,181812.140625,177494.859375,175130.75,207055.03125,174054.46875,163162.828125,683854.6875,164491.40625,-0.058837890625,1.00732421875,-0.12109375,-1.4953612089157104,-1.5258787870407104,0.5798339247703552,100.0,20561.0,1.0
15:29:55.308380,181818.84375,177511.75,175142.640625,206971.359375,174063.953125,163177.484375,683824.1875,164491.5,-0.0576171875,1.007080078125,-0.122314453125,-1.6174315214157104,-1.4953612089157104,0.5493163466453552,100.0,20562.0,1.0
15:29:55.308384,181815.453125,177493.78125,175134.0625,207074.890625,174062.703125,163154.234375,683857.3125,164514.03125,-0.058837890625,1.006591796875,-0.12255859375,-1.7089842557907104,-1.4648436307907104,0.5493163466453552,100.0,20563.0,1.0
15:29:55.310327,181815.53125,177491.71875,175131.375,207069.515625,174059.390625,163154.875,683865.25,164512.0625,-0.05908203125,1.00634765625,-0.124267578125,-1.6784666776657104,-1.3732908964157104,0.3662109076976776,100.0,20564.0,1.0
15:29:55.312762,181831.546875,177509.421875,175144.609375,207082.3125,174067.703125,163175.15625,683892.8125,164505.1875,-0.05908203125,1.005859375,-0.125,-1.6784666776657104,-1.3122557401657104,0.2441406100988388,100.0,20565.0,1.0
15:29:55.315322,181821.96875,177511.75,175143.453125,206977.25,174065.015625,163178.828125,683854.875,164493.109375,-0.0556640625,1.005126953125,-0.120361328125,-1.8310545682907104,-1.2207030057907104,0.2441406100988388,100.0,20566.0,1.0
15:29:55.318371,181802.484375,177481.984375,175122.0,207043.5,174051.34375,163144.671875,683831.1875,164499.546875,-0.055419921875,1.006103515625,-0.121337890625,-1.9531248807907104,-1.1596678495407104,0.1831054538488388,100.0,20567.0,1.0
15:29:55.318376,181802.484375,177479.390625,175119.671875,207057.890625,174048.65625,163145.5625,683851.0,164500.890625,-0.054443359375,1.00244140625,-0.1220703125,-1.9531248807907104,-1.2512205839157104,0.1525878757238388,100.0,20568.0,1.0
15:29:55.320876,181832.4375,177513.359375,175147.03125,207087.671875,174072.984375,163182.671875,683876.875,164509.203125,-0.05029296875,0.995361328125,-0.122314453125,-1.8615721464157104,-1.1901854276657104,0.1220703050494194,100.0,20569.0,1.0
15:29:55.320883,181832.4375,177527.21875,175154.625,206996.75,174078.4375,163196.078125,683880.625,164499.109375,-0.051025390625,0.99169921875,-0.126708984375,-1.8005369901657104,-1.0375975370407104,0.0610351525247097,100.0,20570.0,1.0
15:29:55.322890,181802.921875,177488.234375,175124.40625,207020.078125,174053.9375,163153.078125,683868.125,164493.296875,-0.05029296875,0.98876953125,-0.1318359375,-1.5869139432907104,-0.9765624403953552,0.1831054538488388,100.0,20571.0,1.0
15:29:55.325905,181801.234375,177476.609375,175118.6875,207057.984375,174049.46875,163142.34375,683890.8125,164499.734375,-0.052001953125,0.98876953125,-0.130126953125,-1.3427733182907104,-0.8544921278953552,0.2441406100988388,100.0,20572.0,1.0
15:29:55.325919,181822.59375,177500.3125,175138.359375,207079.09375,174066.0,163171.046875,683885.0625,164503.296875,-0.050048828125,0.989013671875,-0.1298828125,-0.9460448622703552,-0.6408690810203552,0.3051757514476776,100.0,20573.0,1.0
15:29:55.327946,181820.09375,177509.96875,175142.375,207004.25,174066.359375,163182.140625,683894.9375,164488.546875,-0.04833984375,0.992431640625,-0.128662109375,-0.6408690810203552,-0.4272460639476776,0.3662109076976776,100.0,20574.0,1.0
15:29:55.330419,181815.53125,177500.75,175136.5625,207011.9375,174065.109375,163168.09375,683834.3125,164502.234375,-0.048095703125,0.994873046875,-0.1259765625,-0.3356933295726776,-0.4272460639476776,0.3967284858226776,100.0,20575.0,1.0
15:29:55.336556,181782.1875,177458.015625,175099.109375,207050.921875,174033.546875,163124.921875,683847.5625,164489.453125,-0.0517578125,0.9970703125,-0.126953125,-0.1525878757238388,-0.2136230319738388,0.4272460639476776,100.0,20576.0,1.0
15:29:55.340901,181796.140625,177474.921875,175112.25,207055.65625,174043.921875,163146.28125,683837.6875,164491.140625,-0.05224609375,0.998291015625,-0.126220703125,-0.1525878757238388,-0.0915527269244194,0.4882812201976776,100.0,20577.0,1.0
15:29:55.340912,181815.171875,177503.34375,175134.78125,207023.5625,174060.109375,163175.078125,683881.875,164489.453125,-0.054443359375,0.99755859375,-0.125244140625,-0.03051757626235485,-0.0915527269244194,0.6408690810203552,100.0,20578.0,1.0
15:29:55.350323,181807.84375,177496.1875,175128.96875,206986.640625,174056.796875,163164.25,683826.8125,164494.0,-0.05419921875,0.995361328125,-0.12890625,0.1220703050494194,-0.03051757626235485,0.4882812201976776,100.0,20579.0,1.0
15:29:55.354661,181814.28125,177490.390625,175128.703125,207083.46875,174063.59375,163155.671875,683878.625,164517.703125,-0.054931640625,0.999267578125,-0.123291015625,0.1525878757238388,0.0610351525247097,0.5187987685203552,100.0,20580.0,1.0
15:29:55.354668,181829.03125,177507.015625,175142.015625,207079.890625,174074.140625,163177.046875,683879.625,164518.6875,-0.055419921875,1.00146484375,-0.124755859375,0.1831054538488388,0.0915527269244194,0.4882812201976776,100.0,20581.0,1.0
15:29:55.364685,181833.953125,177516.9375,175148.90625,207055.9375,174076.28125,163188.390625,683898.25,164504.015625,-0.058837890625,1.002685546875,-0.122802734375,0.2441406100988388,0.2136230319738388,0.5187987685203552,100.0,20582.0,1.0
15:29:55.364695,181807.84375,177495.65625,175128.078125,206966.34375,174055.8125,163164.96875,683845.1875,164484.171875,-0.06005859375,1.0048828125,-0.12353515625,0.2136230319738388,0.1525878757238388,0.5798339247703552,100.0,20583.0,1.0
15:29:55.366663,181793.0,177468.296875,175108.140625,207057.453125,174044.546875,163135.375,683927.75,164492.578125,-0.060791015625,1.001708984375,-0.125,0.2746581733226776,0.0610351525247097,0.6103515028953552,100.0,20584.0,1.0
15:29:55.369067,181804.8125,177481.703125,175118.0625,207051.015625,174051.4375,163151.828125,683902.25,164495.078125,-0.05908203125,1.000244140625,-0.125732421875,0.3051757514476776,0.0610351525247097,0.5493163466453552,100.0,20585.0,1.0
15:29:55.379047,181827.25,177503.796875,175139.25,207060.84375,174066.28125,163174.09375,683903.125,164498.125,-0.059326171875,1.001953125,-0.127685546875,0.3051757514476776,0.0915527269244194,0.4882812201976776,100.0,20586.0,1.0
15:29:55.382370,181838.609375,177525.34375,175155.78125,206986.1875,174079.59375,163194.46875,683860.25,164504.90625,-0.0615234375,1.003173828125,-0.126708984375,0.3051757514476776,0.03051757626235485,0.4882812201976776,100.0,20587.0,1.0
15:29:55.382378,181831.546875,177510.328125,175146.578125,207082.75,174079.328125,163176.953125,683843.4375,164523.78125,-0.06103515625,1.00341796875,-0.125244140625,0.4272460639476776,0.0,0.3051757514476776,100.0,20588.0,1.0
15:29:55.384017,181822.953125,177498.15625,175136.296875,207067.828125,174069.140625,163169.171875,683856.0625,164515.1875,-0.060791015625,1.001708984375,-0.12451171875,0.4577636420726776,-0.03051757626235485,0.2136230319738388,100.0,20589.0,1.0
15:29:55.400345,181827.34375,177502.0,175139.96875,207073.640625,174069.21875,163176.421875,683876.5,164503.125,-0.06201171875,1.00341796875,-0.125732421875,0.3967284858226776,0.0915527269244194,0.2441406100988388,100.0,20590.0,1.0
15:29:55.403496,181821.796875,177511.03125,175140.59375,206971.984375,174067.53125,163184.734375,683848.875,164488.546875,-0.061767578125,1.007080078125,-0.121826171875,0.2441406100988388,-0.03051757626235485,0.3356933295726776,100.0,20591.0,1.0
15:29:55.403502,181823.046875,177500.125,175137.8125,207057.265625,174070.125,163169.171875,683841.9375,164512.609375,-0.06201171875,1.007568359375,-0.125244140625,0.2441406100988388,-0.0915527269244194,0.3356933295726776,100.0,20592.0,1.0
15:29:55.405863,181824.296875,177500.84375,175137.015625,207071.125,174070.484375,163171.859375,683869.625,164514.296875,-0.06201171875,1.00927734375,-0.125244140625,0.1831054538488388,-0.1831054538488388,0.3967284858226776,100.0,20593.0,1.0
15:29:55.405871,181834.40625,177513.8125,175144.796875,207083.015625,174074.953125,163188.3125,683892.25,164506.078125,-0.059326171875,1.00732421875,-0.126953125,0.0610351525247097,-0.1831054538488388,0.5493163466453552,100.0,20594.0,1.0
15:29:55.407774,181834.21875,177524.890625,175152.5625,206994.953125,174078.515625,163200.28125,683881.5,164498.46875,-0.0576171875,1.00537109375,-0.12646484375,0.03051757626235485,-0.1220703050494194,0.4577636420726776,100.0,20595.0,1.0
15:29:55.417345,181815.171875,177496.90625,175131.921875,207028.9375,174062.703125,163167.390625,683857.375,164504.46875,-0.056640625,1.000732421875,-0.12646484375,-0.03051757626235485,-0.1831054538488388,0.4882812201976776,100.0,20596.0,1.0
15:29:55.431619,181798.734375,177473.75,175112.34375,207056.828125,174045.359375,163146.109375,683874.75,164498.75,-0.055908203125,0.997314453125,-0.12744140625,0.03051757626235485,-0.2136230319738388,0.4577636420726776,100.0,20597.0,1.0
15:29:55.434175,181820.625,177497.359375,175132.1875,207073.28125,174062.515625,163173.546875,683883.3125,164503.578125,-0.05419921875,0.999267578125,-0.12939453125,0.0915527269244194,-0.2441406100988388,0.7324218153953552,100.0,20598.0,1.0
15:29:55.436618,181840.84375,177528.828125,175157.75,207018.921875,174084.78125,163204.75,683902.8125,164508.3125,-0.053466796875,1.00048828125,-0.131103515625,0.0915527269244194,-0.0915527269244194,0.7629393935203552,100.0,20599.0,1.0
15:29:55.439167,181828.234375,177513.1875,175145.234375,207020.34375,174076.828125,163185.53125,683836.8125,164514.03125,-0.056396484375,1.00244140625,-0.1298828125,0.1525878757238388,-0.0915527269244194,0.8239745497703552,100.0,20600.0,1.0
15:29:55.441587,181799.625,177476.25,175113.953125,207061.296875,174050.53125,163148.34375,683856.375,164503.390625,-0.05712890625,1.001708984375,-0.130126953125,0.1831054538488388,-0.03051757626235485,0.7629393935203552,100.0,20601.0,1.0
15:29:55.444174,181818.671875,177497.09375,175130.9375,207069.4375,174063.859375,163172.296875,683857.125,164507.78125,-0.05810546875,1.0048828125,-0.127197265625,0.0915527269244194,0.0610351525247097,0.8850097060203552,100.0,20602.0,1.0
15:29:55.452760,181824.203125,177511.9375,175139.0625,207023.03125,174067.890625,163186.875,683856.1875,164495.96875,-0.06005859375,1.006103515625,-0.13037109375,-0.03051757626235485,0.03051757626235485,0.7934569716453552,100.0,20603.0,1.0
15:29:55.452773,181811.875,177504.421875,175130.3125,206985.296875,174062.78125,163176.953125,683813.0,164496.59375,-0.05859375,1.00634765625,-0.1298828125,0.03051757626235485,0.0610351525247097,0.6103515028953552,100.0,20604.0,1.0
15:29:55.452775,181811.25,177493.953125,175124.5,207076.046875,174062.515625,163164.703125,683846.1875,164514.03125,-0.059814453125,1.005126953125,-0.127685546875,-0.0610351525247097,-0.03051757626235485,0.4882812201976776,100.0,20605.0,1.0
15:29:55.455906,181805.96875,177486.984375,175116.0,207049.671875,174051.171875,163162.015625,683835.5,164499.015625,-0.06201171875,1.004638671875,-0.129150390625,-0.1831054538488388,-0.1525878757238388,0.4272460639476776,100.0,20606.0,1.0
15:29:55.455914,181808.109375,177493.875,175119.21875,207028.84375,174050.71875,163169.53125,683887.6875,164482.46875,-0.064208984375,1.005126953125,-0.129150390625,-0.1831054538488388,-0.2136230319738388,0.3051757514476776,100.0,20607.0,1.0
15:29:55.462918,181840.390625,177533.65625,175154.796875,206998.625,174085.765625,163206.28125,683859.6875,164514.84375,-0.063232421875,1.00537109375,-0.1279296875,-0.2136230319738388,-0.1525878757238388,0.2136230319738388,100.0,20608.0,1.0
15:29:55.469200,181822.15625,177502.90625,175130.9375,207083.015625,174070.484375,163172.921875,683865.25,164518.859375,-0.06005859375,1.00732421875,-0.130615234375,-0.3051757514476776,-0.1220703050494194,0.1831054538488388,100.0,20609.0,1.0
15:29:55.471649,181817.40625,177498.15625,175125.125,207061.75,174063.859375,163171.3125,683859.0625,164508.671875,-0.060302734375,1.00830078125,-0.13134765625,-0.3051757514476776,-0.2136230319738388,0.2441406100988388,100.0,20610.0,1.0
15:29:55.475337,181799.625,177484.390625,175110.640625,207041.8125,174045.984375,163161.578125,683881.9375,164477.28125,-0.060791015625,1.01123046875,-0.13134765625,-0.4577636420726776,-0.2136230319738388,0.2136230319738388,100.0,20611.0,1.0
15:29:55.486668,181797.828125,177492.0,175113.140625,206949.71875,174045.71875,163166.21875,683822.625,164471.46875,-0.060302734375,1.011474609375,-0.1318359375,-0.7019042372703552,-0.2746581733226776,0.2746581733226776,100.0,20612.0,1.0
15:29:55.489695,181796.21875,177477.515625,175106.53125,207049.84375,174045.265625,163148.78125,683845.0625,164493.46875,-0.06005859375,1.010498046875,-0.12939453125,-0.7629393935203552,-0.3356933295726776,0.3967284858226776,100.0,20613.0,1.0
15:29:55.489716,181790.234375,177473.578125,175100.625,207036.890625,174039.90625,163150.046875,683842.5625,164487.75,-0.058837890625,1.011474609375,-0.127685546875,-0.8850097060203552,-0.3051757514476776,0.3356933295726776,100.0,20614.0,1.0
15:29:55.494160,181819.5625,177506.75,175129.5,207069.078125,174065.375,163184.1875,683847.0,164500.265625,-0.0595703125,1.008056640625,-0.13037109375,-0.9765624403953552,-0.2746581733226776,0.4577636420726776,100.0,20615.0,1.0
15:29:55.496621,181813.65625,177512.28125,175129.859375,206966.796875,174062.703125,163186.875,683849.0625,164487.390625,-0.05908203125,1.0087890625,-0.130615234375,-1.1596678495407104,-0.3662109076976776,0.5187987685203552,100.0,20616.0,1.0
15:29:55.500419,181784.953125,177473.390625,175098.75,207022.765625,174039.28125,163146.109375,683873.625,164484.34375,-0.05859375,1.0107421875,-0.134521484375,-1.2207030057907104,-0.2746581733226776,0.6408690810203552,100.0,20617.0,1.0
15:29:55.515862,181812.765625,177499.5,175125.03125,207061.109375,174065.921875,163174.0,683877.3125,164512.25,-0.05810546875,1.01171875,-0.130615234375,-1.3732908964157104,-0.1525878757238388,0.6713866591453552,100.0,20618.0,1.0
15:29:55.515872,181821.25,177507.015625,175131.203125,207072.65625,174068.15625,163183.484375,683880.0,164501.875,-0.05615234375,1.012451171875,-0.128173828125,-1.5563963651657104,-0.1220703050494194,0.7019042372703552,100.0,20619.0,1.0
15:29:55.527287,181785.578125,177486.625,175103.484375,206947.03125,174036.859375,163162.203125,683839.5,164455.921875,-0.05712890625,1.0107421875,-0.130615234375,-1.6174315214157104,-0.0915527269244194,0.8850097060203552,100.0,20620.0,1.0
15:29:55.527298,181795.59375,177488.78125,175109.75,207006.046875,174049.015625,163159.96875,683806.3125,164484.796875,-0.05712890625,1.00927734375,-0.130615234375,-1.6784666776657104,-0.1220703050494194,0.9460448622703552,100.0,20621.0,1.0
15:29:55.529009,181804.71875,177488.0625,175116.0,207061.75,174058.671875,163163.546875,683862.8125,164505.984375,-0.059814453125,1.0068359375,-0.13232421875,-1.8615721464157104,-0.1525878757238388,0.9155272841453552,100.0,20622.0,1.0
15:29:55.531570,181828.40625,177513.890625,175139.515625,207082.3125,174077.0,163193.578125,683872.9375,164511.078125,-0.05859375,1.00390625,-0.134033203125,-1.9226073026657104,-0.1831054538488388,0.9765624403953552,100.0,20623.0,1.0
15:29:55.534233,181828.59375,177525.4375,175144.171875,207007.734375,174075.296875,163202.078125,683880.5625,164493.375,-0.057861328125,1.00390625,-0.135986328125,-2.014159917831421,-0.0610351525247097,1.0375975370407104,100.0,20624.0,1.0
15:29:55.536684,181830.015625,177521.046875,175145.15625,207021.234375,174079.421875,163193.140625,683841.1875,164513.671875,-0.055419921875,1.003173828125,-0.13134765625,-2.044677495956421,-0.03051757626235485,1.0681151151657104,100.0,20625.0,1.0
15:29:55.539107,181799.171875,177479.46875,175111.53125,207067.203125,174053.125,163154.15625,683890.0,164503.125,-0.05615234375,1.003662109375,-0.13232421875,-2.014159917831421,0.1220703050494194,1.0375975370407104,100.0,20626.0,1.0
15:29:55.542141,181793.265625,177473.3125,175102.328125,207048.59375,174040.96875,163151.5625,683842.5625,164483.546875,-0.052490234375,1.004150390625,-0.134033203125,-2.075195074081421,0.1831054538488388,0.9765624403953552,100.0,20627.0,1.0
15:29:55.542156,181805.609375,177496.828125,175118.140625,207010.875,174052.78125,163176.5,683871.0625,164478.71875,-0.054443359375,1.00244140625,-0.135498046875,-2.136230230331421,0.1831054538488388,1.0070799589157104,100.0,20628.0,1.0
15:29:55.553196,181787.109375,177477.59375,175101.703125,206966.796875,174038.375,163155.5,683814.8125,164475.046875,-0.054443359375,1.00341796875,-0.1337890625,-2.197265386581421,0.2441406100988388,0.8544921278953552,100.0,20629.0,1.0
15:29:55.554120,181769.140625,177449.609375,175079.25,207043.6875,174021.578125,163124.734375,683870.8125,164477.546875,-0.056640625,1.004150390625,-0.137451171875,-2.227782964706421,0.3662109076976776,0.9155272841453552,100.0,20630.0,1.0
15:29:55.558034,181802.484375,177485.28125,175111.078125,207059.0625,174049.46875,163161.578125,683874.125,164499.015625,-0.05517578125,1.003662109375,-0.133056640625,-2.197265386581421,0.4272460639476776,0.9460448622703552,100.0,20631.0,1.0
15:29:55.558051,181808.828125,177497.265625,175118.859375,207038.671875,174052.0625,163173.546875,683897.3125,164484.796875,-0.053955078125,1.00390625,-0.13623046875,-2.258300542831421,0.5798339247703552,1.0681151151657104,100.0,20632.0,1.0
15:29:55.574026,181811.875,177509.34375,175127.09375,206973.859375,174058.9375,163183.125,683849.25,164490.34375,-0.052978515625,1.00341796875,-0.135986328125,-2.288818120956421,0.7019042372703552,1.0070799589157104,100.0,20633.0,1.0
15:29:55.637290,181800.875,177484.65625,175113.5,207072.734375,174054.734375,163157.109375,683883.5625,164506.96875,-0.052490234375,1.004150390625,-0.137451171875,-2.258300542831421,0.8544921278953552,0.9155272841453552,100.0,20634.0,1.0
15:29:55.637307,181788.890625,177471.875,175100.71875,207043.859375,174041.59375,163149.0625,683863.5625,164490.34375,-0.052490234375,1.003173828125,-0.134521484375,-2.227782964706421,0.9155272841453552,0.9155272841453552,100.0,20635.0,1.0
15:29:55.654041,181785.859375,177470.71875,175098.921875,207036.0,174036.328125,163150.84375,683873.1875,164473.890625,-0.05322265625,1.00048828125,-0.13623046875,-2.349853277206421,0.9765624403953552,0.9460448622703552,100.0,20636.0,1.0
15:29:55.656583,181807.484375,177503.96875,175124.765625,206969.03125,174058.40625,163181.0625,683852.875,164488.109375,-0.052734375,1.001708984375,-0.135009765625,-2.288818120956421,1.1291502714157104,0.8850097060203552,100.0,20637.0,1.0
15:29:55.659036,181805.34375,177491.1875,175117.078125,207067.90625,174056.4375,163162.640625,683841.0,164507.328125,-0.0537109375,1.002685546875,-0.13623046875,-2.410888433456421,1.1291502714157104,0.8544921278953552,100.0,20638.0,1.0
15:29:55.661565,181807.21875,177491.546875,175115.109375,207058.171875,174053.046875,163162.203125,683838.125,164506.4375,-0.05419921875,1.004150390625,-0.135986328125,-2.380370855331421,1.1596678495407104,0.8239745497703552,100.0,20639.0,1.0
15:29:55.664131,181800.96875,177483.671875,175108.765625,207057.625,174044.28125,163159.96875,683864.0625,164484.171875,-0.0537109375,1.004150390625,-0.1318359375,-2.380370855331421,1.3122557401657104,0.9765624403953552,100.0,20640.0,1.0
15:29:55.666571,181798.90625,177494.9375,175115.109375,206960.265625,174049.109375,163172.484375,683830.125,164476.296875,-0.0546875,1.004150390625,-0.132080078125,-2.349853277206421,1.4038084745407104,0.8850097060203552,100.0,20641.0,1.0
15:29:55.669068,181790.765625,177477.421875,175104.5625,207038.40625,174045.984375,163150.84375,683816.6875,164494.546875,-0.054931640625,1.0029296875,-0.131591796875,-2.532958745956421,1.4953612089157104,0.9155272841453552,100.0,20642.0,1.0
15:29:55.684201,181783.265625,177464.015625,175095.265625,207045.296875,174036.859375,163138.78125,683840.8125,164493.203125,-0.05615234375,1.00244140625,-0.136474609375,-2.532958745956421,1.5258787870407104,0.9765624403953552,100.0,20643.0,1.0
15:29:55.687164,181805.515625,177484.84375,175115.734375,207072.03125,174051.96875,163162.109375,683862.1875,164496.859375,-0.055908203125,1.001953125,-0.137451171875,-2.593993902206421,1.5869139432907104,0.9765624403953552,100.0,20644.0,1.0
15:29:55.687172,181800.421875,177494.140625,175118.78125,206978.421875,174050.71875,163171.40625,683847.8125,164480.5,-0.057373046875,1.002197265625,-0.13525390625,-2.532958745956421,1.6479490995407104,1.0681151151657104,100.0,20645.0,1.0
15:29:55.693979,181796.484375,177483.40625,175110.8125,207019.90625,174048.125,163155.9375,683834.375,164494.90625,-0.058837890625,1.00341796875,-0.1357421875,-2.532958745956421,1.6784666776657104,1.0070799589157104,100.0,20646.0,1.0
15:29:55.693987,181793.71875,177475.09375,175102.953125,207057.890625,174043.65625,163150.9375,683876.3125,164498.828125,-0.06005859375,1.0029296875,-0.13818359375,-2.593993902206421,1.5869139432907104,1.0375975370407104,100.0,20647.0,1.0
15:29:55.693989,181805.4375,177487.515625,175112.34375,207065.9375,174050.890625,163168.546875,683870.9375,164495.171875,-0.059814453125,1.001953125,-0.133056640625,-2.532958745956421,1.5869139432907104,1.0681151151657104,100.0,20648.0,1.0
15:29:55.697235,181809.8125,177500.9375,175121.1875,206998.796875,174055.09375,163181.515625,683871.25,164486.046875,-0.06103515625,1.005615234375,-0.135498046875,-2.624511480331421,1.6174315214157104,1.0681151151657104,100.0,20649.0,1.0
15:29:55.697244,181788.796875,177475.8125,175098.296875,206986.640625,174036.6875,163151.015625,683849.6875,164482.375,-0.063720703125,1.00634765625,-0.1337890625,-2.563476324081421,1.5258787870407104,1.0986326932907104,100.0,20650.0,1.0
15:29:55.699655,181767.171875,177445.765625,175073.4375,207039.390625,174016.828125,163121.34375,683895.1875,164477.46875,-0.0634765625,1.006103515625,-0.135498046875,-2.685546636581421,1.3732908964157104,1.1291502714157104,100.0,20651.0,1.0
15:29:55.699675,181781.828125,177462.578125,175087.75,207042.609375,174028.359375,163143.6875,683867.5,164479.15625,-0.06494140625,1.005859375,-0.135986328125,-2.807616949081421,1.2207030057907104,1.1291502714157104,100.0,20652.0,1.0
15:29:55.701569,181807.84375,177497.890625,175116.984375,207021.515625,174052.6875,163178.03125,683906.4375,164485.953125,-0.06396484375,1.00537109375,-0.132080078125,-2.899169683456421,1.2512205839157104,1.0986326932907104,100.0,20653.0,1.0
15:29:55.704080,181792.46875,177483.671875,175104.5625,206974.125,174041.15625,163159.96875,683813.75,164483.71875,-0.065185546875,1.005859375,-0.134765625,-2.929687261581421,1.1596678495407104,1.1901854276657104,100.0,20654.0,1.0
15:29:55.706555,181786.125,177466.25,175092.75,207064.328125,174036.0625,163140.5625,683831.375,164496.6875,-0.064697265625,1.004638671875,-0.1357421875,-2.838134527206421,1.0681151151657104,1.0986326932907104,100.0,20655.0,1.0
15:29:55.711582,181793.71875,177473.3125,175098.484375,207053.515625,174038.46875,163152.0,683849.125,164493.296875,-0.06396484375,1.0029296875,-0.134521484375,-2.899169683456421,0.9460448622703552,1.1291502714157104,100.0,20656.0,1.0
15:29:55.714033,181795.953125,177484.03125,175102.953125,207032.0625,174039.1875,163164.25,683884.9375,164477.46875,-0.063232421875,1.00244140625,-0.12890625,-2.838134527206421,0.8544921278953552,1.1901854276657104,100.0,20657.0,1.0
15:29:55.716615,181791.3125,177486.359375,175102.5,206959.640625,174039.0,163164.34375,683842.0,164477.375,-0.061767578125,1.00244140625,-0.129150390625,-2.868652105331421,0.7324218153953552,1.0986326932907104,100.0,20658.0,1.0
15:29:55.720297,181772.796875,177452.65625,175078.09375,207049.5,174021.921875,163129.203125,683906.4375,164484.796875,-0.06298828125,1.001953125,-0.132568359375,-2.960204839706421,0.7324218153953552,1.1291502714157104,100.0,20659.0,1.0
15:29:55.720310,181771.453125,177450.6875,175074.34375,207033.765625,174017.640625,163130.640625,683867.375,164476.484375,-0.061279296875,1.003662109375,-0.13134765625,-2.960204839706421,0.5493163466453552,1.1596678495407104,100.0,20660.0,1.0
15:29:55.720315,181795.328125,177481.171875,175098.65625,207049.21875,174037.390625,163160.765625,683909.25,164477.015625,-0.06103515625,1.003662109375,-0.1298828125,-2.990722417831421,0.4577636420726776,1.1596678495407104,100.0,20661.0,1.0
15:29:55.722811,181804.984375,177500.21875,175113.59375,206968.9375,174049.203125,163177.21875,683874.75,164481.9375,-0.05908203125,1.00244140625,-0.1318359375,-2.899169683456421,0.4272460639476776,1.2207030057907104,100.0,20662.0,1.0
15:29:55.727965,181790.953125,177473.578125,175095.53125,207055.578125,174039.984375,163147.359375,683843.25,164495.53125,-0.06005859375,1.003173828125,-0.129638671875,-2.899169683456421,0.2746581733226776,1.1901854276657104,100.0,20663.0,1.0
15:29:55.735392,181781.296875,177462.484375,175084.890625,207041.71875,174027.921875,163140.5625,683844.875,164484.890625,-0.061279296875,1.001953125,-0.130859375,-2.899169683456421,0.1525878757238388,1.1596678495407104,100.0,20664.0,1.0
15:29:55.737810,181797.125,177480.546875,175099.28125,207061.5625,174037.484375,163162.46875,683900.625,164480.234375,-0.0615234375,1.002685546875,-0.129638671875,-2.929687261581421,0.0610351525247097,1.2512205839157104,100.0,20665.0,1.0
15:29:55.740345,181787.015625,177483.234375,175096.515625,206954.0,174031.5,163165.15625,683873.625,164464.328125,-0.059814453125,1.002685546875,-0.12890625,-2.990722417831421,0.0610351525247097,1.2207030057907104,100.0,20666.0,1.0
15:29:55.745341,181765.203125,177450.59375,175071.125,207013.015625,174014.859375,163128.3125,683863.875,164470.671875,-0.056884765625,1.003662109375,-0.12890625,-3.021239995956421,-0.0610351525247097,1.2512205839157104,100.0,20667.0,1.0
15:29:55.747802,181778.875,177461.328125,175081.765625,207043.859375,174026.125,163141.640625,683885.1875,164486.3125,-0.056884765625,1.001708984375,-0.12744140625,-3.021239995956421,-0.0610351525247097,1.1901854276657104,100.0,20668.0,1.0
15:29:55.763939,181793.1875,177475.265625,175093.109375,207061.203125,174033.640625,163159.515625,683905.3125,164480.765625,-0.058349609375,1.002685546875,-0.127197265625,-2.960204839706421,-0.0610351525247097,1.0375975370407104,100.0,20669.0,1.0
15:29:55.765339,181791.125,177484.03125,175096.0625,206965.984375,174032.390625,163167.65625,683883.8125,164465.125,-0.0556640625,1.00341796875,-0.128662109375,-2.960204839706421,-0.0610351525247097,1.0375975370407104,100.0,20670.0,1.0
15:29:55.765347,181791.125,177476.703125,175093.921875,207015.609375,174035.078125,163155.140625,683845.5,164485.875,-0.053955078125,1.004638671875,-0.1279296875,-2.990722417831421,-0.1220703050494194,1.0070799589157104,100.0,20671.0,1.0
15:29:55.765348,181782.09375,177464.015625,175082.203125,207050.5625,174026.84375,163143.25,683901.0,164486.234375,-0.055419921875,1.00537109375,-0.128662109375,-3.112792730331421,-0.2746581733226776,1.0375975370407104,100.0,20672.0,1.0
15:29:55.767841,181787.640625,177471.875,175086.671875,207051.1875,174027.828125,163155.140625,683877.25,164476.21875,-0.054443359375,1.00341796875,-0.127197265625,-2.990722417831421,-0.1525878757238388,0.8850097060203552,100.0,20673.0,1.0
15:29:55.770911,181792.640625,177489.046875,175097.21875,206985.5625,174034.53125,163171.40625,683881.0,164464.953125,-0.051513671875,1.003662109375,-0.126708984375,-3.082275152206421,-0.2746581733226776,0.8239745497703552,100.0,20674.0,1.0
15:29:55.770923,181789.515625,177481.359375,175093.5625,206988.703125,174035.25,163160.234375,683818.5,164477.734375,-0.052734375,1.002197265625,-0.12841796875,-3.112792730331421,-0.2441406100988388,0.8850097060203552,100.0,20675.0,1.0
15:29:55.772833,181775.21875,177459.265625,175075.234375,207049.046875,174022.28125,163137.703125,683874.75,164478.984375,-0.053466796875,1.004150390625,-0.125244140625,-3.143310308456421,-0.2746581733226776,0.7934569716453552,100.0,20676.0,1.0
15:29:55.775388,181783.609375,177468.390625,175081.671875,207044.3125,174024.25,163150.390625,683867.9375,164473.359375,-0.05419921875,1.003662109375,-0.124755859375,-3.173827886581421,-0.2136230319738388,0.6713866591453552,100.0,20677.0,1.0
15:29:55.777949,181794.25,177486.359375,175095.171875,207009.171875,174031.859375,163167.03125,683884.125,164465.3125,-0.056884765625,1.00244140625,-0.123291015625,-3.173827886581421,-0.2746581733226776,0.6408690810203552,100.0,20678.0,1.0
15:29:55.785893,181803.375,177497.890625,175105.546875,206982.890625,174044.375,163174.53125,683830.3125,164482.03125,-0.057861328125,1.001708984375,-0.126708984375,-3.204345464706421,-0.3356933295726776,0.6103515028953552,100.0,20679.0,1.0
15:29:55.785902,181772.796875,177454.53125,175070.578125,207048.328125,174016.125,163130.1875,683833.9375,164473.625,-0.05810546875,1.000732421875,-0.129150390625,-3.204345464706421,-0.4577636420726776,0.6103515028953552,100.0,20680.0,1.0
15:29:55.787803,181784.59375,177465.890625,175080.59375,207041.890625,174022.28125,163146.1875,683855.5,164473.0,-0.057861328125,0.998779296875,-0.125,-3.173827886581421,-0.4577636420726776,0.4577636420726776,100.0,20681.0,1.0
15:29:55.790432,181794.96875,177482.96875,175091.859375,207026.25,174029.265625,163162.5625,683902.625,164462.71875,-0.055419921875,0.99951171875,-0.126220703125,-3.173827886581421,-0.5187987685203552,0.2136230319738388,100.0,20682.0,1.0
15:29:55.792834,181791.484375,177484.390625,175092.671875,206952.484375,174028.359375,163160.59375,683820.75,164463.78125,-0.055419921875,0.999755859375,-0.125244140625,-2.990722417831421,-0.6103515028953552,0.0915527269244194,100.0,20683.0,1.0
15:29:55.797820,181778.703125,177459.625,175075.5,207047.4375,174018.53125,163133.59375,683869.4375,164475.59375,-0.05712890625,0.9990234375,-0.126953125,-2.960204839706421,-0.6103515028953552,0.03051757626235485,100.0,20684.0,1.0
15:29:55.800321,181768.6875,177449.609375,175063.96875,207024.453125,174005.921875,163127.59375,683854.6875,164463.078125,-0.055908203125,1.0,-0.128173828125,-2.838134527206421,-0.6713866591453552,0.03051757626235485,100.0,20685.0,1.0
15:29:55.802965,181790.859375,177476.4375,175085.875,207039.390625,174023.09375,163154.875,683880.875,164466.296875,-0.0537109375,0.999755859375,-0.12646484375,-2.746581792831421,-0.6713866591453552,0.0610351525247097,100.0,20686.0,1.0
15:29:55.805351,181794.171875,177489.671875,175094.28125,206953.46875,174031.671875,163167.109375,683840.5625,164468.53125,-0.052978515625,0.999755859375,-0.126220703125,-2.624511480331421,-0.6713866591453552,0.1220703050494194,100.0,20687.0,1.0
15:29:55.808402,181782.984375,177465.34375,175078.0,207043.6875,174023.8125,163139.484375,683883.3125,164482.109375,-0.05322265625,0.999755859375,-0.127197265625,-2.563476324081421,-0.6713866591453552,0.1220703050494194,100.0,20688.0,1.0
15:29:55.808413,181770.390625,177452.109375,175066.109375,207028.21875,174011.296875,163129.828125,683867.375,164469.78125,-0.056884765625,1.000732421875,-0.123779296875,-2.349853277206421,-0.7324218153953552,0.1220703050494194,100.0,20689.0,1.0
15:29:55.810320,181788.265625,177472.6875,175082.5625,207047.34375,174024.34375,163152.8125,683907.875,164468.34375,-0.05810546875,1.001708984375,-0.12646484375,-2.197265386581421,-0.6713866591453552,0.0915527269244194,100.0,20690.0,1.0
15:29:55.812807,181805.171875,177502.28125,175106.4375,206964.921875,174044.1875,163181.953125,683886.8125,164477.109375,-0.0576171875,0.99755859375,-0.125,-2.136230230331421,-0.7934569716453552,0.3051757514476776,100.0,20691.0,1.0
15:29:55.815328,181783.53125,177468.484375,175081.484375,207025.4375,174025.328125,163144.140625,683831.1875,164482.828125,-0.056396484375,0.994140625,-0.125,-2.044677495956421,-0.8544921278953552,0.4272460639476776,100.0,20692.0,1.0
15:29:55.817789,181779.421875,177459.359375,175073.71875,207039.65625,174018.53125,163136.359375,683876.625,164481.84375,-0.0546875,0.992919921875,-0.125732421875,-1.8310545682907104,-0.8544921278953552,0.5493163466453552,100.0,20693.0,1.0
15:29:55.820970,181797.390625,177477.328125,175090.15625,207058.796875,174030.25,163156.828125,683891.875,164482.296875,-0.053955078125,0.99169921875,-0.126708984375,-1.5258787870407104,-0.7324218153953552,0.5187987685203552,100.0,20694.0,1.0
15:29:55.821000,181796.9375,177488.78125,175095.609375,206970.546875,174031.234375,163168.71875,683876.625,164469.328125,-0.0546875,0.99267578125,-0.12744140625,-1.2512205839157104,-0.7934569716453552,0.6103515028953552,100.0,20695.0,1.0
15:29:55.822798,181798.640625,177483.5,175094.546875,207016.765625,174035.78125,163159.34375,683826.0,164492.125,-0.054443359375,0.9951171875,-0.123046875,-1.1596678495407104,-0.7324218153953552,0.6408690810203552,100.0,20696.0,1.0
15:29:55.825859,181793.90625,177473.390625,175086.234375,207061.46875,174031.40625,163151.109375,683863.5625,164498.921875,-0.05810546875,0.99609375,-0.127685546875,-1.0681151151657104,-0.7629393935203552,0.6103515028953552,100.0,20697.0,1.0
15:29:55.825866,181799.796875,177479.65625,175090.25,207064.15625,174032.296875,163162.46875,683886.375,164489.53125,-0.05712890625,0.99853515625,-0.1259765625,-0.9155272841453552,-0.7934569716453552,0.4577636420726776,100.0,20698.0,1.0
15:29:55.827952,181803.5625,177494.234375,175099.109375,206996.203125,174036.328125,163176.0625,683893.75,164476.921875,-0.056640625,0.99951171875,-0.125,-0.7629393935203552,-0.7629393935203552,0.4882812201976776,100.0,20699.0,1.0
15:29:55.836697,181801.859375,177488.859375,175097.859375,206999.34375,174037.390625,163165.5,683830.0,164490.34375,-0.054443359375,1.0,-0.123291015625,-0.6408690810203552,-0.7019042372703552,0.3967284858226776,100.0,20700.0,1.0
15:29:55.839646,181787.015625,177465.796875,175079.078125,207057.984375,174022.734375,163140.203125,683871.25,164488.46875,-0.053466796875,1.001220703125,-0.122802734375,-0.5798339247703552,-0.6103515028953552,0.4577636420726776,100.0,20701.0,1.0
15:29:55.839660,181803.203125,177482.34375,175093.375,207060.40625,174034.625,163161.3125,683877.6875,164488.109375,-0.052001953125,0.9990234375,-0.12548828125,-0.5798339247703552,-0.6103515028953552,0.3662109076976776,100.0,20702.0,1.0
15:29:55.841652,181820.984375,177508.078125,175113.953125,207031.703125,174049.640625,163187.328125,683911.8125,164486.859375,-0.05029296875,0.9990234375,-0.12548828125,-0.4882812201976776,-0.5798339247703552,0.4577636420726776,100.0,20703.0,1.0
15:29:55.845395,181811.421875,177501.296875,175106.078125,206984.859375,174043.5625,163177.484375,683837.8125,164487.390625,-0.049560546875,1.0,-0.126953125,-0.3967284858226776,-0.5187987685203552,0.6408690810203552,100.0,20704.0,1.0
15:29:55.863470,181793.359375,177472.6875,175082.203125,207066.84375,174027.921875,163147.359375,683862.1875,164492.84375,-0.049560546875,1.001953125,-0.12841796875,-0.3662109076976776,-0.3662109076976776,0.6408690810203552,100.0,20705.0,1.0
15:29:55.863492,181796.765625,177476.53125,175083.09375,207051.546875,174026.046875,163155.21875,683861.5,164486.3125,-0.048095703125,1.00732421875,-0.126953125,-0.3662109076976776,-0.2746581733226776,0.6713866591453552,100.0,20706.0,1.0
15:29:55.865916,181820.546875,177505.765625,175108.765625,207052.171875,174046.0625,163184.109375,683890.4375,164491.328125,-0.046875,1.010986328125,-0.124267578125,-0.3967284858226776,-0.1220703050494194,0.6408690810203552,100.0,20707.0,1.0
15:29:55.865933,181805.515625,177495.390625,175099.546875,206969.46875,174037.3125,163171.140625,683848.625,164482.296875,-0.04833984375,1.015625,-0.12255859375,-0.5798339247703552,0.0,0.8239745497703552,100.0,20708.0,1.0
15:29:55.867911,181798.28125,177472.40625,175086.234375,207068.625,174030.15625,163144.859375,683885.25,164497.578125,-0.050537109375,1.01708984375,-0.125,-0.8239745497703552,0.0915527269244194,0.8239745497703552,100.0,20709.0,1.0
15:29:55.870329,181807.671875,177483.5,175093.109375,207060.671875,174033.8125,163158.796875,683874.125,164498.125,-0.050537109375,1.01806640625,-0.12744140625,-1.0681151151657104,0.1831054538488388,0.8239745497703552,100.0,20710.0,1.0
15:29:55.887784,181806.234375,177486.625,175091.765625,207052.984375,174028.8125,163163.984375,683891.875,164477.90625,-0.05078125,1.01708984375,-0.12939453125,-1.3122557401657104,0.2441406100988388,0.6408690810203552,100.0,20711.0,1.0
15:29:55.890859,181804.890625,177497.71875,175097.40625,206961.34375,174032.84375,163174.8125,683846.3125,164473.890625,-0.0517578125,1.01611328125,-0.12890625,-1.5563963651657104,0.2441406100988388,0.6713866591453552,100.0,20712.0,1.0
15:29:55.890864,181798.734375,177480.546875,175088.734375,207056.375,174032.5625,163155.9375,683846.625,164495.703125,-0.0517578125,1.01513671875,-0.1259765625,-1.7700194120407104,0.3662109076976776,0.7019042372703552,100.0,20713.0,1.0
15:29:55.892820,181802.296875,177482.15625,175090.25,207057.8125,174032.84375,163159.15625,683862.9375,164498.46875,-0.05224609375,1.01318359375,-0.12841796875,-1.9226073026657104,0.3662109076976776,0.6713866591453552,100.0,20714.0,1.0
15:29:55.897853,181814.640625,177498.34375,175102.59375,207072.921875,174040.53125,163177.046875,683902.875,164490.609375,-0.052001953125,1.015625,-0.129638671875,-2.288818120956421,0.3662109076976776,0.6408690810203552,100.0,20715.0,1.0
15:29:55.905403,181819.015625,177515.953125,175113.046875,206981.015625,174048.84375,163195.09375,683875.875,164485.515625,-0.053466796875,1.016357421875,-0.12744140625,-2.380370855331421,0.4577636420726776,0.6103515028953552,100.0,20716.0,1.0
15:29:55.908517,181807.671875,177492.796875,175097.140625,207048.0625,174039.984375,163168.90625,683838.5,164498.65625,-0.0537109375,1.017578125,-0.12451171875,-2.532958745956421,0.4272460639476776,0.6408690810203552,100.0,20717.0,1.0
15:29:55.908522,181789.875,177468.65625,175075.671875,207050.75,174020.3125,163145.21875,683843.25,164486.140625,-0.05615234375,1.017333984375,-0.12548828125,-2.838134527206421,0.4882812201976776,0.7019042372703552,100.0,20718.0,1.0
15:29:55.910521,181802.921875,177482.34375,175086.765625,207068.453125,174026.578125,163160.328125,683877.5625,164479.15625,-0.056396484375,1.017822265625,-0.1259765625,-3.112792730331421,0.4272460639476776,0.7019042372703552,100.0,20719.0,1.0
15:29:55.912794,181810.4375,177501.296875,175100.265625,206987.796875,174036.0625,163181.0625,683881.875,164473.265625,-0.05615234375,1.017333984375,-0.12158203125,-3.356933355331421,0.3967284858226776,0.6713866591453552,100.0,20720.0,1.0
15:29:55.919051,181806.859375,177490.921875,175094.546875,207027.5,174034.796875,163167.65625,683853.0625,164491.5,-0.056396484375,1.014404296875,-0.125732421875,-3.631591558456421,0.4577636420726776,0.5798339247703552,100.0,20721.0,1.0
15:29:55.926046,181799.078125,177474.5625,175083.546875,207067.203125,174026.9375,163150.21875,683887.25,164494.984375,-0.05615234375,1.01171875,-0.129638671875,-3.875732183456421,0.4272460639476776,0.5798339247703552,100.0,20722.0,1.0
15:29:55.926056,181808.296875,177486.71875,175090.609375,207068.625,174031.40625,163164.609375,683885.4375,164488.109375,-0.05712890625,1.01025390625,-0.12841796875,-3.997802495956421,0.3967284858226776,0.3967284858226776,100.0,20723.0,1.0
15:29:55.928026,181818.578125,177507.90625,175105.265625,207009.0,174041.953125,163186.15625,683899.9375,164481.9375,-0.05712890625,1.01123046875,-0.12841796875,-4.089354991912842,0.4272460639476776,0.3356933295726776,100.0,20724.0,1.0
15:29:55.939091,181797.828125,177481.4375,175085.96875,206992.625,174027.109375,163160.046875,683828.5,164480.765625,-0.0556640625,1.01123046875,-0.127685546875,-4.089354991912842,0.3967284858226776,0.4577636420726776,100.0,20725.0,1.0
15:29:55.941553,181796.484375,177468.75,175079.078125,207067.203125,174025.953125,163147.890625,683856.9375,164496.859375,-0.0556640625,1.01416015625,-0.126220703125,-4.211425304412842,0.3967284858226776,0.4882812201976776,100.0,20726.0,1.0
15:29:55.973611,181807.484375,177484.125,175088.015625,207064.6875,174032.5625,163166.21875,683871.4375,164492.84375,-0.056640625,1.014892578125,-0.125,-4.425048351287842,0.3967284858226776,0.4272460639476776,100.0,20727.0,1.0
15:29:55.973631,181815.453125,177501.015625,175100.625,207030.1875,174040.796875,163184.1875,683904.9375,164484.34375,-0.056640625,1.01416015625,-0.122314453125,-4.577636241912842,0.3967284858226776,0.4882812201976776,100.0,20728.0,1.0
15:29:55.999136,181812.765625,177500.578125,175102.140625,206990.75,174043.921875,163180.609375,683834.3125,164494.09375,-0.058349609375,1.01123046875,-0.123779296875,-4.882812023162842,0.4272460639476776,0.5493163466453552,100.0,20729.0,1.0
15:29:56.004085,181797.5625,177475.71875,175082.828125,207074.078125,174030.875,163152.09375,683858.0625,164500.171875,-0.056640625,1.00732421875,-0.121826171875,-4.974364757537842,0.3662109076976776,0.6103515028953552,100.0,20730.0,1.0
15:29:56.006564,181804.625,177482.78125,175087.578125,207063.359375,174032.296875,163162.921875,683852.375,164496.15625,-0.05712890625,1.003662109375,-0.125,-5.065917491912842,0.3356933295726776,0.5798339247703552,100.0,20731.0,1.0
15:29:56.009033,181815.171875,177496.640625,175098.484375,207050.203125,174038.5625,163179.71875,683888.5625,164484.625,-0.056640625,1.00244140625,-0.124267578125,-5.249022960662842,0.3051757514476776,0.4882812201976776,100.0,20732.0,1.0
15:29:56.011544,181817.953125,177510.765625,175108.21875,206981.09375,174048.65625,163191.34375,683843.8125,164491.859375,-0.05712890625,1.000732421875,-0.124267578125,-5.218505382537842,0.2746581733226776,0.4882812201976776,100.0,20733.0,1.0
15:29:56.020307,181809.90625,177490.921875,175095.890625,207077.65625,174043.03125,163168.453125,683874.75,164507.421875,-0.057373046875,1.00048828125,-0.125732421875,-5.310058116912842,0.3051757514476776,0.4577636420726776,100.0,20734.0,1.0
15:29:56.027951,181805.515625,177485.203125,175089.8125,207058.703125,174034.09375,163167.46875,683854.25,164497.578125,-0.0576171875,1.001708984375,-0.12939453125,-5.279540538787842,0.3051757514476776,0.5187987685203552,100.0,20735.0,1.0
15:29:56.032824,181823.3125,177507.453125,175106.4375,207069.15625,174046.609375,163191.078125,683891.0625,164494.09375,-0.05810546875,1.003173828125,-0.12646484375,-5.187987804412842,0.2441406100988388,0.3356933295726776,100.0,20736.0,1.0
15:29:56.041568,181834.21875,177530.171875,175121.71875,206988.609375,174058.140625,163210.125,683859.8125,164499.453125,-0.05615234375,1.0029296875,-0.126953125,-5.157470226287842,0.1220703050494194,0.2441406100988388,100.0,20737.0,1.0
15:29:56.044021,181811.78125,177494.859375,175094.09375,207066.484375,174038.375,163171.859375,683853.625,164501.875,-0.05517578125,1.0029296875,-0.127197265625,-5.096435070037842,0.1220703050494194,0.2136230319738388,100.0,20738.0,1.0
15:29:56.046622,181811.953125,177490.828125,175092.046875,207068.453125,174037.75,163171.40625,683865.75,164505.1875,-0.053466796875,1.00244140625,-0.127197265625,-5.004882335662842,0.0915527269244194,0.1220703050494194,100.0,20739.0,1.0
15:29:56.049038,181819.640625,177500.75,175100.359375,207083.828125,174043.03125,163185.71875,683888.3125,164498.203125,-0.05517578125,1.003662109375,-0.12646484375,-4.913329601287842,0.0610351525247097,0.1831054538488388,100.0,20740.0,1.0
15:29:56.057939,181817.6875,177513.0,175105.265625,206986.375,174044.28125,163198.234375,683857.375,164488.1875,-0.0556640625,1.0029296875,-0.12548828125,-4.699706554412842,0.0610351525247097,0.1831054538488388,100.0,20741.0,1.0
15:29:56.060342,181816.609375,177501.921875,175099.8125,207060.21875,174044.8125,163185.265625,683830.125,164508.9375,-0.05419921875,1.003173828125,-0.123291015625,-4.669188976287842,0.03051757626235485,0.0915527269244194,100.0,20742.0,1.0
15:29:56.062837,181802.125,177485.109375,175083.71875,207068.890625,174030.6875,163172.484375,683871.6875,164501.15625,-0.054931640625,1.00439453125,-0.121337890625,-4.608153820037842,0.0,0.0610351525247097,100.0,20743.0,1.0
15:29:56.075391,181816.421875,177499.40625,175097.21875,207081.59375,174039.625,163190.71875,683880.375,164498.65625,-0.05615234375,1.00341796875,-0.1220703125,-4.516601085662842,-0.03051757626235485,0.03051757626235485,100.0,20744.0,1.0
15:29:56.080346,181826.890625,177521.234375,175113.046875,207006.75,174050.890625,163211.375,683866.375,164497.5,-0.057861328125,1.001708984375,-0.122802734375,-4.486083507537842,-0.03051757626235485,0.03051757626235485,100.0,20745.0,1.0
15:29:56.091606,181815.0,177503.609375,175100.0,207036.265625,174044.015625,163190.359375,683863.875,164504.015625,-0.06201171875,1.00048828125,-0.12109375,-4.425048351287842,-0.1220703050494194,0.0,100.0,20746.0,1.0
15:29:56.102390,181803.015625,177484.75,175085.421875,207077.125,174033.109375,163172.484375,683890.5625,164508.484375,-0.062744140625,0.997802734375,-0.123291015625,-4.211425304412842,-0.2136230319738388,-0.0915527269244194,100.0,20747.0,1.0
15:29:56.102473,181816.96875,177498.78125,175099.1875,207087.9375,174043.5625,163193.578125,683869.1875,164509.734375,-0.06298828125,0.99755859375,-0.117919921875,-4.150390148162842,-0.3356933295726776,0.03051757626235485,100.0,20748.0,1.0
15:29:56.109119,181827.15625,177517.65625,175112.34375,207027.59375,174050.09375,163206.09375,683876.625,164502.40625,-0.06396484375,0.99853515625,-0.11865234375,-3.936767339706421,-0.4882812201976776,-0.0915527269244194,100.0,20749.0,1.0
15:29:56.111611,181812.40625,177500.484375,175097.578125,207011.046875,174038.828125,163186.78125,683822.0,164500.265625,-0.0625,0.99853515625,-0.119140625,-3.784179449081421,-0.4882812201976776,-0.1831054538488388,100.0,20750.0,1.0
15:29:56.114075,181805.875,177485.015625,175087.125,207083.921875,174033.1875,163172.03125,683867.375,164513.5,-0.064208984375,0.998291015625,-0.122802734375,-3.692626714706421,-0.6103515028953552,-0.1220703050494194,100.0,20751.0,1.0
15:29:56.119096,181829.484375,177511.296875,175106.34375,207092.234375,174047.953125,163201.625,683872.5,164514.5625,-0.063720703125,0.9990234375,-0.119873046875,-3.509521245956421,-0.7324218153953552,-0.1525878757238388,100.0,20752.0,1.0
15:29:56.129068,181825.90625,177516.578125,175105.265625,207036.796875,174042.046875,163208.15625,683880.375,164488.375,-0.0615234375,1.00244140625,-0.12060546875,-3.448486089706421,-0.7019042372703552,-0.1220703050494194,100.0,20753.0,1.0
15:29:56.131585,181830.28125,177524.984375,175112.78125,207008.546875,174049.734375,163212.71875,683820.1875,164510.453125,-0.0595703125,1.003662109375,-0.11962890625,-3.387450933456421,-0.7934569716453552,0.0610351525247097,100.0,20754.0,1.0
15:29:56.134070,181810.4375,177491.90625,175091.328125,207097.421875,174038.5625,163186.875,683858.625,164533.515625,-0.05810546875,1.00390625,-0.11767578125,-3.356933355331421,-0.9155272841453552,0.0610351525247097,100.0,20755.0,1.0
