Timestamp,Fz,FC3,FCz,FC4,Cz,C3,C4
15:41:11.599897,175955.171875,169776.609375,160089.1875,198412.421875,162275.8125,163639.546875,686859.6875,159847.171875,-0.08642578125,1.00048828125,-0.135009765625,-2.105712652206421,0.1525878757238388,-0.1220703050494194,100.0,189755.0,1.0
15:41:11.599906,175918.15625,169777.25,160088.65625,198392.84375,162274.203125,163640.34375,686842.4375,159838.40625,-0.086669921875,1.00146484375,-0.1337890625,-2.136230230331421,0.1831054538488388,-0.1525878757238388,100.0,189756.0,1.0
15:41:11.603570,175883.921875,169769.375,160081.6875,198407.765625,162273.671875,163627.5625,686915.4375,159853.25,-0.088134765625,0.9990234375,-0.1328125,-2.166747808456421,0.1220703050494194,-0.1831054538488388,100.0,189757.0,1.0
15:41:11.603603,175874.4375,169769.90625,160083.296875,198426.28125,162276.09375,163629.34375,686876.3125,159866.296875,-0.08837890625,0.99951171875,-0.13671875,-2.044677495956421,0.0915527269244194,-0.03051757626235485,100.0,189758.0,1.0
15:41:11.603611,175954.546875,169778.3125,160092.671875,198421.453125,162281.359375,163637.390625,686845.875,159863.171875,-0.089111328125,0.9990234375,-0.136962890625,-2.105712652206421,0.0610351525247097,-0.0915527269244194,100.0,189759.0,1.0
15:41:11.606141,175928.265625,169779.65625,160088.125,198385.6875,162274.484375,163639.09375,686844.375,159837.6875,-0.089111328125,0.998046875,-0.1376953125,-2.044677495956421,0.0915527269244194,-0.1831054538488388,100.0,189760.0,1.0
15:41:11.608614,175877.484375,169765.078125,160073.640625,198385.875,162264.28125,163624.4375,686898.125,159838.3125,-0.0888671875,0.9970703125,-0.13232421875,-2.044677495956421,0.0,-0.1220703050494194,100.0,189761.0,1.0
15:41:11.611111,175854.421875,169755.515625,160065.765625,198400.0,162258.828125,163612.453125,686905.625,159844.75,-0.08984375,0.9970703125,-0.135986328125,-2.075195074081421,0.0,-0.0915527269244194,100.0,189762.0,1.0
15:41:11.618627,175924.0625,169759.8125,160073.359375,198403.84375,162262.59375,163619.609375,686833.5625,159843.6875,-0.0927734375,0.9970703125,-0.136962890625,-2.014159917831421,0.03051757626235485,-0.0610351525247097,100.0,189763.0,1.0
15:41:11.626718,175932.015625,169768.578125,160079.265625,198390.609375,162264.46875,163629.34375,686839.8125,159833.9375,-0.093017578125,0.998779296875,-0.13720703125,-1.9531248807907104,-0.0915527269244194,0.0,100.0,189764.0,1.0
15:41:11.626770,175879.890625,169759.546875,160072.296875,198384.609375,162260.625,163620.5,686855.125,159836.265625,-0.091552734375,1.0,-0.13427734375,-1.9226073026657104,-0.1831054538488388,0.03051757626235485,100.0,189765.0,1.0
15:41:11.632921,175856.65625,169750.953125,160067.109375,198400.890625,162259.453125,163610.21875,686916.4375,159847.703125,-0.093017578125,0.997314453125,-0.1357421875,-1.9226073026657104,-0.1831054538488388,0.0610351525247097,100.0,189766.0,1.0
15:41:11.632951,175915.03125,169767.59375,160079.265625,198409.5625,162267.59375,163629.0,686834.875,159854.234375,-0.092529296875,1.002197265625,-0.134765625,-1.9836424589157104,-0.2746581733226776,-0.03051757626235485,100.0,189767.0,1.0
15:41:11.638564,175952.3125,169788.421875,160093.75,198406.78125,162277.515625,163649.734375,686863.875,159854.859375,-0.0927734375,1.00244140625,-0.133056640625,-1.9531248807907104,-0.4272460639476776,0.03051757626235485,100.0,189768.0,1.0
15:41:11.649219,175902.515625,169787.703125,160091.78125,198400.265625,162276.265625,163643.828125,686858.75,159849.140625,-0.0908203125,1.001708984375,-0.129638671875,-1.9531248807907104,-0.4882812201976776,0.0610351525247097,100.0,189769.0,1.0
15:41:11.649252,175863.0,169754.171875,160069.875,198402.5,162261.515625,163614.6875,686946.5625,159849.140625,-0.09326171875,1.001708984375,-0.13134765625,-2.014159917831421,-0.5187987685203552,0.1220703050494194,100.0,189770.0,1.0
15:41:11.655411,175895.71875,169758.5625,160075.421875,198407.859375,162265.09375,163623.359375,686840.0,159848.859375,-0.09130859375,1.001220703125,-0.13330078125,-2.044677495956421,-0.6408690810203552,-0.03051757626235485,100.0,189771.0,1.0
15:41:11.655447,175957.59375,169782.421875,160091.515625,198408.578125,162276.0,163643.5625,686853.75,159846.1875,-0.09375,1.001708984375,-0.135498046875,-2.075195074081421,-0.7019042372703552,0.03051757626235485,100.0,189772.0,1.0
15:41:11.657962,175906.453125,169792.0,160093.03125,198402.046875,162277.609375,163649.28125,686835.5,159851.640625,-0.093505859375,1.00048828125,-0.13427734375,-2.136230230331421,-0.7324218153953552,-0.0915527269244194,100.0,189773.0,1.0
15:41:11.657996,175864.0625,169753.28125,160069.515625,198405.625,162260.984375,163611.921875,686920.625,159849.40625,-0.091796875,0.9990234375,-0.135009765625,-2.136230230331421,-0.8544921278953552,0.0610351525247097,100.0,189774.0,1.0
15:41:11.669883,175876.859375,169757.390625,160070.78125,198402.671875,162259.640625,163618.265625,686829.25,159846.984375,-0.091552734375,0.99951171875,-0.13427734375,-2.227782964706421,-0.9460448622703552,0.0915527269244194,100.0,189775.0,1.0
15:41:11.677384,175952.046875,169772.5,160084.0,198403.03125,162267.765625,163630.875,686857.625,159844.9375,-0.091064453125,0.9990234375,-0.136474609375,-2.136230230331421,-0.8850097060203552,0.0610351525247097,100.0,189776.0,1.0
15:41:11.677408,175907.4375,169776.609375,160085.25,198390.0625,162267.328125,163635.4375,686839.625,159838.765625,-0.08984375,0.999755859375,-0.1357421875,-2.075195074081421,-1.0375975370407104,0.0,100.0,189777.0,1.0
15:41:11.677415,175875.6875,169764.71875,160076.578125,198406.34375,162266.609375,163620.40625,686930.125,159854.40625,-0.089599609375,1.000244140625,-0.131591796875,-2.166747808456421,-1.1291502714157104,0.03051757626235485,100.0,189778.0,1.0
15:41:11.701116,175867.109375,169755.34375,160070.953125,198405.71875,162263.65625,163616.296875,686849.3125,159854.671875,-0.09130859375,0.999267578125,-0.13330078125,-2.227782964706421,-1.0681151151657104,0.0,100.0,189779.0,1.0
15:41:11.724931,175945.78125,169769.46875,160079.71875,198401.0625,162267.5,163630.6875,686869.25,159843.046875,-0.08837890625,0.9970703125,-0.1328125,-2.197265386581421,-1.0681151151657104,0.03051757626235485,100.0,189780.0,1.0
15:41:11.728588,175915.21875,169774.65625,160082.390625,198386.9375,162266.078125,163633.734375,686852.0,159833.84375,-0.090087890625,0.998291015625,-0.132080078125,-2.197265386581421,-1.0375975370407104,0.03051757626235485,100.0,189781.0,1.0
15:41:11.728613,175872.203125,169759.265625,160070.5,198391.765625,162260.796875,163618.265625,686895.0,159842.34375,-0.088623046875,0.999267578125,-0.131591796875,-2.227782964706421,-0.9460448622703552,0.03051757626235485,100.0,189782.0,1.0
15:41:11.728624,175855.390625,169755.515625,160065.140625,198398.109375,162257.84375,163616.03125,686866.8125,159845.734375,-0.088134765625,0.998779296875,-0.132568359375,-2.227782964706421,-1.0070799589157104,-0.03051757626235485,100.0,189783.0,1.0
15:41:11.732252,175937.65625,169773.671875,160079.265625,198406.875,162265.890625,163633.109375,686857.875,159848.234375,-0.087890625,0.99658203125,-0.130859375,-2.288818120956421,-1.0070799589157104,0.03051757626235485,100.0,189784.0,1.0
15:41:11.732272,175932.28125,169791.90625,160090.0,198402.3125,162272.15625,163648.84375,686851.8125,159852.0,-0.089111328125,0.99755859375,-0.133056640625,-2.288818120956421,-0.9765624403953552,0.03051757626235485,100.0,189785.0,1.0
15:41:11.732281,175882.046875,169764.640625,160074.890625,198399.546875,162262.859375,163622.46875,686881.5,159849.84375,-0.0888671875,0.998046875,-0.133544921875,-2.227782964706421,-0.8239745497703552,-0.0610351525247097,100.0,189786.0,1.0
15:41:11.734835,175849.765625,169741.5625,160058.875,198393.28125,162251.953125,163605.296875,686896.9375,159838.9375,-0.087646484375,0.99755859375,-0.132080078125,-2.197265386581421,-0.7934569716453552,-0.0915527269244194,100.0,189787.0,1.0
15:41:11.737314,175923.703125,169760.609375,160072.296875,198395.96875,162261.0625,163622.734375,686837.75,159838.859375,-0.0908203125,0.9990234375,-0.13232421875,-2.197265386581421,-0.7629393935203552,0.0,100.0,189788.0,1.0
15:41:11.739797,175944.53125,169778.9375,160087.578125,198393.734375,162273.40625,163641.234375,686861.375,159838.140625,-0.087890625,0.999755859375,-0.130126953125,-2.197265386581421,-0.6103515028953552,0.0610351525247097,100.0,189789.0,1.0
15:41:11.742363,175895.984375,169781.984375,160086.6875,198395.796875,162275.109375,163641.78125,686872.1875,159847.703125,-0.08740234375,0.998291015625,-0.128173828125,-2.136230230331421,-0.5798339247703552,-0.0610351525247097,100.0,189790.0,1.0
15:41:11.744815,175869.25,169770.984375,160077.21875,198410.28125,162269.109375,163628.90625,686930.625,159851.453125,-0.086669921875,0.998779296875,-0.1328125,-2.227782964706421,-0.5493163466453552,0.03051757626235485,100.0,189791.0,1.0
15:41:11.747394,175923.53125,169779.203125,160086.859375,198415.46875,162275.734375,163639.0,686840.1875,159857.265625,-0.086669921875,0.998046875,-0.1337890625,-2.105712652206421,-0.4882812201976776,0.1220703050494194,100.0,189792.0,1.0
15:41:11.749825,175954.640625,169783.328125,160092.671875,198407.328125,162277.96875,163643.65625,686854.375,159846.8125,-0.086181640625,0.99755859375,-0.133544921875,-2.075195074081421,-0.4577636420726776,0.1525878757238388,100.0,189793.0,1.0
15:41:11.752326,175903.140625,169784.84375,160091.34375,198395.875,162276.265625,163642.5,686850.625,159848.15625,-0.08740234375,0.999755859375,-0.13232421875,-2.136230230331421,-0.3356933295726776,0.1220703050494194,100.0,189794.0,1.0
15:41:11.754843,175873.28125,169759.546875,160076.578125,198411.171875,162267.0625,163616.921875,686932.0625,159858.078125,-0.088134765625,0.998779296875,-0.130126953125,-2.075195074081421,-0.2746581733226776,0.0915527269244194,100.0,189795.0,1.0
15:41:11.757402,175900.546875,169763.109375,160077.65625,198405.890625,162266.78125,163622.90625,686830.0625,159850.390625,-0.0888671875,0.998779296875,-0.128662109375,-2.075195074081421,-0.1831054538488388,0.1525878757238388,100.0,189796.0,1.0
15:41:11.760516,175960.1875,169781.0,160091.34375,198403.578125,162275.375,163640.53125,686878.0,159845.46875,-0.087158203125,0.998779296875,-0.130859375,-2.136230230331421,-0.2136230319738388,0.1525878757238388,100.0,189797.0,1.0
15:41:11.760535,175903.859375,169779.75,160086.59375,198390.78125,162269.46875,163637.390625,686851.0625,159840.015625,-0.087646484375,0.998779296875,-0.1337890625,-2.075195074081421,-0.1525878757238388,0.2441406100988388,100.0,189798.0,1.0
15:41:11.762403,175869.703125,169755.96875,160068.984375,198399.28125,162259.546875,163612.453125,686942.8125,159848.59375,-0.089111328125,0.999755859375,-0.134033203125,-2.044677495956421,0.0,0.3356933295726776,100.0,189799.0,1.0
15:41:11.769808,175882.046875,169765.796875,160073.453125,198400.4375,162263.65625,163622.734375,686853.5625,159849.484375,-0.087646484375,0.996826171875,-0.134033203125,-1.9531248807907104,0.0915527269244194,0.3051757514476776,100.0,189800.0,1.0
15:41:11.773032,175950.796875,169770.984375,160081.328125,198399.8125,162267.328125,163632.484375,686869.3125,159845.640625,-0.090087890625,0.995849609375,-0.13330078125,-2.014159917831421,0.0915527269244194,0.4577636420726776,100.0,189801.0,1.0
15:41:11.773069,175900.90625,169769.46875,160074.34375,198373.0,162257.21875,163630.875,686843.75,159829.375,-0.092041015625,0.998046875,-0.132080078125,-1.8005369901657104,0.1220703050494194,0.3051757514476776,100.0,189802.0,1.0
15:41:11.781144,175863.359375,169749.96875,160059.59375,198385.6875,162248.28125,163607.453125,686931.75,159836.265625,-0.09033203125,0.998046875,-0.129150390625,-1.8005369901657104,0.1831054538488388,0.2441406100988388,100.0,189803.0,1.0
15:41:11.785474,175858.890625,169749.34375,160058.96875,198393.921875,162247.75,163608.078125,686860.9375,159841.0,-0.088623046875,0.9970703125,-0.131103515625,-1.8615721464157104,0.0915527269244194,0.2136230319738388,100.0,189804.0,1.0
15:41:11.785496,175942.296875,169767.046875,160073.71875,198389.796875,162259.71875,163630.25,686854.8125,159833.390625,-0.090576171875,0.996337890625,-0.130859375,-1.8615721464157104,0.2441406100988388,0.2441406100988388,100.0,189805.0,1.0
15:41:11.791127,175916.640625,169783.859375,160084.0,198378.71875,162267.765625,163647.234375,686848.375,159832.953125,-0.08935546875,0.998779296875,-0.132568359375,-1.8005369901657104,0.2136230319738388,0.2746581733226776,100.0,189806.0,1.0
15:41:11.799155,175877.296875,169763.5625,160072.734375,198389.09375,162261.953125,163622.90625,686941.5,159839.484375,-0.090087890625,0.998046875,-0.1318359375,-1.7700194120407104,0.3051757514476776,0.3356933295726776,100.0,189807.0,1.0
15:41:11.799186,175854.140625,169747.5625,160062.453125,198394.625,162254.0,163611.203125,686889.5,159840.015625,-0.089599609375,0.99755859375,-0.132568359375,-1.8005369901657104,0.3662109076976776,0.2746581733226776,100.0,189808.0,1.0
15:41:11.801687,175940.609375,169774.375,160080.34375,198408.671875,162267.328125,163638.203125,686850.4375,159848.953125,-0.08984375,0.99853515625,-0.133056640625,-1.8615721464157104,0.3051757514476776,0.3662109076976776,100.0,189809.0,1.0
15:41:11.801699,175929.421875,169789.3125,160087.046875,198390.421875,162270.359375,163652.421875,686851.1875,159841.4375,-0.090576171875,0.99853515625,-0.131103515625,-1.7089842557907104,0.3967284858226776,0.3662109076976776,100.0,189810.0,1.0
15:41:11.812329,175876.046875,169766.515625,160071.125,198380.40625,162258.390625,163627.65625,686909.375,159834.203125,-0.09033203125,0.998046875,-0.128662109375,-1.6784666776657104,0.5187987685203552,0.4272460639476776,100.0,189811.0,1.0
15:41:11.816617,175849.859375,169748.1875,160060.578125,198400.171875,162250.6875,163608.609375,686896.6875,159845.203125,-0.08984375,0.99853515625,-0.132080078125,-1.6479490995407104,0.5187987685203552,0.3967284858226776,100.0,189812.0,1.0
15:41:11.816637,175917.890625,169758.734375,160070.59375,198403.296875,162256.953125,163620.59375,686831.9375,159843.6875,-0.09033203125,1.0,-0.133056640625,-1.7700194120407104,0.5493163466453552,0.4882812201976776,100.0,189813.0,1.0
15:41:11.826171,175936.125,169775.546875,160081.140625,198391.328125,162263.921875,163634.796875,686853.5,159835.453125,-0.09228515625,1.0,-0.131103515625,-1.7395018339157104,0.4882812201976776,0.4882812201976776,100.0,189814.0,1.0
15:41:11.829210,175889.28125,169776.796875,160079.984375,198393.109375,162266.4375,163635.34375,686912.4375,159846.09375,-0.0927734375,1.00048828125,-0.132080078125,-1.7395018339157104,0.4577636420726776,0.4882812201976776,100.0,189815.0,1.0
15:41:11.829237,175859.953125,169763.5625,160070.59375,198402.046875,162261.515625,163622.46875,686947.8125,159847.25,-0.092529296875,1.00048828125,-0.1318359375,-1.7395018339157104,0.3051757514476776,0.5187987685203552,100.0,189816.0,1.0
15:41:11.836136,175912.34375,169777.15625,160081.0625,198406.78125,162269.015625,163638.109375,686836.625,159847.34375,-0.092041015625,0.998291015625,-0.133056640625,-1.8005369901657104,0.3662109076976776,0.5798339247703552,100.0,189817.0,1.0
15:41:11.844246,175953.921875,169790.03125,160094.375,198399.546875,162278.046875,163651.53125,686874.3125,159842.875,-0.09130859375,1.0,-0.1337890625,-1.7700194120407104,0.3967284858226776,0.4882812201976776,100.0,189818.0,1.0
15:41:11.844270,175903.40625,169797.984375,160097.15625,198394.453125,162281.8125,163656.34375,686886.5,159845.375,-0.0908203125,0.9990234375,-0.1328125,-1.7395018339157104,0.4272460639476776,0.5493163466453552,100.0,189819.0,1.0
15:41:11.846726,175870.59375,169775.1875,160079.984375,198409.375,162268.21875,163630.6875,686951.8125,159851.09375,-0.091796875,0.997802734375,-0.131103515625,-1.6479490995407104,0.4882812201976776,0.4882812201976776,100.0,189820.0,1.0
15:41:11.846763,175898.484375,169767.40625,160077.03125,198412.421875,162262.046875,163625.859375,686820.6875,159848.328125,-0.092529296875,0.998779296875,-0.1298828125,-1.6174315214157104,0.4272460639476776,0.5493163466453552,100.0,189821.0,1.0
15:41:11.858567,175994.421875,169788.859375,160093.296875,198408.671875,162274.828125,163647.765625,686887.0,159845.015625,-0.092529296875,0.998779296875,-0.13134765625,-1.6479490995407104,0.4272460639476776,0.4882812201976776,100.0,189822.0,1.0
15:41:11.864173,175939.796875,169793.875,160092.40625,198393.203125,162273.578125,163651.078125,686890.4375,159840.109375,-0.09423828125,0.999267578125,-0.12841796875,-1.6784666776657104,0.3051757514476776,0.5187987685203552,100.0,189823.0,1.0
15:41:11.864197,175882.40625,169766.0625,160071.671875,198407.953125,162260.984375,163623.0,686842.6875,159848.6875,-0.095947265625,0.9990234375,-0.128662109375,-1.7089842557907104,0.2746581733226776,0.4882812201976776,100.0,189824.0,1.0
15:41:11.866105,175885.078125,169763.203125,160068.71875,198400.265625,162257.125,163622.375,686866.5625,159841.359375,-0.09423828125,0.998291015625,-0.131591796875,-1.7089842557907104,0.2746581733226776,0.4882812201976776,100.0,189825.0,1.0
15:41:11.871127,175957.328125,169780.734375,160085.25,198408.3125,162269.109375,163641.875,686885.3125,159847.703125,-0.093994140625,0.999267578125,-0.12939453125,-1.7089842557907104,0.2136230319738388,0.5493163466453552,100.0,189826.0,1.0
15:41:11.878094,175908.140625,169784.578125,160087.046875,198396.953125,162268.046875,163643.296875,686866.125,159843.59375,-0.08984375,0.99951171875,-0.130615234375,-1.6784666776657104,0.2136230319738388,0.5798339247703552,100.0,189827.0,1.0
15:41:11.878119,175867.921875,169763.65625,160070.328125,198396.6875,162257.125,163619.609375,686913.5,159841.71875,-0.0908203125,0.998046875,-0.1318359375,-1.6784666776657104,0.1220703050494194,0.6408690810203552,100.0,189828.0,1.0
15:41:11.884250,175855.9375,169757.125,160063.265625,198395.53125,162251.859375,163616.125,686835.25,159840.28125,-0.091796875,0.998291015625,-0.13037109375,-1.7089842557907104,0.0915527269244194,0.7019042372703552,100.0,189829.0,1.0
15:41:11.884270,175935.953125,169765.0,160073.71875,198401.0625,162258.828125,163625.6875,686831.4375,159838.21875,-0.0908203125,0.998291015625,-0.132080078125,-1.6479490995407104,0.1831054538488388,0.7019042372703552,100.0,189830.0,1.0
15:41:11.894165,175905.5625,169770.8125,160075.6875,198381.9375,162257.84375,163632.484375,686851.375,159828.03125,-0.090087890625,0.9990234375,-0.131103515625,-1.6479490995407104,0.2441406100988388,0.7019042372703552,100.0,189831.0,1.0
15:41:11.896721,175868.1875,169759.0,160069.171875,198398.921875,162256.0625,163619.15625,687007.25,159846.1875,-0.08935546875,0.99658203125,-0.130126953125,-1.7089842557907104,0.0610351525247097,0.7629393935203552,100.0,189832.0,1.0
15:41:11.896748,175848.0625,169752.65625,160061.125,198392.65625,162251.140625,163614.15625,686857.5,159838.40625,-0.09228515625,0.99658203125,-0.130615234375,-1.7089842557907104,0.0915527269244194,0.7324218153953552,100.0,189833.0,1.0
15:41:11.902310,175927.734375,169768.65625,160074.53125,198396.15625,162261.515625,163630.953125,686812.75,159840.546875,-0.091552734375,0.998046875,-0.12841796875,-1.5869139432907104,0.1831054538488388,0.7019042372703552,100.0,189834.0,1.0
15:41:11.912990,175927.734375,169786.625,160085.890625,198390.421875,162267.328125,163647.140625,686826.25,159837.421875,-0.09375,0.998779296875,-0.128173828125,-1.6479490995407104,0.2441406100988388,0.7019042372703552,100.0,189835.0,1.0
15:41:11.913013,175879.890625,169772.0625,160073.546875,198392.75,162258.5625,163632.84375,686974.4375,159838.9375,-0.09033203125,0.998291015625,-0.131591796875,-1.6784666776657104,0.0915527269244194,0.7324218153953552,100.0,189836.0,1.0
15:41:11.915385,175853.96875,169754.359375,160062.546875,198398.5625,162250.6875,163612.359375,686909.4375,159841.890625,-0.09228515625,1.0,-0.132568359375,-1.5869139432907104,0.0,0.7324218153953552,100.0,189837.0,1.0
15:41:11.915408,175928.890625,169779.03125,160081.859375,198406.875,162266.15625,163637.125,686825.0625,159846.625,-0.0908203125,1.000732421875,-0.131591796875,-1.6174315214157104,0.0915527269244194,0.7019042372703552,100.0,189838.0,1.0
15:41:11.922439,175953.203125,169803.078125,160098.9375,198403.65625,162277.96875,163660.46875,686840.8125,159842.34375,-0.09130859375,1.0009765625,-0.132568359375,-1.4953612089157104,-0.03051757626235485,0.7324218153953552,100.0,189839.0,1.0
15:41:11.926721,175902.15625,169799.859375,160095.1875,198401.609375,162276.171875,163654.921875,686911.875,159848.421875,-0.090576171875,1.00048828125,-0.13134765625,-1.6174315214157104,0.0610351525247097,0.6713866591453552,100.0,189840.0,1.0
15:41:11.926784,175874.171875,169778.140625,160081.765625,198416.09375,162269.203125,163632.65625,686949.0625,159854.671875,-0.090087890625,0.998046875,-0.130859375,-1.5258787870407104,0.0,0.6408690810203552,100.0,189841.0,1.0
15:41:11.938637,175921.203125,169783.40625,160085.703125,198408.3125,162270.546875,163640.890625,686832.375,159849.3125,-0.0888671875,0.996826171875,-0.132080078125,-1.4953612089157104,0.0610351525247097,0.6103515028953552,100.0,189842.0,1.0
15:41:11.941737,175960.8125,169787.609375,160094.90625,198405.8125,162275.90625,163647.859375,686862.6875,159849.21875,-0.08837890625,0.995849609375,-0.13134765625,-1.3732908964157104,0.0610351525247097,0.6408690810203552,100.0,189843.0,1.0
15:41:11.941772,175909.484375,169789.484375,160093.75,198403.484375,162273.671875,163646.34375,686868.25,159847.609375,-0.0859375,0.994873046875,-0.130859375,-1.3732908964157104,0.0915527269244194,0.7934569716453552,100.0,189844.0,1.0
15:41:11.943639,175876.046875,169769.46875,160077.21875,198413.140625,162264.109375,163623.984375,686954.8125,159852.0,-0.0869140625,0.992431640625,-0.13330078125,-1.3427733182907104,0.0610351525247097,0.7019042372703552,100.0,189845.0,1.0
15:41:11.949833,175901.4375,169778.859375,160081.859375,198411.890625,162267.140625,163636.953125,686840.875,159851.375,-0.08935546875,0.9921875,-0.1328125,-1.3122557401657104,0.03051757626235485,0.7019042372703552,100.0,189846.0,1.0
15:41:11.956680,175965.71875,169798.15625,160092.234375,198402.9375,162271.796875,163650.625,686868.9375,159835.984375,-0.090576171875,0.99462890625,-0.132080078125,-1.2512205839157104,0.1220703050494194,0.7324218153953552,100.0,189847.0,1.0
15:41:11.956692,175916.8125,169793.515625,160090.0,198390.875,162266.96875,163645.71875,686844.0,159831.515625,-0.091796875,0.9951171875,-0.131103515625,-1.2817381620407104,0.1525878757238388,0.7324218153953552,100.0,189848.0,1.0
15:41:11.963589,175879.71875,169770.09375,160074.34375,198403.578125,162259.375,163624.796875,686929.75,159843.234375,-0.091064453125,0.99609375,-0.133544921875,-1.1901854276657104,0.0610351525247097,0.8544921278953552,100.0,189849.0,1.0
15:41:11.967960,175883.296875,169768.125,160071.84375,198403.65625,162257.3125,163624.515625,686849.375,159843.859375,-0.09033203125,0.99853515625,-0.13134765625,-1.2512205839157104,0.1220703050494194,0.8544921278953552,100.0,189850.0,1.0
15:41:11.967990,175963.3125,169788.59375,160087.578125,198408.046875,162269.46875,163644.546875,686875.25,159848.953125,-0.091064453125,1.000244140625,-0.13330078125,-1.2207030057907104,0.0610351525247097,0.7324218153953552,100.0,189851.0,1.0
15:41:11.973549,175915.921875,169790.296875,160084.28125,198383.0,162265.359375,163649.015625,686851.6875,159830.71875,-0.091552734375,1.00048828125,-0.131103515625,-1.1291502714157104,0.0610351525247097,0.7324218153953552,100.0,189852.0,1.0
15:41:11.982911,175878.734375,169767.859375,160069.796875,198397.140625,162258.296875,163623.53125,686922.0625,159841.984375,-0.089111328125,1.0,-0.131591796875,-1.0986326932907104,0.03051757626235485,0.8239745497703552,100.0,189853.0,1.0
15:41:11.982943,175868.265625,169762.84375,160066.125,198400.53125,162255.25,163620.234375,686873.9375,159843.953125,-0.0908203125,0.998046875,-0.130859375,-1.1596678495407104,0.03051757626235485,0.7019042372703552,100.0,189854.0,1.0
15:41:11.997958,175955.171875,169782.15625,160084.359375,198407.859375,162269.734375,163641.953125,686867.875,159846.625,-0.093017578125,0.999755859375,-0.1337890625,-0.9765624403953552,0.0610351525247097,0.7324218153953552,100.0,189855.0,1.0
15:41:11.997997,175929.421875,169792.984375,160088.65625,198387.296875,162271.796875,163651.34375,686862.375,159834.65625,-0.09228515625,1.0,-0.133056640625,-0.9460448622703552,0.0,0.7019042372703552,100.0,189856.0,1.0
15:41:11.999835,175890.171875,169787.34375,160078.546875,198391.859375,162265.984375,163640.171875,686874.875,159842.875,-0.093017578125,1.00146484375,-0.135009765625,-0.8850097060203552,0.0,0.5798339247703552,100.0,189857.0,1.0
15:41:12.002897,175869.96875,169763.828125,160066.84375,198404.015625,162255.171875,163619.515625,686879.75,159845.828125,-0.093017578125,1.001953125,-0.131103515625,-0.8850097060203552,-0.03051757626235485,0.6103515028953552,100.0,189858.0,1.0
15:41:12.002913,175943.640625,169765.984375,160073.71875,198408.21875,162257.84375,163624.515625,686855.8125,159841.625,-0.0927734375,1.004638671875,-0.131103515625,-0.9765624403953552,-0.1525878757238388,0.4577636420726776,100.0,189859.0,1.0
15:41:12.004840,175942.5625,169780.640625,160084.90625,198398.46875,162266.4375,163638.015625,686872.8125,159836.078125,-0.095703125,1.00341796875,-0.13037109375,-1.0681151151657104,-0.2136230319738388,0.3967284858226776,100.0,189860.0,1.0
15:41:12.014841,175898.765625,169772.765625,160080.515625,198398.109375,162266.15625,163628.71875,686841.9375,159839.921875,-0.0966796875,1.003662109375,-0.13134765625,-1.0986326932907104,-0.2746581733226776,0.4272460639476776,100.0,189861.0,1.0
15:41:12.017930,175876.234375,169763.390625,160075.421875,198415.8125,162265.71875,163618.984375,686875.3125,159856.90625,-0.095703125,1.0048828125,-0.132080078125,-1.2512205839157104,-0.2746581733226776,0.3356933295726776,100.0,189862.0,1.0
15:41:12.017954,175936.21875,169775.71875,160080.078125,198400.171875,162265.984375,163630.6875,686856.25,159837.421875,-0.09423828125,1.006103515625,-0.1318359375,-1.3427733182907104,-0.3662109076976776,0.3967284858226776,100.0,189863.0,1.0
15:41:12.019860,175959.5625,169787.25,160089.453125,198397.9375,162269.65625,163640.34375,686897.5,159832.765625,-0.094970703125,1.00537109375,-0.13427734375,-1.2817381620407104,-0.4272460639476776,0.3051757514476776,100.0,189864.0,1.0
15:41:12.031718,175909.671875,169778.40625,160083.5625,198401.15625,162264.640625,163630.0625,686849.1875,159842.515625,-0.093017578125,1.006103515625,-0.13525390625,-1.3427733182907104,-0.6408690810203552,0.3662109076976776,100.0,189865.0,1.0
15:41:12.031747,175872.5625,169753.375,160065.234375,198400.703125,162252.578125,163608.609375,686883.0625,159842.515625,-0.091796875,1.00341796875,-0.1337890625,-1.4648436307907104,-0.6408690810203552,0.3662109076976776,100.0,189866.0,1.0
15:41:12.034163,175923.609375,169771.515625,160075.609375,198403.484375,162260.625,163627.109375,686874.5,159840.734375,-0.092041015625,1.005859375,-0.13330078125,-1.5563963651657104,-0.6408690810203552,0.3662109076976776,100.0,189867.0,1.0
15:41:12.034185,175971.890625,169785.5625,160088.5625,198400.796875,162269.109375,163640.4375,686923.5625,159835.359375,-0.09033203125,1.00390625,-0.132568359375,-1.5869139432907104,-0.6713866591453552,0.5798339247703552,100.0,189868.0,1.0
15:41:12.041198,175918.25,169782.25,160086.859375,198398.75,162267.6875,163639.453125,686891.0625,159840.015625,-0.087890625,1.0029296875,-0.13134765625,-1.6479490995407104,-0.5493163466453552,0.6408690810203552,100.0,189869.0,1.0
15:41:12.080446,175882.75,169753.109375,160065.671875,198406.515625,162251.953125,163608.609375,686858.4375,159843.40625,-0.08740234375,1.002685546875,-0.132568359375,-1.6479490995407104,-0.4577636420726776,0.7629393935203552,100.0,189870.0,1.0
15:41:12.080473,175910.390625,169759.453125,160069.875,198415.8125,162253.734375,163616.46875,686887.5625,159853.15625,-0.085205078125,1.003173828125,-0.133056640625,-1.8005369901657104,-0.5493163466453552,0.7324218153953552,100.0,189871.0,1.0
15:41:12.104900,175975.5625,169776.890625,160079.265625,198399.09375,162260.0,163635.609375,686930.9375,159833.9375,-0.0849609375,1.0029296875,-0.12841796875,-1.8920897245407104,-0.4272460639476776,0.9155272841453552,100.0,189872.0,1.0
15:41:12.122525,175921.828125,169776.96875,160076.3125,198377.1875,162255.171875,163635.15625,686949.0,159821.953125,-0.08544921875,1.00341796875,-0.126708984375,-1.9226073026657104,-0.4272460639476776,0.9765624403953552,100.0,189873.0,1.0
15:41:12.124807,175897.328125,169764.453125,160067.90625,198400.625,162253.015625,163618.984375,686865.375,159839.921875,-0.0859375,1.003662109375,-0.129150390625,-2.014159917831421,-0.3662109076976776,1.1596678495407104,100.0,189874.0,1.0
15:41:12.127298,175902.78125,169758.375,160065.3125,198404.203125,162250.25,163615.40625,686914.1875,159841.265625,-0.0830078125,1.0029296875,-0.133056640625,-2.166747808456421,-0.3051757514476776,1.1291502714157104,100.0,189875.0,1.0
15:41:12.129869,175981.8125,169780.46875,160083.46875,198412.15625,162264.1875,163634.0,686976.8125,159848.515625,-0.082275390625,1.0,-0.131591796875,-2.227782964706421,-0.2441406100988388,1.0375975370407104,100.0,189876.0,1.0
15:41:12.133625,175939.34375,169787.34375,160089.109375,198406.703125,162267.234375,163642.84375,687054.75,159853.0625,-0.083984375,0.99951171875,-0.133056640625,-2.227782964706421,-0.0610351525247097,1.0986326932907104,100.0,189877.0,1.0
15:41:12.133645,175890.890625,169758.828125,160066.125,198400.4375,162252.03125,163616.828125,686952.125,159840.8125,-0.08349609375,0.997802734375,-0.131103515625,-2.288818120956421,-0.03051757626235485,1.0986326932907104,100.0,189878.0,1.0
15:41:12.133652,175876.140625,169752.390625,160060.21875,198399.09375,162248.109375,163610.21875,686928.9375,159835.71875,-0.08544921875,0.998046875,-0.133544921875,-2.319335699081421,0.0610351525247097,0.9765624403953552,100.0,189879.0,1.0
15:41:12.136076,175960.1875,169764.015625,160075.0625,198409.65625,162258.734375,163624.25,686969.1875,159840.109375,-0.08349609375,0.998046875,-0.131103515625,-2.319335699081421,0.2136230319738388,0.9460448622703552,100.0,189880.0,1.0
15:41:12.140313,175942.921875,169784.03125,160088.65625,198407.0625,162267.40625,163643.03125,687032.375,159839.65625,-0.08447265625,0.996826171875,-0.130615234375,-2.258300542831421,0.2441406100988388,1.0070799589157104,100.0,189881.0,1.0
15:41:12.140333,175888.03125,169762.140625,160070.421875,198393.46875,162256.0625,163619.15625,686940.3125,159835.984375,-0.083740234375,0.996337890625,-0.133544921875,-2.136230230331421,0.3356933295726776,0.7629393935203552,100.0,189882.0,1.0
15:41:12.140339,175867.828125,169754.265625,160065.5,198406.875,162253.640625,163610.671875,686897.9375,159847.25,-0.08349609375,0.99658203125,-0.13525390625,-2.105712652206421,0.3662109076976776,0.7019042372703552,100.0,189883.0,1.0
15:41:12.140344,175941.40625,169764.71875,160074.890625,198405.453125,162258.921875,163623.625,686915.4375,159841.359375,-0.081787109375,0.99560546875,-0.13232421875,-2.105712652206421,0.4272460639476776,0.6713866591453552,100.0,189884.0,1.0
15:41:12.142920,175936.3125,169774.03125,160081.6875,198391.046875,162261.609375,163635.609375,686932.875,159831.609375,-0.083251953125,0.99609375,-0.13134765625,-2.014159917831421,0.6103515028953552,0.6713866591453552,100.0,189885.0,1.0
15:41:12.142941,175887.140625,169763.203125,160074.078125,198398.203125,162258.390625,163623.890625,686853.9375,159846.1875,-0.082763671875,0.9951171875,-0.131103515625,-1.9226073026657104,0.6713866591453552,0.5798339247703552,100.0,189886.0,1.0
15:41:12.144782,175854.765625,169748.90625,160057.453125,198395.703125,162246.5,163608.875,686839.0,159839.921875,-0.0830078125,0.995361328125,-0.131591796875,-1.8920897245407104,0.8239745497703552,0.6713866591453552,100.0,189887.0,1.0
15:41:12.147358,175912.625,169755.15625,160062.8125,198397.765625,162247.921875,163617.28125,686850.75,159836.078125,-0.083984375,0.993408203125,-0.1337890625,-1.7395018339157104,0.8544921278953552,0.5798339247703552,100.0,189888.0,1.0
15:41:12.149950,175939.0,169771.15625,160074.625,198387.921875,162254.8125,163632.5625,686876.9375,159826.6875,-0.083740234375,0.993896484375,-0.13037109375,-1.6784666776657104,0.9765624403953552,0.5798339247703552,100.0,189889.0,1.0
15:41:12.152339,175891.25,169772.234375,160075.328125,198387.296875,162255.96875,163629.625,686861.375,159834.03125,-0.0849609375,0.99609375,-0.1318359375,-1.6479490995407104,1.0375975370407104,0.6408690810203552,100.0,189890.0,1.0
15:41:12.157379,175862.28125,169760.96875,160065.046875,198400.171875,162250.34375,163616.828125,686930.625,159842.609375,-0.08251953125,0.99560546875,-0.133056640625,-1.5563963651657104,1.0375975370407104,0.6103515028953552,100.0,189891.0,1.0
15:41:12.160450,175906.09375,169761.234375,160070.0625,198406.078125,162252.125,163616.5625,686833.9375,159842.609375,-0.083984375,0.9970703125,-0.1328125,-1.4953612089157104,1.0681151151657104,0.6103515028953552,100.0,189892.0,1.0
15:41:12.160463,175957.140625,169780.109375,160085.34375,198412.953125,162262.765625,163634.890625,686853.375,159847.53125,-0.0859375,0.996826171875,-0.12939453125,-1.4038084745407104,1.1596678495407104,0.6103515028953552,100.0,189893.0,1.0
15:41:12.162356,175903.40625,169775.1875,160084.0,198406.875,162263.03125,163633.734375,686858.25,159851.734375,-0.087646484375,0.99853515625,-0.129638671875,-1.2817381620407104,1.1596678495407104,0.6408690810203552,100.0,189894.0,1.0
15:41:12.164896,175866.75,169753.734375,160068.53125,198410.546875,162254.8125,163612.09375,686959.6875,159855.21875,-0.089111328125,0.9970703125,-0.13232421875,-1.1901854276657104,1.1901854276657104,0.5187987685203552,100.0,189895.0,1.0
15:41:12.167357,175886.421875,169761.59375,160069.609375,198397.9375,162254.265625,163621.125,686835.875,159837.6875,-0.089111328125,0.999267578125,-0.131103515625,-1.1596678495407104,1.1596678495407104,0.6103515028953552,100.0,189896.0,1.0
15:41:12.170476,175953.75,169776.171875,160080.78125,198395.796875,162262.234375,163636.5,686866.75,159833.84375,-0.08935546875,0.999755859375,-0.1279296875,-1.1596678495407104,1.2207030057907104,0.5493163466453552,100.0,189897.0,1.0
15:41:12.170499,175909.21875,169783.046875,160087.578125,198392.125,162266.609375,163643.484375,686852.4375,159836.34375,-0.091796875,1.001708984375,-0.128662109375,-1.1291502714157104,1.0681151151657104,0.6713866591453552,100.0,189898.0,1.0
15:41:12.172656,175876.140625,169758.828125,160072.828125,198405.53125,162257.671875,163617.8125,686948.8125,159846.265625,-0.09326171875,1.001953125,-0.1259765625,-1.0681151151657104,1.0681151151657104,0.6713866591453552,100.0,189899.0,1.0
15:41:12.174820,175877.390625,169760.875,160069.609375,198399.015625,162254.359375,163621.296875,686853.5625,159842.78125,-0.091064453125,1.00244140625,-0.130126953125,-1.0986326932907104,0.8850097060203552,0.5493163466453552,100.0,189900.0,1.0
15:41:12.177320,175958.65625,169777.78125,160085.171875,198404.734375,162265.453125,163639.09375,686871.625,159839.828125,-0.09033203125,1.00390625,-0.129638671875,-1.1291502714157104,0.7629393935203552,0.5798339247703552,100.0,189901.0,1.0
15:41:12.180453,175922.625,169791.09375,160092.234375,198396.234375,162270.09375,163651.53125,686860.0,159838.578125,-0.09033203125,1.0029296875,-0.1298828125,-1.1596678495407104,0.6408690810203552,0.6103515028953552,100.0,189902.0,1.0
15:41:12.180474,175875.25,169760.96875,160070.0625,198397.046875,162255.4375,163621.296875,686958.1875,159844.21875,-0.092529296875,1.003173828125,-0.12890625,-1.0681151151657104,0.5187987685203552,0.6713866591453552,100.0,189903.0,1.0
15:41:12.184826,175863.625,169757.390625,160063.0,198399.1875,162249.796875,163615.578125,686882.1875,159846.09375,-0.091064453125,1.00146484375,-0.126953125,-1.1596678495407104,0.4882812201976776,0.6408690810203552,100.0,189904.0,1.0
15:41:12.189812,175941.765625,169770.09375,160071.84375,198392.390625,162255.078125,163628.453125,686865.5,159831.96875,-0.090576171875,1.001220703125,-0.1279296875,-1.1596678495407104,0.2746581733226776,0.5798339247703552,100.0,189905.0,1.0
15:41:12.195426,175920.03125,169778.40625,160078.546875,198380.140625,162259.453125,163639.0,686856.0625,159827.5,-0.090087890625,1.000732421875,-0.13134765625,-1.2207030057907104,0.2136230319738388,0.5493163466453552,100.0,189906.0,1.0
15:41:12.195450,175873.453125,169757.75,160066.578125,198390.0625,162252.296875,163615.671875,686894.5625,159836.609375,-0.089599609375,1.0,-0.1298828125,-1.2817381620407104,0.0915527269244194,0.6408690810203552,100.0,189907.0,1.0
15:41:12.197326,175851.734375,169750.59375,160060.21875,198402.046875,162249.0,163608.25,686884.3125,159849.40625,-0.09228515625,0.9990234375,-0.126708984375,-1.2512205839157104,0.1220703050494194,0.6713866591453552,100.0,189908.0,1.0
15:41:12.209152,175925.046875,169756.40625,160068.890625,198400.890625,162252.484375,163615.21875,686835.8125,159838.140625,-0.087646484375,0.9990234375,-0.127685546875,-1.1596678495407104,0.03051757626235485,0.6713866591453552,100.0,189909.0,1.0
15:41:12.209180,175927.8125,169774.03125,160076.046875,198383.71875,162254.625,163630.78125,686845.8125,159822.9375,-0.086181640625,0.998779296875,-0.132568359375,-1.1596678495407104,-0.0915527269244194,0.8850097060203552,100.0,189910.0,1.0
15:41:12.213548,175876.765625,169763.75,160064.78125,198377.46875,162247.203125,163620.5,686895.1875,159824.015625,-0.085205078125,0.9970703125,-0.12890625,-1.1901854276657104,-0.0610351525247097,0.7934569716453552,100.0,189911.0,1.0
15:41:12.216084,175848.515625,169740.046875,160049.5,198393.734375,162237.28125,163598.0625,686921.5625,159833.21875,-0.083740234375,0.99609375,-0.130126953125,-1.1901854276657104,0.03051757626235485,0.7629393935203552,100.0,189912.0,1.0
15:41:12.219209,175907.078125,169750.6875,160056.296875,198386.9375,162241.3125,163609.765625,686835.5,159825.171875,-0.084716796875,0.997314453125,-0.1298828125,-1.1291502714157104,0.0610351525247097,0.8544921278953552,100.0,189913.0,1.0
15:41:12.219234,175935.859375,169769.90625,160071.578125,198383.625,162252.125,163630.78125,686858.0625,159824.640625,-0.085205078125,0.995849609375,-0.1318359375,-1.0986326932907104,0.1220703050494194,0.8544921278953552,100.0,189914.0,1.0
15:41:12.221107,175881.59375,169763.828125,160067.109375,198377.90625,162248.109375,163623.1875,686862.375,159825.078125,-0.086181640625,0.996826171875,-0.133056640625,-0.9460448622703552,0.0610351525247097,0.8239745497703552,100.0,189915.0,1.0
15:41:12.228587,175856.296875,169749.171875,160058.609375,198398.03125,162244.25,163604.578125,686934.25,159841.09375,-0.087158203125,0.9970703125,-0.130859375,-0.8544921278953552,0.0610351525247097,0.8850097060203552,100.0,189916.0,1.0
15:41:12.239412,175896.53125,169752.390625,160063.265625,198396.59375,162245.78125,163610.84375,686836.625,159835.546875,-0.0869140625,0.997314453125,-0.13037109375,-0.7019042372703552,-0.03051757626235485,0.7629393935203552,100.0,189917.0,1.0
15:41:12.239436,175951.234375,169769.015625,160077.75,198395.796875,162255.25,163629.265625,686870.75,159831.078125,-0.086181640625,0.99560546875,-0.133056640625,-0.7629393935203552,0.03051757626235485,0.6713866591453552,100.0,189918.0,1.0
15:41:12.241158,175905.828125,169783.328125,160085.34375,198399.09375,162262.3125,163641.15625,686842.125,159840.546875,-0.086181640625,0.996826171875,-0.134765625,-0.7324218153953552,0.03051757626235485,0.5187987685203552,100.0,189919.0,1.0
15:41:12.243614,175872.75,169764.015625,160072.203125,198412.78125,162256.328125,163618.359375,686910.8125,159851.09375,-0.087646484375,0.995849609375,-0.131591796875,-0.7934569716453552,0.0915527269244194,0.4272460639476776,100.0,189920.0,1.0
15:41:12.254841,175884.546875,169754.09375,160065.671875,198398.46875,162250.25,163612.90625,686824.0625,159838.578125,-0.0888671875,0.99755859375,-0.133056640625,-0.6103515028953552,0.03051757626235485,0.2441406100988388,100.0,189921.0,1.0
15:41:12.259912,175956.515625,169773.84375,160081.859375,198403.296875,162262.765625,163632.75,686856.0,159844.75,-0.089111328125,0.99560546875,-0.131103515625,-0.5187987685203552,-0.0915527269244194,0.03051757626235485,100.0,189922.0,1.0
15:41:12.259939,175908.234375,169779.390625,160084.09375,198395.96875,162262.046875,163638.109375,686846.0625,159838.40625,-0.09033203125,0.99658203125,-0.130859375,-0.5798339247703552,-0.0610351525247097,0.03051757626235485,100.0,189923.0,1.0
15:41:12.259947,175872.203125,169764.28125,160069.171875,198402.859375,162255.25,163619.78125,686962.0625,159845.46875,-0.088623046875,0.9970703125,-0.1328125,-0.5187987685203552,-0.1525878757238388,-0.0610351525247097,100.0,189924.0,1.0
15:41:12.262367,175871.40625,169760.53125,160066.65625,198403.75,162253.375,163620.40625,686856.625,159846.546875,-0.0849609375,0.9990234375,-0.1318359375,-0.3967284858226776,-0.1220703050494194,-0.0610351525247097,100.0,189925.0,1.0
15:41:12.266104,175950.078125,169773.390625,160080.15625,198406.96875,162262.59375,163635.875,686860.4375,159846.09375,-0.086669921875,1.000244140625,-0.132568359375,-0.4577636420726776,-0.1220703050494194,-0.1220703050494194,100.0,189926.0,1.0
15:41:12.273630,175914.3125,169785.734375,160085.25,198392.484375,162264.375,163646.25,686839.25,159835.71875,-0.0859375,0.999755859375,-0.130126953125,-0.3662109076976776,-0.1831054538488388,0.0915527269244194,100.0,189927.0,1.0
15:41:12.280525,175872.828125,169753.546875,160066.65625,198398.75,162253.203125,163613.25,686915.75,159842.34375,-0.087158203125,1.000732421875,-0.13037109375,-0.4272460639476776,-0.1525878757238388,0.0,100.0,189928.0,1.0
15:41:12.280570,175858.609375,169755.0625,160059.78125,198398.390625,162246.578125,163612.1875,686867.4375,159840.8125,-0.088623046875,1.00244140625,-0.132568359375,-0.4577636420726776,-0.0915527269244194,-0.0610351525247097,100.0,189929.0,1.0
15:41:12.287373,175941.3125,169768.484375,160075.0625,198406.875,162258.65625,163630.328125,686864.3125,159847.96875,-0.08837890625,1.003662109375,-0.12939453125,-0.4882812201976776,-0.0915527269244194,0.1220703050494194,100.0,189930.0,1.0
15:41:12.294194,175917.53125,169772.0625,160077.21875,198383.71875,162257.765625,163632.03125,686855.4375,159827.765625,-0.08984375,1.00244140625,-0.131103515625,-0.5187987685203552,-0.03051757626235485,0.1525878757238388,100.0,189931.0,1.0
15:41:12.294216,175876.140625,169763.921875,160070.6875,198392.390625,162257.84375,163622.28125,686915.875,159839.484375,-0.090087890625,1.001953125,-0.134765625,-0.4882812201976776,-0.1220703050494194,0.2746581733226776,100.0,189932.0,1.0
15:41:12.300431,175846.640625,169747.203125,160057.359375,198394.984375,162249.796875,163607.890625,686904.25,159843.140625,-0.091796875,1.003662109375,-0.135986328125,-0.5187987685203552,-0.0610351525247097,0.2746581733226776,100.0,189933.0,1.0
15:41:12.300461,175916.734375,169756.046875,160064.0625,198393.46875,162252.84375,163618.171875,686845.5625,159836.53125,-0.0927734375,1.002685546875,-0.132080078125,-0.6713866591453552,-0.1220703050494194,0.3662109076976776,100.0,189934.0,1.0
15:41:12.309886,175926.390625,169774.296875,160074.078125,198385.0625,162258.03125,163633.734375,686850.25,159828.921875,-0.0927734375,1.003662109375,-0.131103515625,-0.7019042372703552,-0.1525878757238388,0.3662109076976776,100.0,189935.0,1.0
15:41:12.312932,175874.984375,169760.25,160065.40625,198385.6875,162255.078125,163620.59375,686872.25,159836.265625,-0.094482421875,1.002197265625,-0.1318359375,-0.7629393935203552,-0.2746581733226776,0.3356933295726776,100.0,189936.0,1.0
15:41:12.312953,175847.53125,169750.234375,160055.84375,198398.296875,162250.0625,163607.890625,686907.5,159845.5625,-0.093505859375,1.001953125,-0.130859375,-0.7934569716453552,-0.2746581733226776,0.3967284858226776,100.0,189937.0,1.0
15:41:12.318620,175906.265625,169758.734375,160063.625,198393.5625,162251.953125,163616.921875,686841.5,159835.90625,-0.09423828125,1.002197265625,-0.1298828125,-0.8239745497703552,-0.3662109076976776,0.3051757514476776,100.0,189938.0,1.0
15:41:12.325428,175936.484375,169769.734375,160073.09375,198382.828125,162256.859375,163628.453125,686879.0625,159820.609375,-0.09521484375,1.002685546875,-0.131103515625,-0.9765624403953552,-0.4272460639476776,0.3051757514476776,100.0,189939.0,1.0
15:41:12.325454,175879.265625,169765.359375,160069.796875,198380.5,162257.21875,163626.125,686877.4375,159829.546875,-0.09326171875,1.00244140625,-0.1298828125,-0.9155272841453552,-0.3967284858226776,0.3356933295726776,100.0,189940.0,1.0
15:41:12.331714,175845.390625,169745.765625,160056.5625,198388.546875,162250.78125,163607.0,686943.25,159840.28125,-0.09375,1.0029296875,-0.131591796875,-0.9155272841453552,-0.3967284858226776,0.3662109076976776,100.0,189941.0,1.0
15:41:12.331740,175890.265625,169765.890625,160066.296875,198392.390625,162256.859375,163626.671875,686833.4375,159841.171875,-0.090576171875,1.002197265625,-0.131103515625,-1.0986326932907104,-0.4577636420726776,0.4577636420726776,100.0,189942.0,1.0
15:41:12.333567,175946.5,169778.40625,160077.75,198391.953125,162262.59375,163640.078125,686858.3125,159834.203125,-0.08984375,1.00244140625,-0.13134765625,-1.1291502714157104,-0.5798339247703552,0.4272460639476776,100.0,189943.0,1.0
15:41:12.343603,175886.953125,169766.78125,160069.4375,198368.25,162254.265625,163629.96875,686853.125,159816.40625,-0.089111328125,1.001708984375,-0.133056640625,-1.1901854276657104,-0.5493163466453552,0.3662109076976776,100.0,189944.0,1.0
15:41:12.347932,175860.046875,169752.390625,160062.375,198391.140625,162253.640625,163612.359375,686953.375,159836.265625,-0.087890625,1.001708984375,-0.136474609375,-1.1291502714157104,-0.5187987685203552,0.3662109076976776,100.0,189945.0,1.0
15:41:12.347964,175884.09375,169764.640625,160071.046875,198400.890625,162262.59375,163625.59375,686837.875,159844.84375,-0.08984375,1.00244140625,-0.131591796875,-1.1596678495407104,-0.4882812201976776,0.3051757514476776,100.0,189946.0,1.0
15:41:12.354814,175960.265625,169787.34375,160088.46875,198406.875,162275.28125,163647.40625,686869.75,159847.875,-0.090087890625,1.00048828125,-0.1298828125,-1.2512205839157104,-0.3051757514476776,0.3662109076976776,100.0,189947.0,1.0
15:41:12.362970,175907.703125,169780.8125,160084.71875,198385.953125,162269.296875,163644.734375,686845.875,159833.9375,-0.089599609375,1.00048828125,-0.1318359375,-1.2207030057907104,-0.3967284858226776,0.3356933295726776,100.0,189948.0,1.0
15:41:12.363010,175867.734375,169752.390625,160068.0,198398.03125,162260.4375,163616.65625,686942.75,159846.265625,-0.089111328125,0.999755859375,-0.13330078125,-1.2817381620407104,-0.3662109076976776,0.2746581733226776,100.0,189949.0,1.0
15:41:12.365575,175861.125,169746.390625,160061.203125,198396.6875,162254.984375,163612.1875,686834.625,159842.703125,-0.089599609375,1.00048828125,-0.134765625,-1.3427733182907104,-0.3662109076976776,0.3662109076976776,100.0,189950.0,1.0
15:41:12.365612,175944.09375,169762.40625,160073.546875,198403.21875,162261.609375,163626.21875,686845.375,159843.859375,-0.089111328125,0.99755859375,-0.134033203125,-1.2512205839157104,-0.3356933295726776,0.3662109076976776,100.0,189951.0,1.0
15:41:12.376209,175912.53125,169780.109375,160080.609375,198392.3125,162263.125,163643.296875,686842.25,159840.375,-0.089111328125,0.99609375,-0.136962890625,-1.1901854276657104,-0.2746581733226776,0.3051757514476776,100.0,189952.0,1.0
15:41:12.383052,175869.25,169763.921875,160066.578125,198396.421875,162254.09375,163623.625,686957.625,159844.578125,-0.08984375,0.994873046875,-0.134765625,-1.1901854276657104,-0.2441406100988388,0.3356933295726776,100.0,189953.0,1.0
15:41:12.383093,175845.296875,169737.1875,160052.453125,198393.921875,162243.625,163599.75,686873.8125,159836.890625,-0.08984375,0.994873046875,-0.134521484375,-1.1291502714157104,-0.2746581733226776,0.2441406100988388,100.0,189954.0,1.0
15:41:12.385575,175933.890625,169759.625,160072.390625,198409.109375,162261.0625,163624.609375,686859.8125,159848.78125,-0.088134765625,0.9970703125,-0.1337890625,-1.0681151151657104,-0.2746581733226776,0.1525878757238388,100.0,189955.0,1.0
15:41:12.385624,175918.421875,169775.546875,160080.609375,198390.875,162266.609375,163639.71875,686854.1875,159833.75,-0.088623046875,0.993408203125,-0.133544921875,-1.0375975370407104,-0.1831054538488388,0.1525878757238388,100.0,189956.0,1.0
15:41:12.392341,175865.59375,169758.5625,160062.546875,198376.296875,162254.546875,163620.234375,686924.125,159829.203125,-0.08984375,0.99560546875,-0.134033203125,-1.0681151151657104,-0.1525878757238388,0.2136230319738388,100.0,189957.0,1.0
15:41:12.405475,175832.78125,169731.90625,160047.34375,198385.6875,162243.546875,163596.8125,686895.3125,159836.890625,-0.0908203125,0.99560546875,-0.134521484375,-0.9765624403953552,-0.1831054538488388,0.0610351525247097,100.0,189958.0,1.0
15:41:12.405495,175912.796875,169751.765625,160065.234375,198398.75,162256.15625,163619.609375,686836.75,159836.96875,-0.091796875,0.994873046875,-0.13720703125,-0.8850097060203552,0.0,0.2136230319738388,100.0,189959.0,1.0
15:41:12.407927,175920.390625,169767.859375,160075.6875,198387.921875,162262.40625,163637.125,686851.8125,159832.5,-0.0908203125,0.993896484375,-0.134765625,-0.8239745497703552,0.0,0.1525878757238388,100.0,189960.0,1.0
15:41:12.407956,175857.453125,169749.609375,160060.671875,198378.984375,162249.890625,163615.765625,686914.5625,159827.046875,-0.092529296875,0.99609375,-0.13671875,-0.7629393935203552,-0.0610351525247097,0.0610351525247097,100.0,189961.0,1.0
15:41:12.434859,175818.734375,169724.84375,160038.5,198379.34375,162230.9375,163587.78125,686896.125,159824.640625,-0.09375,0.995361328125,-0.131591796875,-0.7324218153953552,-0.03051757626235485,0.1220703050494194,100.0,189962.0,1.0
15:41:12.460193,175865.40625,169732.984375,160043.953125,198380.328125,162232.453125,163597.703125,686781.625,159822.484375,-0.092041015625,0.99658203125,-0.130859375,-0.7019042372703552,-0.0915527269244194,0.0915527269244194,100.0,189963.0,1.0
15:41:12.460250,175885.4375,169742.90625,160050.484375,198367.546875,162235.9375,163608.875,686829.375,159811.578125,-0.092041015625,0.997314453125,-0.133544921875,-0.7629393935203552,-0.03051757626235485,0.1220703050494194,100.0,189964.0,1.0
15:41:12.460261,175827.5,169743.0,160048.25,198361.375,162236.03125,163607.171875,686940.125,159814.71875,-0.093994140625,0.99609375,-0.133056640625,-0.6713866591453552,-0.03051757626235485,0.1525878757238388,100.0,189965.0,1.0
15:41:12.464164,175799.34375,169727.625,160040.375,198384.96875,162235.140625,163590.09375,686829.875,159836.53125,-0.09326171875,0.997314453125,-0.135986328125,-0.6103515028953552,-0.03051757626235485,0.2136230319738388,100.0,189966.0,1.0
15:41:12.464203,175836.984375,169742.90625,160049.140625,198383.625,162241.75,163606.734375,686607.8125,159834.109375,-0.0947265625,0.994384765625,-0.134765625,-0.6103515028953552,-0.1831054538488388,0.1220703050494194,100.0,189967.0,1.0
15:41:12.464213,175894.296875,169756.40625,160062.453125,198384.609375,162249.0,163622.828125,686836.625,159829.640625,-0.09521484375,0.999267578125,-0.135986328125,-0.6103515028953552,-0.0610351525247097,0.1831054538488388,100.0,189968.0,1.0
15:41:12.464220,175841.71875,169760.078125,160062.28125,198372.90625,162246.765625,163624.25,686943.0,159820.96875,-0.094482421875,0.999267578125,-0.134033203125,-0.6103515028953552,-0.0610351525247097,0.2746581733226776,100.0,189969.0,1.0
15:41:12.466720,175816.421875,169740.140625,160055.125,198395.25,162246.84375,163603.15625,686781.875,159841.171875,-0.093505859375,1.000244140625,-0.13427734375,-0.6103515028953552,-0.2441406100988388,0.3662109076976776,100.0,189970.0,1.0
15:41:12.466747,175839.03125,169749.34375,160063.0,198400.4375,162254.984375,163613.25,686527.25,159849.765625,-0.095947265625,0.99951171875,-0.13427734375,-0.5493163466453552,-0.2136230319738388,0.3051757514476776,100.0,189971.0,1.0
15:41:12.468643,175912.796875,169766.25,160076.765625,198398.109375,162264.46875,163631.234375,686713.5,159840.90625,-0.0966796875,0.99951171875,-0.1328125,-0.6408690810203552,-0.2136230319738388,0.2441406100988388,100.0,189972.0,1.0
15:41:12.471130,175866.75,169767.9375,160077.65625,198378.0,162262.3125,163631.671875,686901.75,159831.4375,-0.09619140625,1.000244140625,-0.134765625,-0.6408690810203552,-0.3662109076976776,0.3356933295726776,100.0,189973.0,1.0
15:41:12.473586,175838.59375,169754.53125,160068.625,198398.296875,162259.640625,163616.03125,686800.5625,159849.9375,-0.094482421875,0.999267578125,-0.13623046875,-0.6103515028953552,-0.3967284858226776,0.4577636420726776,100.0,189974.0,1.0
15:41:12.476074,175836.171875,169756.671875,160067.109375,198402.046875,162259.453125,163619.15625,686544.125,159850.390625,-0.093505859375,1.001708984375,-0.13671875,-0.6408690810203552,-0.4577636420726776,0.3662109076976776,100.0,189975.0,1.0
15:41:12.478618,175917.890625,169770.53125,160079.265625,198402.234375,162268.125,163634.359375,686667.8125,159846.359375,-0.09326171875,1.0,-0.13720703125,-0.7934569716453552,-0.4882812201976776,0.3967284858226776,100.0,189976.0,1.0
15:41:12.481103,175883.921875,169772.328125,160080.15625,198386.84375,162265.984375,163636.140625,686914.5,159839.484375,-0.093017578125,1.002197265625,-0.139404296875,-0.7629393935203552,-0.6103515028953552,0.4577636420726776,100.0,189977.0,1.0
15:41:12.483656,175843.421875,169754.984375,160064.0625,198389.71875,162256.0625,163617.015625,686860.4375,159845.640625,-0.09375,1.003173828125,-0.139404296875,-0.7934569716453552,-0.6408690810203552,0.4882812201976776,100.0,189978.0,1.0
15:41:12.486902,175827.59375,169744.4375,160057.359375,198398.296875,162251.046875,163609.953125,686629.8125,159844.578125,-0.09228515625,1.002685546875,-0.141357421875,-0.8239745497703552,-0.6103515028953552,0.5187987685203552,100.0,189979.0,1.0
15:41:12.486950,175917.359375,169771.96875,160076.9375,198410.546875,162265.984375,163637.578125,686684.8125,159851.734375,-0.092041015625,1.00146484375,-0.13671875,-0.8850097060203552,-0.6408690810203552,0.5187987685203552,100.0,189980.0,1.0
15:41:12.488589,175901.359375,169777.25,160079.53125,198389.0,162265.09375,163640.96875,686989.1875,159834.5625,-0.093017578125,1.001220703125,-0.135498046875,-0.9460448622703552,-0.6103515028953552,0.6713866591453552,100.0,189981.0,1.0
15:41:12.495445,175852.890625,169755.78125,160066.03125,198388.546875,162256.15625,163619.34375,686999.125,159837.59375,-0.09326171875,1.000732421875,-0.13525390625,-1.0070799589157104,-0.6713866591453552,0.6103515028953552,100.0,189982.0,1.0
15:41:12.495475,175833.84375,169747.5625,160060.046875,198397.3125,162253.90625,163612.1875,686797.875,159842.78125,-0.091796875,1.001953125,-0.134033203125,-1.0375975370407104,-0.6103515028953552,0.7019042372703552,100.0,189983.0,1.0
15:41:12.508615,175908.59375,169765.0,160073.28125,198401.609375,162263.296875,163629.890625,686746.3125,159843.234375,-0.092529296875,1.003173828125,-0.1357421875,-1.0681151151657104,-0.5187987685203552,0.5798339247703552,100.0,189984.0,1.0
15:41:12.511672,175918.15625,169777.515625,160080.78125,198390.25,162265.53125,163642.21875,686837.9375,159833.84375,-0.09228515625,1.00048828125,-0.135498046875,-1.1291502714157104,-0.4882812201976776,0.5798339247703552,100.0,189985.0,1.0
15:41:12.511691,175863.625,169764.546875,160067.640625,198383.984375,162255.4375,163628.453125,686964.6875,159834.5625,-0.091552734375,1.001220703125,-0.13720703125,-1.1291502714157104,-0.5187987685203552,0.5493163466453552,100.0,189986.0,1.0
15:41:12.514216,175832.59375,169738.34375,160048.25,198393.5625,162242.640625,163599.484375,686882.1875,159835.8125,-0.0908203125,1.002197265625,-0.13671875,-1.2207030057907104,-0.4272460639476776,0.5798339247703552,100.0,189987.0,1.0
15:41:12.514235,175892.5,169758.28125,160061.390625,198405.53125,162251.59375,163617.109375,686767.125,159840.28125,-0.090087890625,1.00341796875,-0.1357421875,-1.3427733182907104,-0.3967284858226776,0.5493163466453552,100.0,189988.0,1.0
15:41:12.526271,175925.3125,169765.890625,160068.09375,198388.90625,162253.375,163628.015625,686824.25,159827.671875,-0.090087890625,1.0029296875,-0.13427734375,-1.3122557401657104,-0.3967284858226776,0.5493163466453552,100.0,189989.0,1.0
15:41:12.529228,175869.609375,169756.046875,160062.8125,198379.875,162250.421875,163621.03125,686905.0,159826.96875,-0.090087890625,1.000244140625,-0.134521484375,-1.4038084745407104,-0.2746581733226776,0.5798339247703552,100.0,189990.0,1.0
15:41:12.529268,175837.515625,169738.078125,160046.546875,198385.875,162241.3125,163598.5,686954.1875,159835.71875,-0.088623046875,1.001220703125,-0.1337890625,-1.3732908964157104,-0.2746581733226776,0.5798339247703552,100.0,189991.0,1.0
15:41:12.534806,175871.3125,169740.5,160049.046875,198385.875,162242.5625,163603.0625,686809.3125,159835.359375,-0.089599609375,1.0009765625,-0.1337890625,-1.4038084745407104,-0.3051757514476776,0.5187987685203552,100.0,189992.0,1.0
15:41:12.539180,175927.1875,169754.0,160061.5625,198384.796875,162250.515625,163617.734375,686854.1875,159824.8125,-0.088623046875,0.99951171875,-0.1337890625,-1.4648436307907104,-0.2136230319738388,0.6103515028953552,100.0,189993.0,1.0
15:41:12.539202,175875.78125,169761.859375,160064.0625,198372.546875,162251.953125,163623.984375,686839.75,159821.859375,-0.088623046875,1.0,-0.134521484375,-1.4648436307907104,-0.0610351525247097,0.5798339247703552,100.0,189994.0,1.0
15:41:12.546104,175848.25,169744.875,160053.515625,198391.59375,162247.921875,163605.921875,686957.75,159835.09375,-0.08740234375,1.00048828125,-0.13525390625,-1.4648436307907104,-0.1220703050494194,0.5493163466453552,100.0,189995.0,1.0
15:41:12.556687,175867.203125,169754.4375,160058.4375,198394.890625,162252.390625,163618.265625,686845.6875,159841.984375,-0.0888671875,0.999755859375,-0.1337890625,-1.5258787870407104,-0.0915527269244194,0.6408690810203552,100.0,189996.0,1.0
15:41:12.556712,175942.484375,169767.40625,160071.9375,198395.875,162262.234375,163632.03125,686880.3125,159837.421875,-0.089111328125,0.999267578125,-0.133544921875,-1.5869139432907104,0.0915527269244194,0.6408690810203552,100.0,189997.0,1.0
15:41:12.559156,175895.453125,169769.375,160073.90625,198380.5,162262.765625,163635.4375,686846.25,159828.65625,-0.08837890625,0.997314453125,-0.135009765625,-1.4648436307907104,0.0610351525247097,0.6408690810203552,100.0,189998.0,1.0
15:41:12.559178,175862.734375,169753.109375,160063.890625,198399.015625,162258.5625,163616.921875,686927.0,159840.90625,-0.089111328125,0.997802734375,-0.13623046875,-1.5563963651657104,0.0915527269244194,0.6713866591453552,100.0,189999.0,1.0
15:41:12.564816,175856.734375,169751.765625,160058.875,198399.375,162253.375,163616.390625,686851.625,159838.9375,-0.088134765625,0.9970703125,-0.135009765625,-1.5563963651657104,0.1220703050494194,0.6408690810203552,100.0,190000.0,1.0
15:41:12.571725,175939.4375,169766.96875,160068.890625,198398.203125,162257.671875,163630.953125,686852.25,159832.765625,-0.088134765625,0.99609375,-0.134521484375,-1.5258787870407104,0.1831054538488388,0.6408690810203552,100.0,190001.0,1.0
15:41:12.571750,175912.0,169775.984375,160074.078125,198385.328125,162260.078125,163639.71875,686846.0,159827.140625,-0.090087890625,0.99755859375,-0.1328125,-1.5258787870407104,0.1831054538488388,0.7324218153953552,100.0,190002.0,1.0
15:41:12.581256,175872.46875,169760.4375,160063.890625,198396.6875,162257.578125,163622.5625,686892.3125,159842.609375,-0.09130859375,0.9970703125,-0.135009765625,-1.4953612089157104,0.1831054538488388,0.7629393935203552,100.0,190003.0,1.0
15:41:12.584208,175849.59375,169749.34375,160054.234375,198396.234375,162250.34375,163614.0625,686873.25,159840.734375,-0.089599609375,0.997802734375,-0.133544921875,-1.4343260526657104,0.2136230319738388,0.7934569716453552,100.0,190004.0,1.0
15:41:12.584235,175929.515625,169764.546875,160064.6875,198398.203125,162257.671875,163629.171875,686860.4375,159835.984375,-0.091796875,0.998291015625,-0.134033203125,-1.3732908964157104,0.3051757514476776,0.8850097060203552,100.0,190005.0,1.0
15:41:12.591187,175919.0625,169773.578125,160069.875,198385.953125,162256.6875,163637.671875,686858.4375,159826.609375,-0.0908203125,1.0,-0.134521484375,-1.4038084745407104,0.3356933295726776,0.8850097060203552,100.0,190006.0,1.0
15:41:12.595364,175873.71875,169761.328125,160061.5625,198390.15625,162252.390625,163625.234375,686859.375,159833.671875,-0.092529296875,0.99853515625,-0.135009765625,-1.3732908964157104,0.3356933295726776,0.8544921278953552,100.0,190007.0,1.0
15:41:12.595373,175841.984375,169751.5,160046.90625,198381.671875,162242.734375,163615.5,686889.375,159826.96875,-0.0908203125,0.999755859375,-0.13427734375,-1.3427733182907104,0.3967284858226776,0.8544921278953552,100.0,190008.0,1.0
15:41:12.604793,175908.59375,169752.75,160051.109375,198380.0625,162243.09375,163615.765625,686844.125,159821.15625,-0.090087890625,0.99853515625,-0.133544921875,-1.4648436307907104,0.3967284858226776,0.9460448622703552,100.0,190009.0,1.0
15:41:12.611647,175923.53125,169762.3125,160059.515625,198376.484375,162244.53125,163624.515625,686868.5,159818.015625,-0.09033203125,0.9990234375,-0.1337890625,-1.4648436307907104,0.3356933295726776,1.0070799589157104,100.0,190010.0,1.0
15:41:12.611671,175871.9375,169758.203125,160055.03125,198377.46875,162242.640625,163618.4375,686851.5,159827.9375,-0.0908203125,0.999267578125,-0.135498046875,-1.3732908964157104,0.3356933295726776,0.9460448622703552,100.0,190011.0,1.0
15:41:12.611678,175840.5625,169740.765625,160042.609375,198389.265625,162236.03125,163599.75,686905.625,159832.0625,-0.090576171875,0.9990234375,-0.134521484375,-1.4343260526657104,0.4272460639476776,1.0375975370407104,100.0,190012.0,1.0
15:41:12.617364,175892.5,169754.0,160050.390625,198386.578125,162241.84375,163612.453125,686835.4375,159823.5625,-0.090087890625,1.0,-0.133056640625,-1.4343260526657104,0.3356933295726776,1.0681151151657104,100.0,190013.0,1.0
15:41:12.626792,175930.59375,169763.109375,160060.84375,198381.671875,162249.53125,163625.59375,686870.75,159818.640625,-0.092041015625,1.00048828125,-0.13720703125,-1.5258787870407104,0.3356933295726776,1.0375975370407104,100.0,190014.0,1.0
15:41:12.626810,175875.609375,169757.3125,160057.546875,198373.984375,162247.125,163620.234375,686849.75,159819.265625,-0.090576171875,0.999267578125,-0.134521484375,-1.4953612089157104,0.3967284858226776,1.0986326932907104,100.0,190015.0,1.0
15:41:12.634176,175847.265625,169739.6875,160047.703125,198392.125,162242.921875,163599.21875,686905.8125,159835.09375,-0.0908203125,0.999267578125,-0.135498046875,-1.5563963651657104,0.3967284858226776,0.9765624403953552,100.0,190016.0,1.0
15:41:12.634200,175877.125,169742.828125,160051.375,198391.140625,162245.78125,163606.734375,686848.875,159833.484375,-0.090087890625,1.001220703125,-0.13525390625,-1.4648436307907104,0.3356933295726776,1.0681151151657104,100.0,190017.0,1.0
15:41:12.640418,175938.8125,169759.265625,160064.421875,198389.359375,162253.90625,163623.625,686892.5625,159824.71875,-0.089599609375,1.00048828125,-0.13720703125,-1.3427733182907104,0.3662109076976776,1.1596678495407104,100.0,190018.0,1.0
15:41:12.640440,175888.125,169761.59375,160063.0,198377.640625,162249.71875,163624.25,686851.375,159821.15625,-0.08984375,0.999267578125,-0.13427734375,-1.4953612089157104,0.3662109076976776,1.1596678495407104,100.0,190019.0,1.0
15:41:12.646226,175861.203125,169746.390625,160053.96875,198397.40625,162246.046875,163606.8125,686886.0625,159839.125,-0.091796875,0.998291015625,-0.132568359375,-1.5258787870407104,0.3051757514476776,1.1901854276657104,100.0,190020.0,1.0
15:41:12.650435,175869.25,169748.984375,160054.328125,198392.84375,162245.15625,163610.75,686844.375,159831.78125,-0.091796875,0.99755859375,-0.1357421875,-1.4648436307907104,0.3356933295726776,1.1596678495407104,100.0,190021.0,1.0
15:41:12.650464,175945.4375,169761.59375,160067.46875,198397.21875,162255.171875,163623.890625,686875.125,159830.0,-0.09130859375,1.0,-0.138427734375,-1.5869139432907104,0.3051757514476776,1.2207030057907104,100.0,190022.0,1.0
15:41:12.659821,175900.90625,169765.359375,160069.25,198379.875,162256.328125,163629.796875,686857.25,159823.75,-0.09130859375,0.998046875,-0.136962890625,-1.6174315214157104,0.3356933295726776,1.2512205839157104,100.0,190023.0,1.0
15:41:12.666659,175868.8125,169747.015625,160058.34375,198397.3125,162251.953125,163609.234375,686875.9375,159838.5,-0.08984375,0.99755859375,-0.136474609375,-1.6784666776657104,0.2441406100988388,1.2512205839157104,100.0,190024.0,1.0
15:41:12.666681,175863.53125,169745.765625,160057.359375,198405.71875,162251.765625,163608.96875,686865.625,159842.078125,-0.0888671875,0.999267578125,-0.13720703125,-1.7089842557907104,0.2441406100988388,1.2817381620407104,100.0,190025.0,1.0
15:41:12.669167,175949.359375,169764.90625,160072.828125,198411.609375,162263.65625,163627.5625,686891.375,159843.6875,-0.089111328125,0.99951171875,-0.136962890625,-1.7089842557907104,0.2441406100988388,1.1596678495407104,100.0,190026.0,1.0
15:41:12.669193,175922.09375,169774.5625,160080.25,198399.1875,162266.34375,163637.046875,686881.3125,159840.546875,-0.089599609375,0.998046875,-0.135986328125,-1.5869139432907104,0.0915527269244194,1.1901854276657104,100.0,190027.0,1.0
15:41:12.677354,175875.6875,169755.0625,160061.828125,198388.015625,162254.984375,163615.765625,686851.5,159835.640625,-0.087890625,0.998291015625,-0.135009765625,-1.6479490995407104,0.0915527269244194,1.2512205839157104,100.0,190028.0,1.0
15:41:12.685446,175852.53125,169744.4375,160052.625,198393.734375,162248.8125,163607.171875,686867.4375,159836.96875,-0.0888671875,0.99853515625,-0.13525390625,-1.6784666776657104,0.2441406100988388,1.1901854276657104,100.0,190029.0,1.0
15:41:12.685470,175934.4375,169759.09375,160067.828125,198401.0625,162259.71875,163625.328125,686856.6875,159840.109375,-0.090576171875,1.000732421875,-0.134521484375,-1.6174315214157104,0.2746581733226776,1.1901854276657104,100.0,190030.0,1.0
15:41:12.687911,175926.203125,169771.15625,160074.703125,198386.40625,162262.59375,163636.59375,686876.375,159829.375,-0.091064453125,1.000732421875,-0.138916015625,-1.6479490995407104,0.3356933295726776,1.1901854276657104,100.0,190031.0,1.0
15:41:12.687934,175880.15625,169763.828125,160066.578125,198392.9375,162258.65625,163624.875,686850.25,159841.890625,-0.0888671875,0.998779296875,-0.137939453125,-1.6174315214157104,0.2746581733226776,1.0986326932907104,100.0,190032.0,1.0
15:41:12.697323,175853.78125,169742.109375,160052.359375,198402.40625,162246.9375,163604.9375,686892.5,159844.3125,-0.0888671875,0.998779296875,-0.133056640625,-1.6479490995407104,0.1831054538488388,1.1596678495407104,100.0,190033.0,1.0
15:41:12.701763,175912.96875,169741.921875,160052.171875,198389.984375,162243.1875,163607.0,686854.375,159826.78125,-0.089111328125,0.999755859375,-0.134521484375,-1.6174315214157104,0.2746581733226776,1.0375975370407104,100.0,190034.0,1.0
15:41:12.701786,175928.265625,169752.75,160061.828125,198383.0,162247.65625,163617.375,686885.5625,159823.390625,-0.089599609375,1.0,-0.1318359375,-1.6479490995407104,0.2746581733226776,1.0681151151657104,100.0,190035.0,1.0
15:41:12.733654,175880.875,169753.8125,160062.28125,198389.890625,162251.328125,163617.109375,686847.75,159835.8125,-0.09033203125,0.9970703125,-0.1328125,-1.5869139432907104,0.3051757514476776,1.0375975370407104,100.0,190036.0,1.0
15:41:12.736729,175852.71875,169742.90625,160052.0,198401.328125,162246.21875,163603.6875,686890.875,159841.171875,-0.08935546875,0.999267578125,-0.13330078125,-1.6479490995407104,0.1220703050494194,1.0375975370407104,100.0,190037.0,1.0
15:41:12.736751,175895.359375,169743.984375,160051.90625,198391.40625,162244.34375,163607.453125,686854.625,159827.234375,-0.08935546875,0.99755859375,-0.13330078125,-1.6174315214157104,0.2136230319738388,1.0375975370407104,100.0,190038.0,1.0
15:41:12.736758,175937.390625,169755.78125,160064.421875,198391.765625,162252.390625,163619.875,686887.5625,159826.96875,-0.08984375,0.9970703125,-0.132568359375,-1.5869139432907104,0.2746581733226776,0.9155272841453552,100.0,190039.0,1.0
15:41:12.740354,175881.6875,169756.046875,160060.484375,198378.09375,162248.734375,163618.71875,686853.25,159824.90625,-0.089599609375,0.997314453125,-0.133544921875,-1.5869139432907104,0.2136230319738388,0.8544921278953552,100.0,190040.0,1.0
15:41:12.740381,175849.140625,169737.1875,160046.359375,198396.234375,162239.34375,163596.8125,686898.125,159834.203125,-0.087646484375,0.996337890625,-0.132568359375,-1.5563963651657104,0.2136230319738388,0.9155272841453552,100.0,190041.0,1.0
15:41:12.740387,175875.421875,169734.15625,160045.5625,198395.53125,162235.046875,163594.125,686859.1875,159829.46875,-0.087890625,0.99560546875,-0.1318359375,-1.6174315214157104,0.2136230319738388,0.9765624403953552,100.0,190042.0,1.0
15:41:12.740392,175936.125,169746.9375,160055.03125,198384.609375,162240.40625,163605.921875,686913.1875,159816.59375,-0.0869140625,0.99609375,-0.134521484375,-1.4648436307907104,0.1831054538488388,0.8544921278953552,100.0,190043.0,1.0
15:41:12.742330,175886.15625,169758.28125,160057.984375,198372.09375,162242.203125,163616.65625,686874.5625,159814.625,-0.0859375,0.998291015625,-0.13232421875,-1.4038084745407104,0.2136230319738388,0.9765624403953552,100.0,190044.0,1.0
15:41:12.744886,175854.234375,169739.0625,160045.921875,198386.765625,162236.03125,163596.984375,686873.25,159825.53125,-0.087890625,0.999267578125,-0.1376953125,-1.4648436307907104,0.3356933295726776,1.0375975370407104,100.0,190045.0,1.0
15:41:12.748652,175859.0625,169733.4375,160042.515625,198383.0,162232.359375,163595.640625,686860.9375,159820.4375,-0.089599609375,0.998046875,-0.134033203125,-1.5869139432907104,0.1831054538488388,1.1901854276657104,100.0,190046.0,1.0
15:41:12.759196,175937.5625,169753.546875,160055.65625,198386.5,162242.203125,163614.59375,686884.1875,159819.359375,-0.08837890625,0.998779296875,-0.135009765625,-1.6784666776657104,0.1220703050494194,1.1291502714157104,100.0,190047.0,1.0
15:41:12.759223,175896.53125,169763.75,160060.484375,198373.171875,162244.96875,163624.96875,686866.125,159813.734375,-0.08984375,0.997314453125,-0.13427734375,-1.5563963651657104,0.2136230319738388,1.0986326932907104,100.0,190048.0,1.0
15:41:12.761753,175860.140625,169741.84375,160049.9375,198390.609375,162241.484375,163604.859375,686876.8125,159827.859375,-0.08935546875,0.998046875,-0.135009765625,-1.5869139432907104,0.2136230319738388,1.1291502714157104,100.0,190049.0,1.0
15:41:12.761796,175852.53125,169737.71875,160047.96875,198393.734375,162242.921875,163602.703125,686862.875,159836.4375,-0.0908203125,0.999755859375,-0.138916015625,-1.5563963651657104,0.1525878757238388,1.0986326932907104,100.0,190050.0,1.0
15:41:12.771197,175931.65625,169752.03125,160058.171875,198388.109375,162248.8125,163616.921875,686870.8125,159826.421875,-0.09033203125,0.998291015625,-0.13671875,-1.4343260526657104,0.1220703050494194,1.0986326932907104,100.0,190051.0,1.0
15:41:12.774260,175905.109375,169764.1875,160061.828125,198367.984375,162247.125,163626.3125,686865.375,159808.984375,-0.08984375,0.9990234375,-0.137451171875,-1.4648436307907104,0.1220703050494194,0.8850097060203552,100.0,190052.0,1.0
15:41:12.774277,175868.1875,169752.65625,160056.5625,198386.140625,162246.40625,163611.203125,686873.0,159827.40625,-0.0888671875,1.000244140625,-0.136474609375,-1.4038084745407104,0.0915527269244194,0.8239745497703552,100.0,190053.0,1.0
15:41:12.808755,175849.671875,169745.234375,160050.921875,198396.0625,162243.546875,163602.53125,686872.6875,159830.71875,-0.08984375,0.999755859375,-0.13671875,-1.4038084745407104,0.03051757626235485,0.7934569716453552,100.0,190054.0,1.0
15:41:12.826751,175927.375,169754.71875,160063.0,198399.546875,162253.203125,163618.265625,686866.1875,159837.78125,-0.091552734375,1.000732421875,-0.13525390625,-1.4953612089157104,0.0,0.8850097060203552,100.0,190055.0,1.0
15:41:12.826976,175917.890625,169759.546875,160065.859375,198373.625,162251.5,163624.171875,686875.0625,159817.03125,-0.091552734375,1.00146484375,-0.1357421875,-1.4038084745407104,0.0,0.7629393935203552,100.0,190056.0,1.0
15:41:12.828611,175873.640625,169752.921875,160060.046875,198375.671875,162249.171875,163613.796875,686849.3125,159819.453125,-0.09228515625,1.001953125,-0.13525390625,-1.4343260526657104,-0.0915527269244194,0.6713866591453552,100.0,190057.0,1.0
15:41:12.831100,175849.046875,169741.03125,160054.140625,198397.046875,162247.65625,163604.578125,686893.375,159834.109375,-0.093017578125,1.001708984375,-0.1328125,-1.5563963651657104,-0.1525878757238388,0.5798339247703552,100.0,190058.0,1.0
15:41:12.833608,175915.03125,169755.609375,160064.25,198397.671875,162253.828125,163619.78125,686856.875,159836.53125,-0.093017578125,1.004150390625,-0.134765625,-1.6174315214157104,-0.1831054538488388,0.4882812201976776,100.0,190059.0,1.0
15:41:12.838683,175935.0625,169769.734375,160073.453125,198389.53125,162258.734375,163630.953125,686883.0625,159834.03125,-0.09375,1.004150390625,-0.134033203125,-1.5869139432907104,-0.1831054538488388,0.4272460639476776,100.0,190060.0,1.0
15:41:12.841083,175877.484375,169755.515625,160061.921875,198376.921875,162250.25,163616.75,686844.125,159821.953125,-0.093017578125,1.00390625,-0.135009765625,-1.7395018339157104,-0.2746581733226776,0.3356933295726776,100.0,190061.0,1.0
15:41:12.843640,175848.25,169741.921875,160051.1875,198392.125,162243.8125,163600.5625,686904.875,159832.5,-0.09375,1.00244140625,-0.134765625,-1.7395018339157104,-0.3051757514476776,0.3051757514476776,100.0,190062.0,1.0
15:41:12.846043,175890.265625,169747.46875,160054.234375,198387.5625,162245.953125,163610.21875,686841.3125,159829.640625,-0.092529296875,1.002685546875,-0.13330078125,-1.8310545682907104,-0.2441406100988388,0.2746581733226776,100.0,190063.0,1.0
15:41:12.848589,175931.9375,169757.125,160063.4375,198382.65625,162252.578125,163623.453125,686876.75,159823.5625,-0.09130859375,1.001953125,-0.133056640625,-1.8920897245407104,-0.4882812201976776,0.3356933295726776,100.0,190064.0,1.0
15:41:12.851099,175876.859375,169755.78125,160060.21875,198370.765625,162248.109375,163620.671875,686857.0,159819.0,-0.08984375,1.001708984375,-0.13720703125,-1.8005369901657104,-0.4577636420726776,0.3051757514476776,100.0,190065.0,1.0
15:41:12.853589,175844.125,169734.78125,160044.671875,198386.40625,162237.109375,163595.90625,686927.3125,159829.828125,-0.0888671875,1.0009765625,-0.132568359375,-1.8005369901657104,-0.3662109076976776,0.3967284858226776,100.0,190066.0,1.0
15:41:12.856071,175868.625,169736.03125,160043.6875,198386.140625,162233.96875,163598.328125,686847.875,159826.609375,-0.087890625,1.002685546875,-0.136474609375,-1.8615721464157104,-0.4577636420726776,0.4882812201976776,100.0,190067.0,1.0
15:41:12.859182,175933.625,169749.703125,160056.375,198388.1875,162242.375,163613.796875,686880.0625,159827.40625,-0.088623046875,1.003173828125,-0.135009765625,-1.9226073026657104,-0.4577636420726776,0.5798339247703552,100.0,190068.0,1.0
15:41:12.859214,175879.984375,169749.53125,160055.578125,198372.1875,162240.0625,163612.8125,686856.0625,159818.640625,-0.088134765625,1.00439453125,-0.13623046875,-1.9531248807907104,-0.3967284858226776,0.6713866591453552,100.0,190069.0,1.0
15:41:12.861093,175845.109375,169729.328125,160041.53125,198382.296875,162233.34375,163591.703125,686914.625,159828.296875,-0.08642578125,1.004150390625,-0.135986328125,-2.014159917831421,-0.3356933295726776,0.7629393935203552,100.0,190070.0,1.0
15:41:12.863620,175852.625,169731.828125,160041.265625,198383.90625,162232.1875,163593.953125,686860.4375,159823.5625,-0.08544921875,1.00244140625,-0.1318359375,-2.075195074081421,-0.2441406100988388,0.8544921278953552,100.0,190071.0,1.0
15:41:12.866398,175930.40625,169747.109375,160054.0625,198384.609375,162240.6875,163609.328125,686889.0625,159818.921875,-0.08544921875,1.001708984375,-0.131591796875,-2.136230230331421,-0.1831054538488388,0.9155272841453552,100.0,190072.0,1.0
15:41:12.871750,175890.09375,169757.21875,160055.84375,198366.640625,162240.953125,163618.71875,686868.9375,159811.046875,-0.0849609375,1.0029296875,-0.1357421875,-2.197265386581421,-0.1220703050494194,1.0375975370407104,100.0,190073.0,1.0
15:41:12.871769,175852.984375,169732.8125,160043.421875,198376.484375,162235.3125,163596.0,686905.0,159823.921875,-0.08447265625,1.00146484375,-0.131103515625,-2.319335699081421,-0.1220703050494194,1.0070799589157104,100.0,190074.0,1.0
15:41:12.874213,175848.0625,169737.453125,160044.125,198385.875,162236.125,163600.828125,686873.0625,159830.09375,-0.0849609375,1.00244140625,-0.130859375,-2.441406011581421,0.0,1.0986326932907104,100.0,190075.0,1.0
15:41:12.874246,175928.796875,169744.875,160054.5,198387.390625,162242.640625,163610.84375,686872.1875,159826.0625,-0.08740234375,1.0029296875,-0.12744140625,-2.410888433456421,0.0915527269244194,1.1901854276657104,100.0,190076.0,1.0
15:41:12.874253,175904.484375,169759.890625,160061.65625,198374.328125,162247.125,163625.859375,686866.8125,159819.09375,-0.085693359375,0.99951171875,-0.131591796875,-2.349853277206421,0.03051757626235485,1.2817381620407104,100.0,190077.0,1.0
15:41:12.876144,175863.09375,169743.09375,160053.34375,198385.515625,162244.171875,163608.25,686899.1875,159833.21875,-0.087158203125,1.000732421875,-0.131591796875,-2.380370855331421,0.2136230319738388,1.0681151151657104,100.0,190078.0,1.0
15:41:12.886737,175838.40625,169727.0,160040.828125,198385.234375,162234.25,163592.78125,686895.1875,159827.859375,-0.086669921875,0.998046875,-0.13134765625,-2.410888433456421,0.3051757514476776,1.0986326932907104,100.0,190079.0,1.0
15:41:12.886758,175915.125,169739.515625,160051.1875,198388.90625,162240.140625,163607.0,686851.4375,159826.328125,-0.08544921875,0.996826171875,-0.131103515625,-2.410888433456421,0.3356933295726776,1.0375975370407104,100.0,190080.0,1.0
15:41:12.888759,175910.5625,169751.046875,160055.9375,198371.46875,162240.953125,163617.28125,686865.0,159814.625,-0.08447265625,0.9970703125,-0.1318359375,-2.532958745956421,0.3967284858226776,0.8544921278953552,100.0,190081.0,1.0
15:41:12.892339,175862.453125,169741.484375,160044.671875,198367.453125,162231.921875,163602.171875,686873.8125,159816.859375,-0.085205078125,0.998046875,-0.132080078125,-2.441406011581421,0.5493163466453552,0.8850097060203552,100.0,190082.0,1.0
15:41:12.907973,175825.359375,169711.53125,160024.90625,198371.390625,162216.8125,163574.8125,686901.625,159815.609375,-0.08447265625,0.99755859375,-0.134033203125,-2.441406011581421,0.6103515028953552,0.8239745497703552,100.0,190083.0,1.0
15:41:12.907993,175880.875,169716.71875,160029.46875,198367.546875,162218.515625,163581.34375,686846.1875,159810.421875,-0.083740234375,0.997314453125,-0.135009765625,-2.319335699081421,0.6713866591453552,0.7934569716453552,100.0,190084.0,1.0
15:41:12.910512,175904.296875,169731.640625,160039.484375,198358.859375,162224.3125,163596.71875,686876.9375,159804.515625,-0.083740234375,0.994384765625,-0.131591796875,-2.258300542831421,0.7629393935203552,0.7324218153953552,100.0,190085.0,1.0
15:41:12.910525,175854.6875,169730.484375,160037.421875,198362.359375,162223.6875,163593.59375,686853.0625,159816.40625,-0.083984375,0.993896484375,-0.130615234375,-2.197265386581421,0.7934569716453552,0.6713866591453552,100.0,190086.0,1.0
15:41:12.912348,175818.828125,169709.109375,160018.109375,198369.59375,162210.28125,163570.34375,686914.1875,159814.890625,-0.082275390625,0.994384765625,-0.130615234375,-2.166747808456421,0.9155272841453552,0.6408690810203552,100.0,190087.0,1.0
15:41:12.916080,175864.703125,169715.46875,160023.390625,198371.390625,162212.078125,163577.140625,686836.4375,159815.421875,-0.08203125,0.995361328125,-0.130859375,-2.075195074081421,0.9460448622703552,0.7324218153953552,100.0,190088.0,1.0
15:41:12.926727,175907.25,169726.453125,160031.078125,198351.53125,162215.640625,163589.828125,686868.5,159796.109375,-0.08203125,0.995849609375,-0.130615234375,-2.044677495956421,1.0375975370407104,0.7629393935203552,100.0,190089.0,1.0
15:41:12.926763,175860.765625,169736.296875,160037.515625,198348.578125,162221.640625,163594.84375,686845.8125,159795.765625,-0.083740234375,0.99658203125,-0.132568359375,-1.8005369901657104,1.1596678495407104,0.8544921278953552,100.0,190090.0,1.0
15:41:12.929189,175831.4375,169713.234375,160027.234375,198369.234375,162217.4375,163573.828125,686925.75,159813.28125,-0.08642578125,0.99658203125,-0.132568359375,-1.7700194120407104,1.2207030057907104,0.7934569716453552,100.0,190091.0,1.0
15:41:12.929214,175855.484375,169719.390625,160030.546875,198369.0625,162219.21875,163582.59375,686840.8125,159811.046875,-0.085205078125,0.99658203125,-0.13037109375,-1.6784666776657104,1.3427733182907104,0.7934569716453552,100.0,190092.0,1.0
15:41:12.939848,175924.421875,169738.796875,160045.734375,198375.671875,162229.953125,163602.34375,686878.5,159811.046875,-0.085205078125,0.9970703125,-0.130615234375,-1.6174315214157104,1.4343260526657104,0.8239745497703552,100.0,190093.0,1.0
15:41:12.942889,175868.546875,169738.53125,160041.8125,198358.328125,162225.75,163600.65625,686846.625,159804.4375,-0.086669921875,0.997802734375,-0.128173828125,-1.5869139432907104,1.4038084745407104,0.7629393935203552,100.0,190094.0,1.0
15:41:12.942910,175838.59375,169722.25,160031.4375,198371.390625,162222.0,163581.515625,686915.75,159816.40625,-0.088623046875,0.99755859375,-0.12646484375,-1.5258787870407104,1.4038084745407104,0.9155272841453552,100.0,190095.0,1.0
15:41:12.957948,175845.296875,169725.65625,160033.84375,198374.953125,162223.875,163587.421875,686847.4375,159820.171875,-0.08935546875,0.998046875,-0.130126953125,-1.4648436307907104,1.4038084745407104,0.8544921278953552,100.0,190096.0,1.0
15:41:12.957973,175928.171875,169745.0625,160051.734375,198381.484375,162237.734375,163608.34375,686852.875,159823.828125,-0.0888671875,0.99658203125,-0.12890625,-1.4648436307907104,1.4038084745407104,0.8850097060203552,100.0,190097.0,1.0
15:41:12.959847,175884.28125,169748.453125,160052.890625,198358.328125,162237.734375,163614.421875,686845.8125,159811.84375,-0.09130859375,0.997802734375,-0.131103515625,-1.3732908964157104,1.4038084745407104,0.8850097060203552,100.0,190098.0,1.0
15:41:12.962329,175851.28125,169741.921875,160045.46875,198372.453125,162236.921875,163605.296875,686920.25,159820.609375,-0.091796875,1.0,-0.127197265625,-1.4343260526657104,1.4038084745407104,0.8850097060203552,100.0,190099.0,1.0
15:41:12.966763,175840.109375,169735.9375,160040.640625,198379.703125,162233.171875,163599.484375,686870.375,159821.59375,-0.091064453125,1.002197265625,-0.129638671875,-1.2512205839157104,1.3122557401657104,0.7324218153953552,100.0,190100.0,1.0
15:41:12.966802,175926.203125,169751.140625,160056.296875,198385.515625,162243.1875,163615.5,686871.625,159823.03125,-0.093017578125,1.00146484375,-0.12841796875,-1.3732908964157104,1.1596678495407104,0.7019042372703552,100.0,190101.0,1.0
15:41:12.977292,175901.890625,169758.28125,160060.765625,198370.125,162242.46875,163621.75,686857.8125,159814.625,-0.093505859375,1.001708984375,-0.128662109375,-1.3427733182907104,0.9460448622703552,0.7324218153953552,100.0,190102.0,1.0
15:41:12.980489,175860.5,169742.109375,160051.90625,198380.953125,162240.234375,163605.296875,686901.5,159826.0625,-0.0927734375,1.0009765625,-0.12890625,-1.3122557401657104,0.8239745497703552,0.7934569716453552,100.0,190103.0,1.0
15:41:12.980512,175839.390625,169735.046875,160046.1875,198390.703125,162237.90625,163599.484375,686894.1875,159831.078125,-0.09375,1.00048828125,-0.12744140625,-1.2817381620407104,0.7934569716453552,0.8544921278953552,100.0,190104.0,1.0
15:41:12.987367,175922.8125,169760.25,160065.671875,198405.53125,162253.46875,163622.734375,686849.5,159844.75,-0.092041015625,0.9990234375,-0.12841796875,-1.3732908964157104,0.7324218153953552,0.7934569716453552,100.0,190105.0,1.0
15:41:12.991714,175920.578125,169770.265625,160070.328125,198378.09375,162253.109375,163632.5625,686860.75,159823.75,-0.094482421875,0.998779296875,-0.1298828125,-1.3732908964157104,0.6408690810203552,0.7019042372703552,100.0,190106.0,1.0
15:41:12.991741,175870.328125,169750.328125,160058.96875,198374.15625,162243.8125,163613.703125,686865.5,159820.609375,-0.09326171875,0.99755859375,-0.131591796875,-1.4343260526657104,0.5187987685203552,0.7324218153953552,100.0,190107.0,1.0
15:41:13.001095,175843.234375,169734.59375,160048.25,198388.640625,162237.734375,163597.609375,686900.3125,159836.796875,-0.09375,0.998291015625,-0.130126953125,-1.3427733182907104,0.3662109076976776,0.8850097060203552,100.0,190108.0,1.0
15:41:13.005435,175902.25,169739.515625,160053.78125,198390.25,162240.859375,163605.65625,686841.4375,159832.328125,-0.091552734375,1.001220703125,-0.128662109375,-1.3427733182907104,0.2441406100988388,1.0375975370407104,100.0,190109.0,1.0
15:41:13.005460,175923.34375,169752.5625,160061.5625,198377.90625,162244.53125,163616.5625,686865.5625,159814.796875,-0.0927734375,1.001220703125,-0.13037109375,-1.3427733182907104,0.1220703050494194,1.0070799589157104,100.0,190110.0,1.0
15:41:13.011729,175873.015625,169754.171875,160058.53125,198373.34375,162243.8125,163615.765625,686858.75,159822.21875,-0.091064453125,1.000732421875,-0.1328125,-1.3732908964157104,0.1525878757238388,1.0681151151657104,100.0,190111.0,1.0
15:41:13.011750,175842.515625,169738.265625,160046.015625,198387.484375,162238.265625,163600.375,686931.1875,159834.921875,-0.09228515625,1.001220703125,-0.132080078125,-1.3122557401657104,0.0610351525247097,1.0375975370407104,100.0,190112.0,1.0
15:41:13.019118,175885.96875,169752.75,160053.78125,198385.421875,162243.1875,163616.203125,686835.1875,159830.8125,-0.09033203125,0.999755859375,-0.132568359375,-1.3122557401657104,0.03051757626235485,1.0681151151657104,100.0,190113.0,1.0
15:41:13.025453,175936.765625,169759.984375,160063.625,198384.4375,162248.640625,163623.8125,686868.3125,159826.25,-0.087890625,0.998779296875,-0.1337890625,-1.2817381620407104,-0.0915527269244194,1.0681151151657104,100.0,190114.0,1.0
15:41:13.025488,175874.171875,169746.046875,160053.515625,198366.203125,162238.625,163612.453125,686843.125,159815.703125,-0.08837890625,0.998291015625,-0.133544921875,-1.1901854276657104,-0.0915527269244194,1.1291502714157104,100.0,190115.0,1.0
15:41:13.031748,175840.203125,169730.9375,160041.265625,198384.171875,162232.90625,163595.203125,686914.125,159829.546875,-0.089599609375,1.0,-0.13330078125,-1.2207030057907104,-0.0915527269244194,1.2512205839157104,100.0,190116.0,1.0
15:41:13.031787,175854.421875,169727.53125,160035.28125,198368.4375,162226.015625,163594.125,686838.75,159815.703125,-0.08984375,0.99951171875,-0.130615234375,-1.2207030057907104,-0.2136230319738388,1.1291502714157104,100.0,190117.0,1.0
15:41:13.033560,175925.9375,169746.484375,160049.5,198372.09375,162233.96875,163610.484375,686872.625,159814.796875,-0.0908203125,0.998291015625,-0.1328125,-1.3122557401657104,-0.3356933295726776,1.0375975370407104,100.0,190118.0,1.0
15:41:13.050012,175879.625,169747.921875,160052.359375,198366.828125,162233.078125,163607.890625,686846.1875,159808.984375,-0.09130859375,0.99658203125,-0.134033203125,-1.2817381620407104,-0.3051757514476776,0.9155272841453552,100.0,190119.0,1.0
15:41:13.052986,175849.140625,169731.203125,160041.625,198385.6875,162229.78125,163590.015625,686906.75,159824.640625,-0.091796875,0.9990234375,-0.1318359375,-1.2512205839157104,-0.2746581733226776,0.9155272841453552,100.0,190120.0,1.0
15:41:13.053024,175856.203125,169736.296875,160044.125,198390.0625,162232.90625,163596.8125,686860.8125,159832.0625,-0.09228515625,0.997802734375,-0.13232421875,-1.2817381620407104,-0.5187987685203552,0.6713866591453552,100.0,190121.0,1.0
15:41:13.055474,175931.296875,169742.90625,160053.25,198377.28125,162239.609375,163609.859375,686884.6875,159817.9375,-0.089599609375,0.998779296875,-0.13134765625,-1.2512205839157104,-0.4882812201976776,0.4577636420726776,100.0,190122.0,1.0
15:41:13.055500,175892.765625,169753.734375,160056.296875,198357.796875,162239.96875,163619.0625,686864.5625,159805.6875,-0.08984375,0.996826171875,-0.132080078125,-1.2512205839157104,-0.4577636420726776,0.4272460639476776,100.0,190123.0,1.0
15:41:13.057387,175858.96875,169737.28125,160047.625,198377.015625,162235.671875,163599.21875,686891.375,159824.375,-0.088134765625,0.997314453125,-0.13134765625,-1.1291502714157104,-0.5798339247703552,0.5493163466453552,100.0,190124.0,1.0
15:41:13.064842,175847.703125,169736.109375,160044.046875,198382.296875,162234.515625,163598.5,686879.625,159825.359375,-0.086669921875,0.999755859375,-0.1318359375,-1.1291502714157104,-0.6408690810203552,0.4882812201976776,100.0,190125.0,1.0
15:41:13.072913,175928.359375,169752.203125,160054.765625,198379.078125,162242.5625,163618.890625,686862.875,159814.796875,-0.085693359375,1.0,-0.1318359375,-1.2207030057907104,-0.6713866591453552,0.4272460639476776,100.0,190126.0,1.0
15:41:13.072942,175905.203125,169752.03125,160056.015625,198363.96875,162238.453125,163618.171875,686869.5,159802.828125,-0.08544921875,1.000244140625,-0.134521484375,-1.1901854276657104,-0.6408690810203552,0.4272460639476776,100.0,190127.0,1.0
15:41:13.077330,175862.640625,169739.25,160046.984375,198371.828125,162235.3125,163599.21875,686852.9375,159817.3125,-0.08447265625,1.00146484375,-0.135009765625,-1.0681151151657104,-0.5798339247703552,0.4272460639476776,100.0,190128.0,1.0
15:41:13.079817,175840.375,169728.25,160039.484375,198382.015625,162231.296875,163587.421875,686882.0,159830.8125,-0.08349609375,0.999755859375,-0.134033203125,-1.0375975370407104,-0.6103515028953552,0.3967284858226776,100.0,190129.0,1.0
15:41:13.087399,175915.75,169739.515625,160048.15625,198381.484375,162236.84375,163602.078125,686867.6875,159819.09375,-0.083251953125,0.999755859375,-0.133056640625,-1.1291502714157104,-0.5493163466453552,0.4272460639476776,100.0,190130.0,1.0
15:41:13.093005,175915.03125,169751.671875,160054.953125,198365.65625,162240.0625,163613.34375,686890.125,159806.75,-0.082275390625,1.002197265625,-0.13330078125,-1.1596678495407104,-0.4577636420726776,0.6408690810203552,100.0,190131.0,1.0
15:41:13.093026,175871.046875,169747.921875,160052.984375,198376.5625,162240.40625,163607.09375,686850.25,159821.328125,-0.083740234375,1.002197265625,-0.134765625,-1.1291502714157104,-0.4882812201976776,0.6103515028953552,100.0,190132.0,1.0
15:41:13.094850,175838.953125,169727.0,160037.328125,198382.109375,162229.78125,163587.328125,686890.125,159821.0625,-0.084228515625,1.00048828125,-0.133544921875,-1.2207030057907104,-0.3967284858226776,0.6103515028953552,100.0,190133.0,1.0
15:41:13.112974,175898.3125,169737.71875,160044.21875,198377.1875,162235.140625,163600.296875,686847.5625,159817.125,-0.0849609375,1.0029296875,-0.13427734375,-1.2817381620407104,-0.4272460639476776,0.8239745497703552,100.0,190134.0,1.0
15:41:13.112995,175925.21875,169750.15625,160055.125,198371.5625,162242.296875,163614.859375,686884.625,159814.171875,-0.087158203125,1.00341796875,-0.135986328125,-1.3122557401657104,-0.2746581733226776,0.7934569716453552,100.0,190135.0,1.0
15:41:13.115465,175878.828125,169759.359375,160056.640625,198373.171875,162244.25,163619.6875,686851.875,159818.640625,-0.086669921875,1.000732421875,-0.1357421875,-1.3732908964157104,-0.2441406100988388,0.7934569716453552,100.0,190136.0,1.0
15:41:13.115495,175849.3125,169732.546875,160042.796875,198389.53125,162235.9375,163591.359375,686887.625,159828.484375,-0.08642578125,1.000732421875,-0.13671875,-1.4038084745407104,-0.2441406100988388,0.6713866591453552,100.0,190137.0,1.0
15:41:13.117366,175882.671875,169730.484375,160041.984375,198377.90625,162234.6875,163593.765625,686870.5625,159818.828125,-0.086181640625,1.000244140625,-0.13427734375,-1.4343260526657104,-0.2441406100988388,0.8544921278953552,100.0,190138.0,1.0
15:41:13.121097,175933.546875,169745.328125,160054.0625,198378.171875,162240.953125,163609.234375,686911.875,159817.578125,-0.086669921875,1.0,-0.132080078125,-1.4953612089157104,-0.1525878757238388,0.7629393935203552,100.0,190139.0,1.0
15:41:13.126707,175876.859375,169747.46875,160051.109375,198362.359375,162236.75,163609.6875,686875.875,159812.5625,-0.0859375,1.00048828125,-0.13330078125,-1.5869139432907104,-0.2136230319738388,0.6713866591453552,100.0,190140.0,1.0
15:41:13.126721,175842.34375,169726.453125,160036.171875,198371.65625,162228.796875,163587.421875,686844.125,159817.03125,-0.085205078125,1.001220703125,-0.1298828125,-1.6784666776657104,-0.1831054538488388,0.6408690810203552,100.0,190141.0,1.0
15:41:13.133569,175865.140625,169731.109375,160039.84375,198377.375,162231.65625,163594.296875,686852.5,159822.21875,-0.08740234375,1.001220703125,-0.13232421875,-1.7089842557907104,-0.1525878757238388,0.6103515028953552,100.0,190142.0,1.0
15:41:13.137935,175934.609375,169748.453125,160052.890625,198379.609375,162238.890625,163612.71875,686895.9375,159815.96875,-0.0888671875,1.001220703125,-0.131103515625,-1.7395018339157104,-0.0915527269244194,0.6408690810203552,100.0,190143.0,1.0
15:41:13.137964,175886.6875,169750.875,160054.0625,198368.515625,162237.28125,163615.578125,686878.8125,159808.8125,-0.085693359375,1.0009765625,-0.132568359375,-1.8005369901657104,-0.0915527269244194,0.7629393935203552,100.0,190144.0,1.0
15:41:13.144830,175851.015625,169727.4375,160037.515625,198373.890625,162226.90625,163587.59375,686840.1875,159817.3125,-0.086181640625,0.999755859375,-0.133056640625,-1.8005369901657104,-0.0610351525247097,0.7019042372703552,100.0,190145.0,1.0
15:41:13.186694,175857.640625,169731.640625,160038.140625,198379.25,162226.375,163591.359375,686861.1875,159820.703125,-0.08740234375,0.998046875,-0.135009765625,-1.8310545682907104,-0.0610351525247097,0.6713866591453552,100.0,190146.0,1.0
15:41:13.186721,175943.640625,169752.65625,160053.78125,198383.90625,162237.90625,163613.53125,686904.75,159817.75,-0.085693359375,0.998779296875,-0.131103515625,-1.9226073026657104,-0.03051757626235485,0.7019042372703552,100.0,190147.0,1.0
15:41:13.209968,175908.59375,169760.53125,160058.609375,198368.703125,162240.0625,163623.53125,686921.25,159808.984375,-0.085693359375,0.99951171875,-0.132568359375,-1.8920897245407104,0.0,0.6713866591453552,100.0,190148.0,1.0
15:41:13.212386,175869.609375,169740.5,160046.015625,198376.921875,162233.34375,163602.53125,686843.6875,159816.953125,-0.08544921875,1.000732421875,-0.1328125,-1.8615721464157104,0.1525878757238388,0.5798339247703552,100.0,190149.0,1.0
15:41:13.214939,175858.171875,169738.265625,160042.796875,198385.15625,162231.734375,163599.75,686868.8125,159825.703125,-0.08642578125,1.0009765625,-0.134521484375,-1.9226073026657104,0.1525878757238388,0.5187987685203552,100.0,190150.0,1.0
15:41:13.217350,175943.546875,169750.15625,160054.40625,198387.75,162239.15625,163613.53125,686904.1875,159823.203125,-0.085693359375,1.0,-0.1337890625,-1.8005369901657104,-0.03051757626235485,0.5493163466453552,100.0,190151.0,1.0
15:41:13.224926,175927.28125,169757.578125,160057.8125,198368.25,162236.484375,163622.015625,686961.875,159804.96875,-0.08447265625,0.99853515625,-0.134765625,-1.8310545682907104,0.1220703050494194,0.6103515028953552,100.0,190152.0,1.0
15:41:13.227363,175886.875,169746.125,160048.515625,198374.515625,162231.65625,163608.875,686898.125,159815.25,-0.08544921875,0.998291015625,-0.1328125,-1.8615721464157104,0.1220703050494194,0.5798339247703552,100.0,190153.0,1.0
15:41:13.229856,175855.390625,169724.84375,160036.359375,198381.125,162225.21875,163589.5625,686885.25,159821.59375,-0.08642578125,0.998291015625,-0.133544921875,-1.7700194120407104,0.1525878757238388,0.5798339247703552,100.0,190154.0,1.0
15:41:13.232347,175928.53125,169743.796875,160050.84375,198389.984375,162237.640625,163607.359375,686940.875,159824.640625,-0.08935546875,0.997802734375,-0.13330078125,-1.7395018339157104,0.0610351525247097,0.6408690810203552,100.0,190155.0,1.0
15:41:13.235152,175927.375,169751.5,160055.390625,198373.796875,162240.140625,163615.5,687010.25,159811.671875,-0.08740234375,0.997314453125,-0.13525390625,-1.7700194120407104,0.0915527269244194,0.5187987685203552,100.0,190156.0,1.0
15:41:13.238574,175877.578125,169744.96875,160047.265625,198369.421875,162236.484375,163606.8125,686964.4375,159816.765625,-0.08642578125,0.997802734375,-0.1357421875,-1.6784666776657104,0.1220703050494194,0.5493163466453552,100.0,190157.0,1.0
15:41:13.240007,175853.78125,169733.25,160039.03125,198386.765625,162232.359375,163593.953125,686903.5625,159830.453125,-0.087158203125,0.997314453125,-0.133544921875,-1.6174315214157104,0.0610351525247097,0.5187987685203552,100.0,190158.0,1.0
15:41:13.242374,175911.640625,169741.296875,160043.765625,198380.140625,162233.53125,163604.5,686937.1875,159817.578125,-0.08740234375,0.998046875,-0.133544921875,-1.6479490995407104,0.0915527269244194,0.5493163466453552,100.0,190159.0,1.0
15:41:13.245001,175952.5,169759.453125,160060.140625,198385.875,162245.328125,163623.984375,687016.0625,159816.671875,-0.08642578125,0.998046875,-0.132080078125,-1.7089842557907104,0.0610351525247097,0.4577636420726776,100.0,190160.0,1.0
15:41:13.247371,175894.203125,169743.09375,160047.53125,198360.03125,162233.96875,163604.765625,687030.3125,159807.46875,-0.08740234375,0.999267578125,-0.131591796875,-1.6784666776657104,0.0610351525247097,0.5187987685203552,100.0,190161.0,1.0
15:41:13.250674,175867.46875,169731.203125,160038.3125,198381.75,162229.0625,163588.3125,686943.0,159825.984375,-0.089111328125,1.001220703125,-0.1328125,-1.6784666776657104,0.03051757626235485,0.4272460639476776,100.0,190162.0,1.0
15:41:13.250768,175894.640625,169735.21875,160040.109375,198380.953125,162229.953125,163595.203125,686947.75,159815.78125,-0.087646484375,0.999267578125,-0.132080078125,-1.7395018339157104,-0.03051757626235485,0.3051757514476776,100.0,190163.0,1.0
15:41:13.253088,175941.234375,169745.953125,160052.625,198382.46875,162238.625,163610.578125,687014.9375,159815.34375,-0.087158203125,0.999755859375,-0.133544921875,-1.6479490995407104,0.0610351525247097,0.3051757514476776,100.0,190164.0,1.0
15:41:13.253183,175884.453125,169752.390625,160051.734375,198364.859375,162236.84375,163616.203125,687047.625,159810.59375,-0.0888671875,0.99951171875,-0.132568359375,-1.6174315214157104,-0.0915527269244194,0.3967284858226776,100.0,190165.0,1.0
15:41:13.254935,175845.03125,169723.859375,160033.484375,198373.171875,162227.09375,163587.78125,686912.875,159814.625,-0.08935546875,1.000244140625,-0.130126953125,-1.6479490995407104,-0.2441406100988388,0.3662109076976776,100.0,190166.0,1.0
15:41:13.257390,175860.21875,169729.59375,160034.390625,198373.4375,162226.90625,163591.984375,686915.5625,159813.453125,-0.0888671875,1.001220703125,-0.12939453125,-1.6784666776657104,-0.2441406100988388,0.2746581733226776,100.0,190167.0,1.0
15:41:13.266743,175933.71875,169749.265625,160049.765625,198375.59375,162235.671875,163610.75,686932.25,159811.21875,-0.0908203125,1.000244140625,-0.129150390625,-1.7089842557907104,-0.2746581733226776,0.3356933295726776,100.0,190168.0,1.0
15:41:13.266758,175888.125,169751.140625,160055.21875,198371.65625,162238.265625,163614.78125,686936.75,159812.125,-0.091796875,0.99755859375,-0.130615234375,-1.7395018339157104,-0.2746581733226776,0.3356933295726776,100.0,190169.0,1.0
15:41:13.269203,175856.03125,169731.90625,160045.203125,198383.625,162235.046875,163594.75,686865.375,159824.09375,-0.091552734375,0.99853515625,-0.130859375,-1.7089842557907104,-0.3051757514476776,0.3967284858226776,100.0,190170.0,1.0
15:41:13.269217,175855.390625,169735.046875,160044.671875,198386.578125,162235.046875,163597.515625,686867.1875,159826.875,-0.090576171875,1.000244140625,-0.1337890625,-1.7395018339157104,-0.4577636420726776,0.3356933295726776,100.0,190171.0,1.0
15:41:13.271105,175934.515625,169749.265625,160055.84375,198387.828125,162242.015625,163613.796875,686882.0,159822.40625,-0.08984375,0.998779296875,-0.134033203125,-1.6784666776657104,-0.6713866591453552,0.3356933295726776,100.0,190172.0,1.0
15:41:13.274135,175895.546875,169756.234375,160057.265625,198366.90625,162240.234375,163620.046875,686878.1875,159812.65625,-0.090576171875,0.9990234375,-0.13232421875,-1.7395018339157104,-0.6103515028953552,0.3051757514476776,100.0,190173.0,1.0
15:41:13.274148,175856.203125,169738.703125,160046.8125,198382.734375,162236.484375,163601.359375,686908.75,159827.140625,-0.093017578125,0.999267578125,-0.135498046875,-1.6784666776657104,-0.7324218153953552,0.3051757514476776,100.0,190174.0,1.0
15:41:13.276071,175838.046875,169732.453125,160040.203125,198387.03125,162232.8125,163595.46875,686871.4375,159828.921875,-0.092041015625,0.99951171875,-0.135009765625,-1.6784666776657104,-0.7934569716453552,0.3051757514476776,100.0,190175.0,1.0
15:41:13.279192,175920.21875,169752.484375,160052.890625,198382.015625,162241.390625,163614.0625,686860.0,159821.953125,-0.09033203125,0.998779296875,-0.132568359375,-1.6784666776657104,-0.7934569716453552,0.3662109076976776,100.0,190176.0,1.0
15:41:13.279203,175903.40625,169761.78125,160057.546875,198366.46875,162243.0,163623.625,686860.75,159808.546875,-0.090576171875,1.0009765625,-0.132568359375,-1.7089842557907104,-0.7629393935203552,0.3967284858226776,100.0,190177.0,1.0
15:41:13.283644,175856.828125,169744.34375,160046.8125,198371.390625,162237.015625,163605.203125,686944.875,159817.75,-0.091796875,1.001220703125,-0.135009765625,-1.7395018339157104,-0.7324218153953552,0.3967284858226776,100.0,190178.0,1.0
15:41:13.290447,175826.96875,169717.78125,160032.78125,198381.125,162227.1875,163579.734375,686904.75,159824.1875,-0.090087890625,1.001953125,-0.13427734375,-1.8310545682907104,-0.8544921278953552,0.3662109076976776,100.0,190179.0,1.0
15:41:13.290469,175900.640625,169735.125,160044.046875,198385.6875,162234.15625,163597.4375,686842.5625,159819.8125,-0.089111328125,1.00390625,-0.134765625,-1.8005369901657104,-0.8239745497703552,0.3662109076976776,100.0,190180.0,1.0
15:41:13.292364,175903.859375,169745.40625,160048.15625,198366.015625,162235.5,163609.6875,686854.1875,159808.546875,-0.087158203125,1.003173828125,-0.13525390625,-1.7700194120407104,-0.8239745497703552,0.3967284858226776,100.0,190181.0,1.0
15:41:13.295426,175842.25,169729.40625,160033.84375,198353.6875,162226.015625,163594.03125,686917.25,159801.125,-0.087646484375,1.002685546875,-0.13427734375,-1.8310545682907104,-0.8239745497703552,0.3967284858226776,100.0,190182.0,1.0
15:41:13.295440,175814.890625,169717.34375,160026.25,198372.453125,162224.40625,163581.078125,686938.0625,159815.515625,-0.087890625,1.00244140625,-0.1357421875,-1.8310545682907104,-0.8239745497703552,0.4577636420726776,100.0,190183.0,1.0
15:41:13.309909,175871.21875,169735.125,160036.890625,198374.515625,162232.359375,163599.671875,686825.25,159814.796875,-0.0859375,1.001708984375,-0.13427734375,-1.7700194120407104,-0.7019042372703552,0.4272460639476776,100.0,190184.0,1.0
15:41:13.312322,175903.40625,169740.5,160044.125,198364.859375,162234.328125,163608.78125,686843.8125,159806.390625,-0.0849609375,1.0009765625,-0.13427734375,-1.7395018339157104,-0.7629393935203552,0.4272460639476776,100.0,190185.0,1.0
15:41:13.315420,175851.640625,169744.609375,160042.796875,198361.375,162232.1875,163608.609375,686897.5,159809.890625,-0.085205078125,1.00146484375,-0.13232421875,-1.8310545682907104,-0.7629393935203552,0.4577636420726776,100.0,190186.0,1.0
15:41:13.315451,175819.1875,169725.46875,160030.359375,198372.015625,162225.296875,163586.34375,686949.4375,159816.671875,-0.085693359375,1.000732421875,-0.1328125,-1.8310545682907104,-0.7324218153953552,0.4882812201976776,100.0,190187.0,1.0
15:41:13.317482,175860.21875,169742.109375,160041.1875,198372.015625,162233.96875,163605.65625,686801.0,159813.546875,-0.083740234375,1.00146484375,-0.133056640625,-1.8005369901657104,-0.7324218153953552,0.4577636420726776,100.0,190188.0,1.0
15:41:13.319875,175917.625,169748.0,160052.625,198373.34375,162240.40625,163615.765625,686844.5625,159809.96875,-0.084716796875,1.00048828125,-0.133544921875,-1.8005369901657104,-0.6713866591453552,0.3662109076976776,100.0,190189.0,1.0
15:41:13.326151,175858.96875,169744.078125,160049.9375,198365.84375,162236.390625,163609.6875,686886.1875,159812.03125,-0.084716796875,1.000244140625,-0.135986328125,-1.7700194120407104,-0.5798339247703552,0.3967284858226776,100.0,190190.0,1.0
15:41:13.332956,175822.046875,169723.0625,160033.484375,198379.25,162228.34375,163586.53125,686964.625,159823.390625,-0.08251953125,0.998779296875,-0.134521484375,-1.8310545682907104,-0.4882812201976776,0.5493163466453552,100.0,190191.0,1.0
15:41:13.332972,175832.859375,169727.890625,160032.6875,198372.1875,162226.203125,163593.40625,686775.625,159812.125,-0.085205078125,0.999755859375,-0.13330078125,-1.8615721464157104,-0.4272460639476776,0.4577636420726776,100.0,190192.0,1.0
15:41:13.341714,175899.390625,169736.03125,160040.734375,198359.5,162229.78125,163603.515625,686828.375,159798.0,-0.083740234375,1.0,-0.135009765625,-1.8310545682907104,-0.2746581733226776,0.4882812201976776,100.0,190193.0,1.0
15:41:13.341741,175854.234375,169743.453125,160045.734375,198349.921875,162232.015625,163611.109375,686887.125,159795.84375,-0.0830078125,0.999267578125,-0.13427734375,-1.8920897245407104,-0.2441406100988388,0.5187987685203552,100.0,190194.0,1.0
15:41:13.374180,175814.453125,169719.75,160031.25,198365.296875,162225.75,163588.765625,686969.625,159815.25,-0.083251953125,0.99853515625,-0.13232421875,-1.9836424589157104,-0.2441406100988388,0.5187987685203552,100.0,190195.0,1.0
15:41:13.374210,175813.28125,169722.96875,160032.15625,198368.171875,162225.484375,163591.625,686745.5625,159815.0625,-0.083251953125,0.998779296875,-0.133544921875,-1.8920897245407104,-0.0915527269244194,0.4272460639476776,100.0,190196.0,1.0
15:41:13.377267,175898.40625,169739.328125,160045.734375,198372.28125,162234.15625,163607.984375,686794.0625,159810.421875,-0.084228515625,1.0,-0.134765625,-1.9226073026657104,0.1525878757238388,0.4577636420726776,100.0,190197.0,1.0
15:41:13.377290,175861.828125,169747.921875,160047.4375,198354.125,162232.453125,163616.203125,686880.25,159800.40625,-0.083251953125,1.000244140625,-0.130615234375,-1.8920897245407104,0.2136230319738388,0.4577636420726776,100.0,190198.0,1.0
15:41:13.377298,175821.953125,169729.953125,160036.625,198368.25,162226.828125,163597.078125,686970.0,159817.125,-0.084228515625,1.001220703125,-0.130615234375,-1.7700194120407104,0.1525878757238388,0.4272460639476776,100.0,190199.0,1.0
15:41:13.380409,175802.640625,169717.34375,160026.15625,198364.671875,162217.25,163584.640625,686753.25,159806.84375,-0.083984375,0.9990234375,-0.129638671875,-1.8005369901657104,0.2746581733226776,0.4882812201976776,100.0,190200.0,1.0
15:41:13.380436,175888.65625,169739.515625,160041.0,198370.84375,162227.359375,163604.671875,686776.0,159806.046875,-0.085205078125,0.999267578125,-0.132080078125,-1.7700194120407104,0.3662109076976776,0.4882812201976776,100.0,190201.0,1.0
15:41:13.382323,175870.0625,169739.953125,160041.1875,198348.234375,162223.96875,163603.6875,686906.9375,159792.625,-0.087890625,0.997314453125,-0.130615234375,-1.7395018339157104,0.3356933295726776,0.4882812201976776,100.0,190202.0,1.0
15:41:13.384869,175821.421875,169720.921875,160026.25,198349.921875,162214.484375,163584.203125,686993.9375,159797.015625,-0.086669921875,0.998291015625,-0.13330078125,-1.6479490995407104,0.3662109076976776,0.4272460639476776,100.0,190203.0,1.0
15:41:13.387302,175792.015625,169700.625,160010.953125,198356.8125,162204.65625,163565.609375,686826.375,159801.296875,-0.08642578125,0.99853515625,-0.13232421875,-1.7089842557907104,0.3356933295726776,0.4272460639476776,100.0,190204.0,1.0
15:41:13.389861,175864.78125,169713.859375,160023.125,198364.953125,162213.328125,163580.359375,686770.0,159805.6875,-0.0849609375,0.99951171875,-0.130126953125,-1.8005369901657104,0.4272460639476776,0.3662109076976776,100.0,190205.0,1.0
15:41:13.392330,175867.5625,169719.3125,160025.359375,198340.625,162211.0,163585.984375,686834.625,159788.78125,-0.087158203125,0.99853515625,-0.130859375,-1.7089842557907104,0.3967284858226776,0.4272460639476776,100.0,190206.0,1.0
15:41:13.394881,175819.28125,169713.046875,160020.96875,198342.953125,162208.859375,163578.484375,686961.25,159795.484375,-0.089599609375,0.998046875,-0.131591796875,-1.6784666776657104,0.3662109076976776,0.3967284858226776,100.0,190207.0,1.0
15:41:13.399193,175788.15625,169692.484375,160007.203125,198355.375,162201.515625,163560.78125,686888.0,159799.6875,-0.090087890625,0.999267578125,-0.13134765625,-1.6784666776657104,0.3356933295726776,0.3967284858226776,100.0,190208.0,1.0
15:41:13.399220,175845.921875,169710.09375,160016.0625,198350.109375,162207.78125,163580.890625,686774.375,159792.09375,-0.090087890625,0.999267578125,-0.13134765625,-1.7089842557907104,0.4577636420726776,0.3967284858226776,100.0,190209.0,1.0
15:41:13.409214,175889.109375,169730.9375,160032.5,198351.984375,162218.6875,163601.453125,686831.5,159795.671875,-0.091064453125,0.999755859375,-0.12890625,-1.7089842557907104,0.4272460639476776,0.5493163466453552,100.0,190210.0,1.0
15:41:13.409253,175834.125,169725.921875,160027.953125,198342.140625,162215.015625,163592.875,686914.1875,159792.453125,-0.08935546875,0.99951171875,-0.127685546875,-1.7700194120407104,0.3967284858226776,0.5187987685203552,100.0,190211.0,1.0
15:41:13.412956,175801.390625,169703.296875,160011.671875,198354.125,162204.65625,163567.75,686949.0625,159800.859375,-0.08837890625,1.00048828125,-0.130859375,-1.7395018339157104,0.3967284858226776,0.4882812201976776,100.0,190212.0,1.0
15:41:13.412991,175836.890625,169710.90625,160017.125,198356.625,162208.40625,163576.6875,686792.0625,159804.34375,-0.088134765625,1.0009765625,-0.131103515625,-1.7089842557907104,0.3356933295726776,0.5798339247703552,100.0,190213.0,1.0
15:41:13.427925,175901.171875,169740.40625,160036.625,198359.9375,162222.984375,163602.53125,686840.0,159801.296875,-0.09130859375,0.9990234375,-0.131103515625,-1.6784666776657104,0.2746581733226776,0.5187987685203552,100.0,190214.0,1.0
15:41:13.427960,175850.65625,169741.296875,160039.03125,198347.421875,162224.5,163607.265625,686859.1875,159793.796875,-0.0908203125,1.00048828125,-0.131103515625,-1.5563963651657104,0.1220703050494194,0.6103515028953552,100.0,190215.0,1.0
15:41:13.430428,175818.390625,169717.515625,160025.359375,198354.75,162218.59375,163583.3125,686975.1875,159803.0,-0.091552734375,1.0009765625,-0.131103515625,-1.7089842557907104,0.0610351525247097,0.5493163466453552,100.0,190216.0,1.0
15:41:13.430454,175835.109375,169723.421875,160029.921875,198361.109375,162222.171875,163590.28125,686826.9375,159807.375,-0.09130859375,1.001220703125,-0.128662109375,-1.7089842557907104,0.0610351525247097,0.5798339247703552,100.0,190217.0,1.0
15:41:13.439864,175917.53125,169742.28125,160049.3125,198374.25,162235.9375,163611.921875,686854.3125,159813.453125,-0.09130859375,1.0009765625,-0.130126953125,-1.6784666776657104,0.0610351525247097,0.6103515028953552,100.0,190218.0,1.0
15:41:13.444193,175871.046875,169746.390625,160052.625,198358.78125,162237.8125,163618.171875,686849.1875,159811.046875,-0.092041015625,1.001708984375,-0.130615234375,-1.6479490995407104,-0.0610351525247097,0.4882812201976776,100.0,190219.0,1.0
15:41:13.444232,175835.015625,169730.75,160039.578125,198368.609375,162230.9375,163600.03125,686962.1875,159814.625,-0.09228515625,1.00146484375,-0.133056640625,-1.6479490995407104,-0.1831054538488388,0.6408690810203552,100.0,190220.0,1.0
15:41:13.459194,175832.953125,169719.84375,160032.78125,198371.921875,162223.0625,163587.859375,686858.3125,159808.09375,-0.09130859375,1.001220703125,-0.132568359375,-1.6479490995407104,-0.1831054538488388,0.5798339247703552,100.0,190221.0,1.0
15:41:13.459226,175919.765625,169737.453125,160047.796875,198376.296875,162232.640625,163603.6875,686871.125,159806.84375,-0.090576171875,1.001708984375,-0.128173828125,-1.6479490995407104,-0.2136230319738388,0.5798339247703552,100.0,190222.0,1.0
15:41:13.461752,175890.71875,169752.75,160057.8125,198368.171875,162237.90625,163617.640625,686854.75,159804.875,-0.090087890625,1.00146484375,-0.12548828125,-1.7395018339157104,-0.1831054538488388,0.5798339247703552,100.0,190223.0,1.0
15:41:13.461778,175847.171875,169732.453125,160041.53125,198370.765625,162229.0625,163595.640625,686908.5,159811.140625,-0.09130859375,1.001220703125,-0.1298828125,-1.7700194120407104,-0.3051757514476776,0.5187987685203552,100.0,190224.0,1.0
15:41:13.463629,175823.921875,169722.34375,160030.0,198366.90625,162221.546875,163587.59375,686872.625,159807.296875,-0.0908203125,1.00048828125,-0.128662109375,-1.7395018339157104,-0.3662109076976776,0.7019042372703552,100.0,190225.0,1.0
15:41:13.467350,175906.984375,169734.0625,160044.84375,198375.859375,162234.15625,163604.3125,686865.625,159809.53125,-0.088623046875,0.999755859375,-0.12939453125,-1.7700194120407104,-0.2746581733226776,0.7019042372703552,100.0,190226.0,1.0
15:41:13.477959,175899.390625,169747.828125,160057.625,198373.53125,162243.0,163618.890625,686871.3125,159815.34375,-0.089599609375,0.999755859375,-0.130859375,-1.7700194120407104,-0.2746581733226776,0.7324218153953552,100.0,190227.0,1.0
15:41:13.477984,175848.6875,169732.09375,160044.125,198361.453125,162232.8125,163601.09375,686887.125,159810.328125,-0.088623046875,1.0,-0.1298828125,-1.7395018339157104,-0.3051757514476776,0.6713866591453552,100.0,190228.0,1.0
15:41:13.479854,175830.28125,169726.8125,160038.140625,198372.640625,162228.96875,163594.21875,686899.625,159815.515625,-0.087646484375,0.99853515625,-0.131103515625,-1.6784666776657104,-0.2746581733226776,0.5798339247703552,100.0,190229.0,1.0
15:41:13.486150,175899.828125,169736.734375,160048.59375,198376.484375,162235.140625,163607.09375,686853.375,159813.015625,-0.08642578125,0.998046875,-0.12841796875,-1.6479490995407104,-0.2746581733226776,0.5187987685203552,100.0,190230.0,1.0
15:41:13.492990,175906.0,169741.84375,160053.34375,198366.46875,162237.8125,163613.4375,686872.375,159806.75,-0.088134765625,0.9970703125,-0.13134765625,-1.7089842557907104,-0.3967284858226776,0.5187987685203552,100.0,190231.0,1.0
15:41:13.493026,175852.71875,169738.0,160044.84375,198358.234375,162231.109375,163603.875,686859.1875,159806.84375,-0.08837890625,0.999267578125,-0.13134765625,-1.7089842557907104,-0.4272460639476776,0.4577636420726776,100.0,190232.0,1.0
15:41:13.508007,175825.71875,169719.484375,160029.734375,198364.40625,162220.125,163583.3125,686919.5625,159807.296875,-0.086669921875,1.00048828125,-0.132568359375,-1.6174315214157104,-0.3356933295726776,0.5798339247703552,100.0,190233.0,1.0
15:41:13.508033,175880.96875,169724.140625,160040.28125,198375.671875,162228.25,163592.78125,686847.6875,159815.703125,-0.08544921875,0.999755859375,-0.133056640625,-1.6784666776657104,-0.2746581733226776,0.6713866591453552,100.0,190234.0,1.0
15:41:13.510405,175921.734375,169743.984375,160054.765625,198373.796875,162239.15625,163613.078125,686883.625,159815.609375,-0.08544921875,1.00048828125,-0.129638671875,-1.6784666776657104,-0.3051757514476776,0.5187987685203552,100.0,190235.0,1.0
15:41:13.510429,175867.375,169743.453125,160052.265625,198362.625,162237.28125,163612.09375,686847.125,159814.265625,-0.087646484375,0.999755859375,-0.12890625,-1.6174315214157104,-0.2746581733226776,0.6103515028953552,100.0,190236.0,1.0
15:41:13.512316,175837.78125,169729.59375,160041.359375,198376.03125,162232.90625,163598.5,686906.0,159819.8125,-0.088134765625,1.000732421875,-0.128662109375,-1.4953612089157104,-0.1831054538488388,0.5798339247703552,100.0,190237.0,1.0
15:41:13.566732,175868.453125,169728.96875,160044.21875,198381.390625,162233.625,163596.71875,686843.3125,159822.84375,-0.087890625,1.00146484375,-0.132080078125,-1.4343260526657104,-0.2136230319738388,0.6408690810203552,100.0,190238.0,1.0
15:41:13.566758,175921.46875,169734.234375,160048.6875,198372.453125,162232.8125,163604.3125,686880.75,159806.671875,-0.085693359375,1.000244140625,-0.128173828125,-1.5258787870407104,-0.1525878757238388,0.5493163466453552,100.0,190239.0,1.0
15:41:13.568579,175865.671875,169735.21875,160044.671875,198355.828125,162227.09375,163605.484375,686850.25,159796.5625,-0.08447265625,1.00048828125,-0.12939453125,-1.5258787870407104,-0.2136230319738388,0.5187987685203552,100.0,190240.0,1.0
15:41:13.571120,175834.46875,169713.234375,160031.078125,198369.0625,162220.828125,163580.0,686901.6875,159809.53125,-0.083740234375,1.000244140625,-0.128173828125,-1.4648436307907104,-0.2136230319738388,0.4882812201976776,100.0,190241.0,1.0
15:41:13.573625,175848.515625,169719.21875,160035.375,198374.609375,162224.859375,163587.59375,686854.5625,159813.015625,-0.084228515625,0.9990234375,-0.129638671875,-1.4038084745407104,-0.0610351525247097,0.5187987685203552,100.0,190242.0,1.0
15:41:13.579955,175924.234375,169736.828125,160049.40625,198380.140625,162233.703125,163605.75,686869.9375,159812.125,-0.082275390625,0.99951171875,-0.126953125,-1.3732908964157104,0.0610351525247097,0.5493163466453552,100.0,190243.0,1.0
15:41:13.582313,175870.6875,169731.640625,160039.65625,198351.71875,162221.640625,163599.046875,686857.875,159789.328125,-0.082763671875,0.99609375,-0.127197265625,-1.3732908964157104,0.03051757626235485,0.5493163466453552,100.0,190244.0,1.0
15:41:13.584915,175840.640625,169717.96875,160029.734375,198367.984375,162217.4375,163582.234375,686884.5,159809.53125,-0.08251953125,0.9951171875,-0.12744140625,-1.3732908964157104,0.0915527269244194,0.6103515028953552,100.0,190245.0,1.0
15:41:13.587296,175832.59375,169709.296875,160023.203125,198368.515625,162212.421875,163576.15625,686865.625,159804.96875,-0.08447265625,0.992919921875,-0.130126953125,-1.3732908964157104,0.1525878757238388,0.6103515028953552,100.0,190246.0,1.0
15:41:13.589870,175919.765625,169726.109375,160038.3125,198372.71875,162222.265625,163593.140625,686885.5,159800.140625,-0.084228515625,0.993408203125,-0.130126953125,-1.3122557401657104,0.2441406100988388,0.5187987685203552,100.0,190247.0,1.0
15:41:13.592314,175891.703125,169736.828125,160045.734375,198360.828125,162227.1875,163602.96875,686890.4375,159796.5625,-0.0859375,0.992919921875,-0.130126953125,-1.2207030057907104,0.3051757514476776,0.4882812201976776,100.0,190248.0,1.0
15:41:13.595445,175848.421875,169727.4375,160033.765625,198363.875,162221.546875,163589.390625,686865.375,159803.453125,-0.087646484375,0.99365234375,-0.1298828125,-1.2512205839157104,0.4577636420726776,0.4882812201976776,100.0,190249.0,1.0
15:41:13.595479,175826.515625,169716.265625,160024.546875,198366.109375,162213.859375,163581.078125,686885.5625,159801.390625,-0.087646484375,0.994873046875,-0.130615234375,-1.1596678495407104,0.3356933295726776,0.4882812201976776,100.0,190250.0,1.0
15:41:13.597954,175907.875,169721.8125,160034.65625,198367.1875,162219.671875,163591.265625,686879.75,159797.8125,-0.08740234375,0.996826171875,-0.1318359375,-1.1596678495407104,0.3967284858226776,0.4882812201976776,100.0,190251.0,1.0
15:41:13.597987,175899.46875,169737.375,160043.765625,198355.5625,162225.03125,163605.296875,686912.3125,159792.453125,-0.089111328125,0.998779296875,-0.134521484375,-1.0375975370407104,0.3662109076976776,0.5187987685203552,100.0,190252.0,1.0
15:41:13.600438,175851.828125,169727.4375,160036.0,198360.65625,162220.921875,163593.5,686843.5,159801.75,-0.088134765625,0.9990234375,-0.133544921875,-1.1596678495407104,0.3356933295726776,0.4882812201976776,100.0,190253.0,1.0
15:41:13.600472,175819.453125,169699.015625,160018.828125,198363.609375,162209.484375,163568.828125,686849.5625,159803.265625,-0.087890625,0.999755859375,-0.13134765625,-1.0375975370407104,0.4272460639476776,0.4882812201976776,100.0,190254.0,1.0
15:41:13.605433,175885.265625,169710.1875,160028.9375,198366.28125,162216.453125,163581.421875,686864.875,159805.234375,-0.088623046875,1.00048828125,-0.130859375,-1.0375975370407104,0.4272460639476776,0.4577636420726776,100.0,190255.0,1.0
15:41:13.605467,175899.65625,169724.046875,160037.875,198355.5625,162221.546875,163593.40625,686904.25,159800.859375,-0.089599609375,1.000244140625,-0.13330078125,-0.9765624403953552,0.3662109076976776,0.3051757514476776,100.0,190256.0,1.0
