Timestamp,Fz,FC3,FCz,FC4,Cz,C3,C4
15:40:33.741305,176136.84375,170014.703125,160525.40625,198597.40625,162707.125,163584.015625,686672.0625,160162.140625,-0.058349609375,1.00927734375,-0.08349609375,-1.4953612089157104,-0.3356933295726776,0.6408690810203552,100.0,180285.0,1.0
15:40:33.741320,176182.8125,170027.3125,160539.71875,198599.015625,162719.28125,163599.40625,686706.9375,160167.875,-0.059326171875,1.00927734375,-0.081298828125,-1.5869139432907104,-0.4272460639476776,0.6103515028953552,100.0,180286.0,1.0
15:40:33.741324,176130.234375,170031.78125,160536.140625,198574.0625,162716.78125,163602.078125,686691.6875,160154.640625,-0.059326171875,1.009765625,-0.080078125,-1.7089842557907104,-0.2746581733226776,0.6408690810203552,100.0,180287.0,1.0
15:40:33.741328,176091.078125,170002.375,160513.78125,198574.515625,162701.3125,163571.59375,686774.4375,160147.3125,-0.057861328125,1.011474609375,-0.08154296875,-1.7089842557907104,-0.1831054538488388,0.6408690810203552,100.0,180288.0,1.0
15:40:33.743206,176112.359375,170001.03125,160510.296875,198577.109375,162693.265625,163569.890625,686676.125,160141.671875,-0.059814453125,1.010986328125,-0.0791015625,-1.7700194120407104,-0.1220703050494194,0.6713866591453552,100.0,180289.0,1.0
15:40:33.745748,176168.5,170012.109375,160514.765625,198561.1875,162693.703125,163580.625,686713.9375,160127.453125,-0.057861328125,1.01171875,-0.08154296875,-1.8310545682907104,0.0610351525247097,0.6713866591453552,100.0,180290.0,1.0
15:40:33.751999,176120.484375,170017.296875,160516.203125,198545.734375,162693.4375,163585.1875,686692.5,160121.109375,-0.055908203125,1.011474609375,-0.081787109375,-1.9226073026657104,0.0915527269244194,0.8239745497703552,100.0,180291.0,1.0
15:40:33.778867,176086.875,169995.21875,160502.703125,198566.015625,162687.265625,163561.671875,686771.0625,160137.203125,-0.05712890625,1.010498046875,-0.081298828125,-1.9836424589157104,0.1220703050494194,0.6713866591453552,100.0,180292.0,1.0
15:40:33.778892,176087.9375,169992.453125,160499.65625,198574.421875,162685.390625,163562.296875,686687.5625,160140.78125,-0.05859375,1.0107421875,-0.081298828125,-2.075195074081421,0.2136230319738388,0.7019042372703552,100.0,180293.0,1.0
15:40:33.803323,176160.640625,170006.84375,160511.8125,198578.359375,162694.6875,163577.5,686708.0,160142.03125,-0.060546875,1.010498046875,-0.08203125,-2.166747808456421,0.2746581733226776,0.7934569716453552,100.0,180294.0,1.0
15:40:33.810853,176121.828125,170010.859375,160512.0,198555.203125,162691.65625,163581.609375,686695.0,160133.265625,-0.0595703125,1.010498046875,-0.08154296875,-2.166747808456421,0.2441406100988388,0.8239745497703552,100.0,180295.0,1.0
15:40:33.813422,176085.796875,169989.859375,160495.8125,198560.75,162679.046875,163557.203125,686763.625,160132.28125,-0.058349609375,1.012451171875,-0.082763671875,-2.258300542831421,0.1525878757238388,0.7934569716453552,100.0,180296.0,1.0
15:40:33.815849,176074.71875,169983.140625,160489.015625,198568.34375,162675.28125,163551.203125,686713.75,160136.9375,-0.056884765625,1.010009765625,-0.080078125,-2.227782964706421,0.1220703050494194,0.7629393935203552,100.0,180297.0,1.0
15:40:33.818376,176148.390625,170002.734375,160500.90625,198554.40625,162683.25,163571.421875,686706.6875,160120.75,-0.056396484375,1.010986328125,-0.083984375,-2.288818120956421,0.2746581733226776,0.7934569716453552,100.0,180298.0,1.0
15:40:33.820850,176128.0,170006.125,160505.734375,198543.765625,162684.140625,163576.6875,686707.25,160113.953125,-0.05615234375,1.011474609375,-0.08203125,-2.349853277206421,0.4272460639476776,0.9460448622703552,100.0,180299.0,1.0
15:40:33.823386,176084.1875,169985.203125,160491.25,198548.859375,162674.03125,163553.890625,686742.5625,160122.71875,-0.056884765625,1.011962890625,-0.081298828125,-2.441406011581421,0.4882812201976776,0.9765624403953552,100.0,180300.0,1.0
15:40:33.825759,176063.171875,169971.703125,160481.15625,198562.625,162666.703125,163541.375,686741.375,160126.390625,-0.05859375,1.01171875,-0.081787109375,-2.410888433456421,0.4272460639476776,0.9765624403953552,100.0,180301.0,1.0
15:40:33.828295,176130.59375,169987.625,160493.046875,198562.53125,162675.375,163559.4375,686706.3125,160129.6875,-0.058837890625,1.011474609375,-0.080078125,-2.502441167831421,0.4577636420726776,1.0070799589157104,100.0,180302.0,1.0
15:40:33.830758,176135.421875,170008.8125,160503.234375,198547.15625,162680.921875,163580.984375,686723.75,160118.78125,-0.06005859375,1.01123046875,-0.0830078125,-2.593993902206421,0.5187987685203552,1.0070799589157104,100.0,180303.0,1.0
15:40:33.833257,176087.234375,169987.34375,160489.734375,198545.015625,162669.921875,163555.140625,686725.5625,160112.96875,-0.056884765625,1.009521484375,-0.080322265625,-2.716064214706421,0.6103515028953552,1.0681151151657104,100.0,180304.0,1.0
15:40:33.835755,176065.5,169970.8125,160482.3125,198570.671875,162666.96875,163538.15625,686768.4375,160138.015625,-0.0576171875,1.009765625,-0.07958984375,-2.716064214706421,0.5798339247703552,1.0070799589157104,100.0,180305.0,1.0
15:40:33.838827,176124.515625,169988.0625,160494.734375,198567.359375,162676.546875,163556.84375,686693.8125,160130.140625,-0.056396484375,1.008056640625,-0.079833984375,-2.716064214706421,0.6103515028953552,0.9460448622703552,100.0,180306.0,1.0
15:40:33.838856,176156.15625,170011.21875,160512.625,198557.265625,162690.3125,163580.71875,686719.5625,160120.65625,-0.055908203125,1.005126953125,-0.079833984375,-2.685546636581421,0.6713866591453552,0.9765624403953552,100.0,180307.0,1.0
15:40:33.840750,176102.609375,169998.703125,160506.359375,198553.59375,162685.125,163569.359375,686702.8125,160124.421875,-0.057373046875,1.00439453125,-0.078857421875,-2.777099370956421,0.6713866591453552,1.0375975370407104,100.0,180308.0,1.0
15:40:33.843332,176077.75,169981.625,160496.171875,198574.25,162679.40625,163548.96875,686770.875,160140.6875,-0.0576171875,1.0029296875,-0.080078125,-2.716064214706421,0.7629393935203552,0.9765624403953552,100.0,180309.0,1.0
15:40:33.846377,176130.0625,169999.859375,160513.609375,198591.140625,162694.15625,163568.203125,686687.4375,160153.296875,-0.05810546875,1.001953125,-0.07763671875,-2.746581792831421,0.6103515028953552,1.0681151151657104,100.0,180310.0,1.0
15:40:33.846399,176173.859375,170011.046875,160522.71875,198582.109375,162701.125,163580.984375,686719.1875,160144.4375,-0.059814453125,1.002685546875,-0.0791015625,-2.777099370956421,0.6713866591453552,0.8544921278953552,100.0,180311.0,1.0
15:40:33.848842,176118.609375,170010.0625,160518.609375,198567.453125,162698.359375,163579.734375,686693.375,160145.703125,-0.060546875,1.004150390625,-0.079345703125,-2.777099370956421,0.6713866591453552,0.8544921278953552,100.0,180312.0,1.0
15:40:33.848863,176079.09375,169983.328125,160493.671875,198568.890625,162680.296875,163549.953125,686772.5625,160138.71875,-0.0634765625,1.0068359375,-0.078369140625,-2.624511480331421,0.6408690810203552,0.7324218153953552,100.0,180313.0,1.0
15:40:33.853321,176089.90625,169977.875,160485.0,198550.734375,162670.015625,163545.484375,686681.625,160119.953125,-0.0654296875,1.006591796875,-0.077880859375,-2.563476324081421,0.6408690810203552,0.7629393935203552,100.0,180314.0,1.0
15:40:33.856398,176157.0625,169990.84375,160500.640625,198555.65625,162681.453125,163560.859375,686714.125,160123.34375,-0.0625,1.008544921875,-0.07958984375,-2.471923589706421,0.6103515028953552,0.8544921278953552,100.0,180315.0,1.0
15:40:33.856428,176112.625,169996.921875,160503.5,198545.546875,162683.875,163566.3125,686695.0625,160123.703125,-0.062255859375,1.008056640625,-0.0810546875,-2.563476324081421,0.4882812201976776,0.8239745497703552,100.0,180316.0,1.0
15:40:33.858879,176082.9375,169978.140625,160490.625,198562.359375,162675.203125,163543.703125,686782.5,160131.84375,-0.0625,1.00830078125,-0.07958984375,-2.502441167831421,0.3356933295726776,0.7629393935203552,100.0,180317.0,1.0
15:40:33.858907,176087.859375,169980.640625,160491.34375,198565.9375,162675.375,163546.734375,686710.0625,160133.625,-0.0634765625,1.0068359375,-0.081787109375,-2.593993902206421,0.3356933295726776,0.8239745497703552,100.0,180318.0,1.0
15:40:33.860782,176160.1875,169992.0,160503.140625,198568.890625,162684.859375,163560.59375,686721.5,160135.59375,-0.06103515625,1.006103515625,-0.082275390625,-2.410888433456421,0.3662109076976776,0.7019042372703552,100.0,180319.0,1.0
15:40:33.877694,176124.25,169997.359375,160504.125,198548.859375,162683.96875,163567.21875,686705.25,160124.5,-0.06201171875,1.00537109375,-0.081787109375,-2.380370855331421,0.2746581733226776,0.7019042372703552,100.0,180320.0,1.0
15:40:33.877733,176084.640625,169981.0,160490.625,198557.171875,162675.921875,163549.234375,686754.3125,160130.765625,-0.062744140625,1.00439453125,-0.080078125,-2.288818120956421,0.1831054538488388,0.7019042372703552,100.0,180321.0,1.0
15:40:33.879551,176070.15625,169973.765625,160482.3125,198562.0,162670.109375,163542.625,686712.125,160134.96875,-0.063720703125,1.00341796875,-0.078125,-2.319335699081421,0.1220703050494194,0.6713866591453552,100.0,180322.0,1.0
15:40:33.882073,176141.953125,169984.578125,160489.015625,198558.875,162672.25,163553.265625,686711.25,160124.421875,-0.06396484375,1.00537109375,-0.078125,-2.258300542831421,0.0,0.5798339247703552,100.0,180323.0,1.0
15:40:33.884593,176126.296875,169996.109375,160494.921875,198542.859375,162672.96875,163563.28125,686710.5625,160113.953125,-0.0654296875,1.004150390625,-0.07861328125,-2.197265386581421,-0.03051757626235485,0.5187987685203552,100.0,180324.0,1.0
15:40:33.888279,176086.15625,169980.203125,160486.78125,198551.71875,162668.765625,163546.65625,686734.375,160124.78125,-0.064453125,1.0068359375,-0.07568359375,-2.258300542831421,-0.1831054538488388,0.3356933295726776,100.0,180325.0,1.0
15:40:33.895088,176063.890625,169969.46875,160478.65625,198551.890625,162664.921875,163536.8125,686738.1875,160125.84375,-0.0654296875,1.0087890625,-0.077392578125,-2.349853277206421,-0.1831054538488388,0.3662109076976776,100.0,180326.0,1.0
15:40:33.895112,176134.265625,169985.828125,160491.34375,198555.03125,162676.359375,163555.328125,686695.75,160126.921875,-0.0634765625,1.007080078125,-0.07666015625,-2.319335699081421,-0.3356933295726776,0.1525878757238388,100.0,180327.0,1.0
15:40:33.902811,176144.546875,170003.890625,160503.765625,198550.015625,162683.875,163571.6875,686714.5625,160123.34375,-0.06201171875,1.008056640625,-0.077880859375,-2.288818120956421,-0.4272460639476776,0.2136230319738388,100.0,180328.0,1.0
15:40:33.902839,176101.359375,169997.1875,160501.890625,198561.640625,162685.484375,163564.890625,686729.5,160140.15625,-0.060791015625,1.009521484375,-0.07861328125,-2.105712652206421,-0.5493163466453552,0.1525878757238388,100.0,180329.0,1.0
15:40:33.908492,176072.75,169977.0625,160488.03125,198566.015625,162677.25,163547.90625,686774.1875,160139.625,-0.060302734375,1.01220703125,-0.07861328125,-2.105712652206421,-0.6103515028953552,0.1831054538488388,100.0,180330.0,1.0
15:40:33.916538,176127.015625,169991.28125,160498.140625,198569.421875,162683.6875,163563.90625,686692.375,160139.53125,-0.060546875,1.0126953125,-0.078125,-2.227782964706421,-0.6713866591453552,0.3356933295726776,100.0,180331.0,1.0
15:40:33.916572,176152.671875,170001.828125,160505.5625,198564.0625,162687.71875,163574.28125,686712.9375,160134.796875,-0.05908203125,1.01025390625,-0.07470703125,-2.227782964706421,-0.7324218153953552,0.3356933295726776,100.0,180332.0,1.0
15:40:33.918993,176096.890625,169994.765625,160494.921875,198539.203125,162678.5,163564.53125,686705.375,160118.421875,-0.0576171875,1.010009765625,-0.0751953125,-2.288818120956421,-0.6408690810203552,0.3356933295726776,100.0,180333.0,1.0
15:40:33.919023,176070.0625,169976.171875,160482.578125,198560.921875,162671.796875,163543.875,686779.8125,160137.734375,-0.0595703125,1.00927734375,-0.074951171875,-2.349853277206421,-0.6408690810203552,0.5187987685203552,100.0,180334.0,1.0
15:40:33.945811,176097.515625,169973.21875,160478.296875,198551.1875,162667.59375,163546.015625,686684.0625,160121.5625,-0.058349609375,1.0126953125,-0.07470703125,-2.380370855331421,-0.5798339247703552,0.6103515028953552,100.0,180335.0,1.0
15:40:33.945869,176139.171875,169985.734375,160485.4375,198535.265625,162673.5,163559.875,686725.8125,160111.90625,-0.057861328125,1.011474609375,-0.071533203125,-2.380370855331421,-0.5798339247703552,0.5187987685203552,100.0,180336.0,1.0
15:40:33.945888,176093.046875,169991.015625,160489.015625,198532.140625,162677.25,163565.15625,686696.125,160115.203125,-0.056640625,1.01171875,-0.07373046875,-2.380370855331421,-0.6103515028953552,0.6713866591453552,100.0,180337.0,1.0
15:40:33.948349,176051.640625,169955.34375,160464.34375,198532.578125,162660.171875,163529.296875,686776.1875,160115.03125,-0.056884765625,1.010986328125,-0.074951171875,-2.441406011581421,-0.5187987685203552,0.7934569716453552,100.0,180338.0,1.0
15:40:33.950907,176071.21875,169959.640625,160466.40625,198542.15625,162657.671875,163530.375,686687.9375,160121.109375,-0.056640625,1.0107421875,-0.074462890625,-2.655029058456421,-0.5187987685203552,0.8544921278953552,100.0,180339.0,1.0
15:40:33.953299,176137.75,169974.5625,160477.578125,198542.78125,162663.84375,163544.859375,686712.3125,160110.375,-0.0556640625,1.010498046875,-0.0751953125,-2.593993902206421,-0.5187987685203552,1.0681151151657104,100.0,180340.0,1.0
15:40:33.955874,176100.109375,169990.296875,160487.40625,198536.609375,162671.71875,163560.15625,686701.75,160108.859375,-0.055908203125,1.009521484375,-0.074462890625,-2.716064214706421,-0.4577636420726776,1.0070799589157104,100.0,180341.0,1.0
15:40:33.958285,176078.109375,169988.953125,160486.96875,198562.984375,162678.0625,163557.640625,686795.375,160135.421875,-0.056396484375,1.010986328125,-0.07373046875,-2.838134527206421,-0.3356933295726776,0.9155272841453552,100.0,180342.0,1.0
15:40:33.960771,176076.328125,169979.921875,160483.75,198566.5625,162676.265625,163549.515625,686718.3125,160141.21875,-0.057861328125,1.01025390625,-0.07568359375,-2.807616949081421,-0.2441406100988388,0.7934569716453552,100.0,180343.0,1.0
15:40:33.963542,176145.515625,169988.0625,160490.265625,198553.328125,162679.484375,163562.5625,686732.4375,160122.71875,-0.058837890625,1.010498046875,-0.074951171875,-2.868652105331421,-0.3051757514476776,0.7934569716453552,100.0,180344.0,1.0
15:40:33.967784,176099.921875,169974.296875,160480.53125,198524.890625,162666.078125,163549.328125,686703.125,160102.78125,-0.0576171875,1.010498046875,-0.073486328125,-2.868652105331421,-0.3051757514476776,0.7934569716453552,100.0,180345.0,1.0
15:40:33.967830,176068.640625,169970.8125,160472.65625,198540.984375,162661.875,163539.9375,686751.5,160118.25,-0.054443359375,1.010986328125,-0.073486328125,-2.990722417831421,-0.2441406100988388,0.6713866591453552,100.0,180346.0,1.0
15:40:33.983910,176061.03125,169969.921875,160471.5,198552.25,162661.96875,163540.484375,686727.0625,160124.421875,-0.05712890625,1.00927734375,-0.074462890625,-3.021239995956421,-0.2441406100988388,0.6103515028953552,100.0,180347.0,1.0
15:40:33.983967,176122.90625,169965.0,160473.28125,198533.65625,162663.390625,163542.0,686705.0625,160107.4375,-0.05517578125,1.012451171875,-0.07421875,-3.143310308456421,-0.1831054538488388,0.3967284858226776,100.0,180348.0,1.0
15:40:33.985834,176112.890625,169983.0625,160485.984375,198528.5625,162672.703125,163558.546875,686709.25,160102.25,-0.05126953125,1.01025390625,-0.076904296875,-3.234863042831421,0.03051757626235485,0.5493163466453552,100.0,180349.0,1.0
15:40:33.988470,176087.140625,170010.0625,160492.5,198538.75,162682.703125,163572.671875,686752.75,160120.84375,-0.052734375,1.00830078125,-0.076171875,-3.326415777206421,0.0915527269244194,0.4577636420726776,100.0,180350.0,1.0
15:40:33.992024,176092.0625,170041.703125,160509.3125,198583.28125,162699.609375,163595.46875,686761.125,160159.5625,-0.052001953125,1.0078125,-0.0791015625,-3.265380620956421,0.1831054538488388,0.4272460639476776,100.0,180351.0,1.0
15:40:33.998286,176145.25,169990.75,160506.984375,198592.9375,162697.1875,163569.453125,686706.25,160158.390625,-0.052978515625,1.007568359375,-0.077392578125,-3.265380620956421,0.3051757514476776,0.5798339247703552,100.0,180352.0,1.0
15:40:34.002602,176141.40625,170002.09375,160504.671875,198551.625,162689.328125,163576.25,686713.3125,160122.8125,-0.05029296875,1.007080078125,-0.073974609375,-3.204345464706421,0.4882812201976776,0.6103515028953552,100.0,180353.0,1.0
15:40:34.002638,176112.890625,170041.796875,160515.75,198564.234375,162701.390625,163601.71875,686725.4375,160137.5625,-0.051025390625,1.00341796875,-0.072509765625,-3.112792730331421,0.6408690810203552,0.6103515028953552,100.0,180354.0,1.0
15:40:34.014718,176084.734375,170017.921875,160497.515625,198564.953125,162687.984375,163574.0,686770.875,160131.125,-0.053955078125,1.004150390625,-0.0732421875,-3.082275152206421,0.6103515028953552,0.6408690810203552,100.0,180355.0,1.0
15:40:34.019740,176121.109375,169969.28125,160493.3125,198574.0625,162684.046875,163545.3125,686694.625,160137.296875,-0.05517578125,1.003173828125,-0.07666015625,-2.990722417831421,0.6713866591453552,0.6408690810203552,100.0,180356.0,1.0
15:40:34.019783,176150.796875,170011.84375,160505.46875,198550.828125,162691.734375,163581.609375,686718.375,160124.234375,-0.055908203125,1.005126953125,-0.074951171875,-2.960204839706421,0.8544921278953552,0.7324218153953552,100.0,180357.0,1.0
15:40:34.019942,176099.390625,170014.96875,160497.953125,198539.734375,162683.78125,163575.078125,686697.8125,160123.4375,-0.055908203125,1.00439453125,-0.073486328125,-2.838134527206421,0.8239745497703552,0.9155272841453552,100.0,180358.0,1.0
15:40:34.022133,176062.203125,169965.171875,160472.484375,198549.03125,162663.578125,163532.171875,686776.0,160119.765625,-0.05615234375,1.005126953125,-0.07421875,-2.807616949081421,0.8239745497703552,0.8850097060203552,100.0,180359.0,1.0
15:40:34.025830,176089.828125,169969.5625,160474.625,198543.578125,162664.65625,163545.75,686679.875,160117.09375,-0.056884765625,1.003173828125,-0.0751953125,-2.624511480331421,0.8850097060203552,0.7934569716453552,100.0,180360.0,1.0
15:40:34.038358,176150.890625,169996.46875,160496.890625,198553.859375,162681.1875,163570.78125,686726.8125,160121.5625,-0.059814453125,1.00341796875,-0.073486328125,-2.532958745956421,0.8544921278953552,0.9155272841453552,100.0,180361.0,1.0
15:40:34.049507,176109.578125,170017.296875,160505.5625,198545.375,162688.25,163584.921875,686685.5625,160129.0625,-0.060302734375,1.00439453125,-0.07177734375,-2.441406011581421,0.8544921278953552,0.9460448622703552,100.0,180362.0,1.0
15:40:34.049540,176089.28125,170008.984375,160499.75,198575.859375,162689.6875,163565.6875,686768.9375,160161.703125,-0.06005859375,1.004638671875,-0.072265625,-2.288818120956421,0.8239745497703552,0.8850097060203552,100.0,180363.0,1.0
15:40:34.049549,176104.21875,170005.953125,160497.78125,198572.8125,162684.5,163563.640625,686686.375,160131.296875,-0.060546875,1.00634765625,-0.071044921875,-2.197265386581421,0.8239745497703552,0.7934569716453552,100.0,180364.0,1.0
15:40:34.053296,176176.375,170036.25,160521.109375,198593.46875,162705.0625,163601.28125,686719.0,160153.921875,-0.06298828125,1.007080078125,-0.070556640625,-2.166747808456421,0.7934569716453552,0.7019042372703552,100.0,180365.0,1.0
15:40:34.053373,176129.609375,170043.40625,160521.203125,198566.46875,162704.4375,163617.546875,686698.3125,160138.71875,-0.062255859375,1.005615234375,-0.0693359375,-2.197265386581421,0.7019042372703552,0.6713866591453552,100.0,180366.0,1.0
15:40:34.053399,176094.109375,170007.640625,160502.515625,198561.1875,162692.28125,163582.234375,686786.1875,160130.859375,-0.0634765625,1.00341796875,-0.071533203125,-2.105712652206421,0.6408690810203552,0.6103515028953552,100.0,180367.0,1.0
15:40:34.056558,176085.359375,169988.953125,160492.15625,198563.703125,162680.75,163555.40625,686704.0,160133.984375,-0.0625,1.004150390625,-0.070556640625,-2.014159917831421,0.7324218153953552,0.6103515028953552,100.0,180368.0,1.0
15:40:34.064623,176156.25,169995.21875,160500.375,198563.703125,162686.828125,163559.25,686713.5625,160138.015625,-0.062744140625,1.005859375,-0.06982421875,-1.9531248807907104,0.6103515028953552,0.5493163466453552,100.0,180369.0,1.0
15:40:34.067045,176118.703125,169989.140625,160498.140625,198540.8125,162682.625,163564.53125,686694.875,160118.703125,-0.062744140625,1.00439453125,-0.070068359375,-1.8920897245407104,0.5798339247703552,0.6408690810203552,100.0,180370.0,1.0
15:40:34.069665,176095.1875,170024.453125,160501.984375,198548.140625,162690.9375,163584.734375,686735.375,160123.609375,-0.06103515625,1.00634765625,-0.072021484375,-1.7395018339157104,0.4882812201976776,0.7019042372703552,100.0,180371.0,1.0
15:40:34.082020,176102.875,170068.359375,160518.25,198571.65625,162707.390625,163616.390625,686718.375,160144.796875,-0.06005859375,1.005126953125,-0.0712890625,-1.6784666776657104,0.4272460639476776,0.7324218153953552,100.0,180372.0,1.0
15:40:34.098465,176166.984375,170026.515625,160513.96875,198574.6875,162698.890625,163589.296875,686714.0,160139.34375,-0.060791015625,1.0078125,-0.072509765625,-1.6479490995407104,0.3662109076976776,0.7324218153953552,100.0,180373.0,1.0
15:40:34.098552,176141.5,169993.25,160506.359375,198568.96875,162688.34375,163572.578125,686718.875,160132.734375,-0.06298828125,1.0068359375,-0.070556640625,-1.5869139432907104,0.2441406100988388,0.8239745497703552,100.0,180374.0,1.0
15:40:34.098579,176107.078125,170020.34375,160509.21875,198567.1875,162695.859375,163586.4375,686725.8125,160152.765625,-0.062744140625,1.005126953125,-0.073486328125,-1.5869139432907104,0.1831054538488388,0.7934569716453552,100.0,180375.0,1.0
15:40:34.100881,176083.390625,170026.515625,160500.109375,198559.5,162691.109375,163596.359375,686740.75,160132.28125,-0.06201171875,1.00341796875,-0.07080078125,-1.5258787870407104,0.2136230319738388,0.8239745497703552,100.0,180376.0,1.0
15:40:34.103376,176153.75,170034.015625,160517.1875,198578.09375,162705.421875,163602.078125,686687.125,160148.734375,-0.064453125,1.001953125,-0.072998046875,-1.4648436307907104,0.0915527269244194,0.9460448622703552,100.0,180377.0,1.0
15:40:34.108481,176160.640625,170041.171875,160522.90625,198570.5,162706.84375,163607.453125,686697.125,160134.703125,-0.06298828125,1.0029296875,-0.072265625,-1.3427733182907104,-0.0610351525247097,0.9765624403953552,100.0,180378.0,1.0
15:40:34.111023,176095.09375,169987.96875,160497.421875,198557.078125,162686.546875,163568.109375,686726.25,160128.0,-0.06201171875,1.00244140625,-0.070556640625,-1.2512205839157104,-0.0610351525247097,1.1291502714157104,100.0,180379.0,1.0
15:40:34.113355,176059.515625,169959.09375,160476.40625,198553.59375,162671.796875,163529.390625,686777.3125,160127.71875,-0.061767578125,1.002197265625,-0.072509765625,-1.2512205839157104,-0.1525878757238388,1.0986326932907104,100.0,180380.0,1.0
15:40:34.116740,176138.28125,170045.28125,160514.046875,198574.96875,162702.109375,163593.671875,686694.5,160144.0,-0.06201171875,1.00341796875,-0.0712890625,-1.1291502714157104,-0.2746581733226776,0.9765624403953552,100.0,180381.0,1.0
15:40:34.116785,176206.3125,170145.0625,160556.4375,198580.328125,162736.4375,163682.8125,686725.4375,160149.71875,-0.06396484375,1.005615234375,-0.07177734375,-1.0375975370407104,-0.2136230319738388,0.7629393935203552,100.0,180382.0,1.0
15:40:34.118481,176120.046875,170043.046875,160516.015625,198552.25,162703.1875,163616.296875,686706.5,160135.328125,-0.063232421875,1.004638671875,-0.072998046875,-1.0681151151657104,-0.2746581733226776,0.7019042372703552,100.0,180383.0,1.0
15:40:34.149091,176081.78125,169990.921875,160491.25,198566.921875,162684.5,163561.484375,686775.1875,160137.203125,-0.0634765625,1.004150390625,-0.07373046875,-1.0375975370407104,-0.4272460639476776,0.5798339247703552,100.0,180384.0,1.0
15:40:34.167777,176107.796875,169986.546875,160493.84375,198577.46875,162688.25,163562.921875,686689.9375,160145.515625,-0.06298828125,1.005859375,-0.075927734375,-0.9765624403953552,-0.4577636420726776,0.5493163466453552,100.0,180385.0,1.0
15:40:34.168056,176152.9375,169988.78125,160500.640625,198572.375,162691.03125,163560.234375,686737.5625,160143.640625,-0.061767578125,1.006591796875,-0.07470703125,-0.9155272841453552,-0.5493163466453552,0.5493163466453552,100.0,180386.0,1.0
15:40:34.171070,176112.796875,170040.640625,160509.84375,198548.234375,162696.390625,163599.21875,686700.6875,160127.015625,-0.060791015625,1.0078125,-0.076416015625,-0.8850097060203552,-0.5798339247703552,0.4272460639476776,100.0,180387.0,1.0
15:40:34.171170,176089.375,170040.015625,160503.5,198557.34375,162696.390625,163597.796875,686776.875,160130.59375,-0.06005859375,1.009765625,-0.073974609375,-0.7629393935203552,-0.7324218153953552,0.4577636420726776,100.0,180388.0,1.0
15:40:34.171194,176096.265625,170005.859375,160497.0625,198564.328125,162690.21875,163580.890625,686693.0,160134.4375,-0.060546875,1.0087890625,-0.07421875,-0.8239745497703552,-0.7019042372703552,0.2746581733226776,100.0,180389.0,1.0
15:40:34.174641,176193.09375,170069.0625,160533.8125,198592.046875,162715.34375,163617.734375,686745.9375,160150.796875,-0.05908203125,1.008544921875,-0.070556640625,-0.8239745497703552,-0.7324218153953552,0.3662109076976776,100.0,180390.0,1.0
15:40:34.174697,176144.09375,170097.046875,160531.40625,198558.6875,162713.640625,163640.171875,686712.5625,160132.640625,-0.058837890625,1.009033203125,-0.073486328125,-0.7324218153953552,-0.7629393935203552,0.4882812201976776,100.0,180391.0,1.0
15:40:34.174717,176077.75,169992.984375,160488.296875,198550.90625,162683.6875,163563.015625,686759.625,160128.4375,-0.0576171875,1.007080078125,-0.075927734375,-0.7629393935203552,-0.7934569716453552,0.4577636420726776,100.0,180392.0,1.0
15:40:34.177934,176076.140625,169980.640625,160489.734375,198565.046875,162687.09375,163564.53125,686712.5625,160149.1875,-0.05712890625,1.009521484375,-0.079345703125,-0.7934569716453552,-0.7324218153953552,0.5798339247703552,100.0,180393.0,1.0
15:40:34.177971,176155.171875,170023.921875,160504.671875,198564.953125,162694.421875,163588.484375,686730.8125,160125.484375,-0.05810546875,1.009765625,-0.074462890625,-0.6713866591453552,-0.7934569716453552,0.6408690810203552,100.0,180394.0,1.0
15:40:34.179976,176137.484375,170052.4375,160520.140625,198556.1875,162705.59375,163606.109375,686722.6875,160124.15625,-0.0576171875,1.00927734375,-0.076416015625,-0.7934569716453552,-0.7324218153953552,0.6713866591453552,100.0,180395.0,1.0
15:40:34.182132,176088.125,169995.84375,160500.109375,198554.75,162695.765625,163557.921875,686766.875,160133.09375,-0.058837890625,1.008544921875,-0.076904296875,-0.7934569716453552,-0.7019042372703552,0.5798339247703552,100.0,180396.0,1.0
15:40:34.184709,176071.5,169991.734375,160496.078125,198566.5625,162695.578125,163571.328125,686744.5,160144.4375,-0.05810546875,1.008056640625,-0.075927734375,-0.7629393935203552,-0.7934569716453552,0.6103515028953552,100.0,180397.0,1.0
15:40:34.187116,176149.015625,170009.078125,160506.640625,198573.09375,162699.15625,163583.125,686710.25,160143.375,-0.0556640625,1.009033203125,-0.075439453125,-0.7629393935203552,-0.7934569716453552,0.6408690810203552,100.0,180398.0,1.0
15:40:34.189729,176143.734375,170022.9375,160513.515625,198553.5,162698.4375,163591.625,686716.1875,160121.734375,-0.05517578125,1.009765625,-0.072509765625,-0.7629393935203552,-0.7324218153953552,0.6408690810203552,100.0,180399.0,1.0
15:40:34.192141,176085.796875,169993.25,160492.953125,198550.90625,162684.859375,163565.6875,686728.6875,160125.046875,-0.055419921875,1.009033203125,-0.075927734375,-0.7629393935203552,-0.7019042372703552,0.5798339247703552,100.0,180400.0,1.0
15:40:34.195560,176078.015625,170033.03125,160501.265625,198575.859375,162695.765625,163594.296875,686738.0,160144.09375,-0.058349609375,1.009765625,-0.07373046875,-0.9460448622703552,-0.6713866591453552,0.5798339247703552,100.0,180401.0,1.0
15:40:34.195630,176119.78125,169992.265625,160490.890625,198558.15625,162686.828125,163565.25,686700.3125,160129.96875,-0.05712890625,1.01123046875,-0.0732421875,-0.9765624403953552,-0.6408690810203552,0.6103515028953552,100.0,180402.0,1.0
15:40:34.199685,176136.578125,170009.34375,160503.140625,198554.484375,162692.546875,163580.890625,686729.6875,160127.015625,-0.057373046875,1.011962890625,-0.0732421875,-0.9765624403953552,-0.6408690810203552,0.6103515028953552,100.0,180403.0,1.0
15:40:34.207017,176088.921875,170016.578125,160494.296875,198543.3125,162684.59375,163581.078125,686715.375,160124.59375,-0.05908203125,1.009765625,-0.07470703125,-1.1291502714157104,-0.6103515028953552,0.6103515028953552,100.0,180404.0,1.0
15:40:34.214602,176043.78125,169956.328125,160464.96875,198542.15625,162663.578125,163537.796875,686770.4375,160117.265625,-0.056396484375,1.01123046875,-0.07275390625,-1.1596678495407104,-0.4577636420726776,0.5798339247703552,100.0,180405.0,1.0
15:40:34.214655,176101.0,169980.546875,160479.453125,198553.78125,162672.703125,163552.90625,686687.5625,160123.25,-0.055908203125,1.011962890625,-0.07373046875,-1.2817381620407104,-0.4272460639476776,0.5493163466453552,100.0,180406.0,1.0
15:40:34.214669,176151.875,170033.578125,160504.84375,198565.046875,162691.03125,163601.09375,686718.25,160134.078125,-0.052734375,1.010009765625,-0.073486328125,-1.4953612089157104,-0.4272460639476776,0.6103515028953552,100.0,180407.0,1.0
15:40:34.217101,176083.75,169998.875,160483.125,198532.5,162672.78125,163566.765625,686699.5625,160108.859375,-0.053466796875,1.011474609375,-0.077880859375,-1.5258787870407104,-0.3356933295726776,0.5798339247703552,100.0,180408.0,1.0
15:40:34.223480,176051.46875,169951.3125,160465.328125,198549.921875,162662.234375,163520.09375,686784.3125,160124.859375,-0.0546875,1.00927734375,-0.07666015625,-1.6784666776657104,-0.2746581733226776,0.3967284858226776,100.0,180409.0,1.0
15:40:34.230458,176100.28125,170004.96875,160489.28125,198558.15625,162680.75,163568.375,686685.6875,160125.578125,-0.056640625,1.00927734375,-0.076416015625,-1.7395018339157104,-0.1831054538488388,0.4577636420726776,100.0,180410.0,1.0
15:40:34.230515,176158.75,170032.328125,160502.875,198553.0625,162690.046875,163596.0,686702.6875,160119.40625,-0.05810546875,1.008544921875,-0.076904296875,-1.7395018339157104,-0.1220703050494194,0.5493163466453552,100.0,180411.0,1.0
15:40:34.235879,176113.875,170043.40625,160508.59375,198551.1875,162696.203125,163618.0,686696.3125,160125.3125,-0.05712890625,1.009521484375,-0.077392578125,-1.8615721464157104,-0.1220703050494194,0.4272460639476776,100.0,180412.0,1.0
15:40:34.244046,176076.6875,169987.171875,160486.78125,198564.328125,162681.375,163558.546875,686785.75,160132.734375,-0.05615234375,1.010009765625,-0.076416015625,-1.8310545682907104,-0.0915527269244194,0.4577636420726776,100.0,180413.0,1.0
15:40:34.244073,176071.3125,169957.578125,160471.140625,198550.640625,162665.546875,163525.015625,686694.4375,160118.15625,-0.05615234375,1.009521484375,-0.077880859375,-1.8310545682907104,0.0,0.4272460639476776,100.0,180414.0,1.0
15:40:34.250552,176155.0,170010.421875,160497.328125,198562.453125,162684.859375,163573.46875,686710.8125,160123.34375,-0.053955078125,1.00927734375,-0.07763671875,-1.8920897245407104,0.03051757626235485,0.5798339247703552,100.0,180415.0,1.0
15:40:34.250592,176102.96875,169991.1875,160488.75,198540.359375,162677.171875,163566.234375,686691.75,160112.703125,-0.054931640625,1.0078125,-0.073486328125,-1.8615721464157104,0.0915527269244194,0.6408690810203552,100.0,180416.0,1.0
15:40:34.255818,176071.765625,169992.359375,160479.1875,198551.359375,162673.5,163556.125,686750.3125,160125.578125,-0.053466796875,1.00634765625,-0.073974609375,-1.8920897245407104,-0.0610351525247097,0.6103515028953552,100.0,180417.0,1.0
15:40:34.264026,176064.25,169983.328125,160472.65625,198552.609375,162667.421875,163544.953125,686700.5,160120.65625,-0.055908203125,1.00537109375,-0.072021484375,-1.7700194120407104,0.0915527269244194,0.5493163466453552,100.0,180418.0,1.0
15:40:34.264062,176147.21875,169997.8125,160490.8125,198561.375,162681.453125,163565.421875,686709.0,160127.375,-0.057373046875,1.00634765625,-0.07421875,-1.8920897245407104,0.1525878757238388,0.4882812201976776,100.0,180419.0,1.0
15:40:34.270141,176112.890625,169985.109375,160489.640625,198541.609375,162679.140625,163558.71875,686695.25,160117.171875,-0.057373046875,1.005859375,-0.072998046875,-1.8310545682907104,0.2136230319738388,0.4882812201976776,100.0,180420.0,1.0
15:40:34.270162,176078.015625,169978.859375,160485.796875,198558.0625,162681.546875,163552.90625,686743.875,160135.953125,-0.0576171875,1.007568359375,-0.074951171875,-1.8310545682907104,0.2746581733226776,0.4577636420726776,100.0,180421.0,1.0
15:40:34.272189,176062.546875,169985.296875,160481.953125,198556.90625,162680.109375,163552.1875,686729.3125,160130.140625,-0.059326171875,1.008056640625,-0.078125,-1.7700194120407104,0.3356933295726776,0.3967284858226776,100.0,180422.0,1.0
15:40:34.283405,176138.734375,170002.734375,160496.984375,198563.515625,162691.03125,163570.34375,686704.125,160132.828125,-0.059326171875,1.0087890625,-0.0751953125,-1.7395018339157104,0.3967284858226776,0.3051757514476776,100.0,180423.0,1.0
15:40:34.287612,176136.046875,170005.234375,160504.3125,198559.9375,162692.28125,163573.03125,686715.6875,160130.234375,-0.06005859375,1.0068359375,-0.076416015625,-1.7089842557907104,0.3356933295726776,0.3662109076976776,100.0,180424.0,1.0
15:40:34.287640,176093.046875,170013.8125,160496.625,198558.328125,162686.828125,163574.359375,686750.125,160128.890625,-0.06005859375,1.005615234375,-0.074462890625,-1.7395018339157104,0.2746581733226776,0.4272460639476776,100.0,180425.0,1.0
15:40:34.293852,176060.59375,169985.296875,160476.5,198556.015625,162672.25,163548.53125,686767.75,160125.3125,-0.060546875,1.005859375,-0.072509765625,-1.6784666776657104,0.3051757514476776,0.3051757514476776,100.0,180426.0,1.0
15:40:34.293880,176125.3125,170017.5625,160492.15625,198554.75,162683.25,163575.796875,686698.4375,160124.15625,-0.0576171875,1.006591796875,-0.07421875,-1.6479490995407104,0.3356933295726776,0.3356933295726776,100.0,180427.0,1.0
15:40:34.295766,176139.0,170011.84375,160497.0625,198542.515625,162685.03125,163576.875,686713.375,160113.875,-0.05810546875,1.006591796875,-0.074462890625,-1.7089842557907104,0.3051757514476776,0.3051757514476776,100.0,180428.0,1.0
15:40:34.332059,176078.375,169972.59375,160480.609375,198538.3125,162673.5,163548.53125,686717.75,160117.0,-0.05810546875,1.007568359375,-0.07421875,-1.5563963651657104,0.2441406100988388,0.4577636420726776,100.0,180429.0,1.0
15:40:34.335222,176055.578125,169968.84375,160472.65625,198553.953125,162670.375,163538.421875,686781.25,160128.625,-0.06005859375,1.00830078125,-0.0751953125,-1.4953612089157104,0.2441406100988388,0.3967284858226776,100.0,180430.0,1.0
15:40:34.335254,176105.734375,169990.03125,160485.890625,198562.71875,162679.671875,163557.5625,686692.3125,160135.59375,-0.060791015625,1.0087890625,-0.075927734375,-1.4648436307907104,0.3662109076976776,0.4272460639476776,100.0,180431.0,1.0
15:40:34.337064,176150.265625,170007.28125,160499.125,198561.734375,162686.015625,163574.1875,686724.9375,160125.40625,-0.06005859375,1.0087890625,-0.073974609375,-1.4953612089157104,0.2746581733226776,0.5187987685203552,100.0,180432.0,1.0
15:40:34.339689,176102.515625,170010.140625,160499.296875,198549.75,162686.375,163575.609375,686703.1875,160124.78125,-0.061767578125,1.008056640625,-0.075927734375,-1.5258787870407104,0.2746581733226776,0.5187987685203552,100.0,180433.0,1.0
15:40:34.342086,176075.25,169995.671875,160487.765625,198564.765625,162679.671875,163559.875,686769.625,160130.765625,-0.061279296875,1.00732421875,-0.076171875,-1.5258787870407104,0.2441406100988388,0.5493163466453552,100.0,180434.0,1.0
15:40:34.344810,176101.984375,170005.953125,160492.15625,198565.046875,162683.875,163572.3125,686680.875,160131.84375,-0.0625,1.0087890625,-0.074462890625,-1.5563963651657104,0.1525878757238388,0.5798339247703552,100.0,180435.0,1.0
15:40:34.347122,176150.53125,169994.328125,160493.3125,198551.71875,162682.0,163562.5625,686719.75,160117.53125,-0.06298828125,1.008056640625,-0.07421875,-1.5563963651657104,0.0915527269244194,0.4882812201976776,100.0,180436.0,1.0
15:40:34.349605,176105.46875,170002.453125,160495.640625,198543.140625,162681.71875,163570.4375,686693.8125,160116.015625,-0.061279296875,1.00830078125,-0.07666015625,-1.6784666776657104,0.0915527269244194,0.4882812201976776,100.0,180437.0,1.0
15:40:34.354746,176076.859375,169986.1875,160485.625,198562.09375,162679.21875,163551.5625,686774.1875,160132.28125,-0.062255859375,1.00732421875,-0.075439453125,-1.5869139432907104,0.0,0.5798339247703552,100.0,180438.0,1.0
15:40:34.357154,176085.4375,169997.265625,160488.65625,198560.03125,162681.453125,163561.578125,686694.875,160127.8125,-0.061767578125,1.009521484375,-0.076904296875,-1.5869139432907104,-0.03051757626235485,0.5798339247703552,100.0,180439.0,1.0
15:40:34.359813,176157.421875,170005.046875,160502.078125,198569.234375,162692.0,163574.640625,686726.25,160133.71875,-0.0615234375,1.010986328125,-0.074951171875,-1.5869139432907104,-0.0915527269244194,0.5493163466453552,100.0,180440.0,1.0
15:40:34.362782,176116.109375,170008.0,160505.203125,198554.578125,162692.1875,163579.8125,686705.8125,160131.65625,-0.059326171875,1.008056640625,-0.07666015625,-1.5869139432907104,0.0,0.5187987685203552,100.0,180441.0,1.0
15:40:34.362875,176089.203125,169997.546875,160499.484375,198577.015625,162690.390625,163562.828125,686770.0,160150.078125,-0.06005859375,1.009765625,-0.072998046875,-1.6479490995407104,-0.0915527269244194,0.5493163466453552,100.0,180442.0,1.0
15:40:34.364759,176081.78125,169990.296875,160491.34375,198573.625,162681.71875,163553.171875,686721.5,160143.8125,-0.059814453125,1.008544921875,-0.07275390625,-1.6479490995407104,-0.1220703050494194,0.7629393935203552,100.0,180443.0,1.0
15:40:34.367103,176160.90625,170002.640625,160504.75,198580.859375,162688.4375,163565.96875,686700.875,160136.75,-0.05908203125,1.00830078125,-0.07470703125,-1.7395018339157104,-0.1220703050494194,0.6103515028953552,100.0,180444.0,1.0
15:40:34.371523,176135.15625,170012.203125,160511.375,198559.859375,162694.421875,163577.140625,686694.4375,160131.296875,-0.058837890625,1.009521484375,-0.076171875,-1.7089842557907104,-0.1220703050494194,0.5798339247703552,100.0,180445.0,1.0
15:40:34.371596,176095.1875,169997.0,160500.46875,198567.625,162691.921875,163561.21875,686756.0625,160145.078125,-0.058837890625,1.008544921875,-0.07568359375,-1.7395018339157104,-0.2746581733226776,0.7019042372703552,100.0,180446.0,1.0
15:40:34.378923,176071.859375,169982.875,160486.25,198573.265625,162681.28125,163547.8125,686734.125,160145.34375,-0.05859375,1.01123046875,-0.07568359375,-1.8310545682907104,-0.2136230319738388,0.6408690810203552,100.0,180447.0,1.0
15:40:34.378961,176137.390625,169991.546875,160489.375,198567.546875,162682.078125,163559.4375,686684.3125,160134.078125,-0.05859375,1.01171875,-0.075439453125,-1.8615721464157104,-0.2441406100988388,0.5187987685203552,100.0,180448.0,1.0
15:40:34.384689,176122.71875,169992.71875,160482.9375,198535.796875,162671.4375,163560.59375,686691.25,160109.21875,-0.05810546875,1.01025390625,-0.078369140625,-1.9226073026657104,-0.3051757514476776,0.5187987685203552,100.0,180449.0,1.0
15:40:34.389242,176070.59375,169975.375,160468.015625,198531.0625,162660.09375,163542.0,686742.0,160108.421875,-0.059326171875,1.010009765625,-0.07421875,-1.9836424589157104,-0.2441406100988388,0.5493163466453552,100.0,180450.0,1.0
15:40:34.389270,176050.21875,169966.25,160463.890625,198547.34375,162662.0625,163533.15625,686763.4375,160126.03125,-0.0576171875,1.00732421875,-0.0771484375,-2.044677495956421,-0.1831054538488388,0.4882812201976776,100.0,180451.0,1.0
15:40:34.398294,176116.28125,169986.1875,160481.953125,198560.296875,162676.546875,163555.234375,686691.75,160137.828125,-0.054931640625,1.008544921875,-0.078369140625,-2.014159917831421,0.0,0.5493163466453552,100.0,180452.0,1.0
15:40:34.401363,176136.578125,169994.765625,160490.984375,198566.015625,162678.328125,163562.5625,686712.125,160137.109375,-0.055419921875,1.0068359375,-0.074951171875,-1.9836424589157104,-0.03051757626235485,0.4882812201976776,100.0,180453.0,1.0
15:40:34.401390,176086.609375,169991.46875,160483.203125,198554.84375,162671.171875,163557.203125,686706.4375,160127.453125,-0.05615234375,1.008056640625,-0.07421875,-2.075195074081421,0.0610351525247097,0.3662109076976776,100.0,180454.0,1.0
15:40:34.430761,176057.1875,169972.59375,160468.546875,198553.859375,162663.578125,163537.4375,686771.5,160126.296875,-0.057861328125,1.00830078125,-0.074462890625,-1.9836424589157104,0.0610351525247097,0.3967284858226776,100.0,180455.0,1.0
15:40:34.430807,176110.828125,169998.796875,160489.015625,198570.5,162682.984375,163564.625,686686.3125,160133.53125,-0.056396484375,1.007568359375,-0.073486328125,-1.9836424589157104,0.0610351525247097,0.4272460639476776,100.0,180456.0,1.0
15:40:34.430821,176146.421875,170000.9375,160495.640625,198553.421875,162686.28125,163571.328125,686711.3125,160121.734375,-0.055419921875,1.005859375,-0.07421875,-1.9836424589157104,0.0915527269244194,0.5187987685203552,100.0,180457.0,1.0
15:40:34.433296,176100.46875,170003.796875,160498.140625,198548.953125,162688.34375,163572.578125,686712.3125,160130.40625,-0.056396484375,1.005615234375,-0.076904296875,-1.9836424589157104,0.1220703050494194,0.4882812201976776,100.0,180458.0,1.0
15:40:34.438226,176069.265625,169986.71875,160481.859375,198557.53125,162679.046875,163551.03125,686802.625,160128.0,-0.058837890625,1.00390625,-0.074462890625,-1.9836424589157104,0.2441406100988388,0.3662109076976776,100.0,180459.0,1.0
15:40:34.438255,176103.859375,170004.421875,160500.28125,198576.125,162695.859375,163572.046875,686702.125,160151.328125,-0.057373046875,1.006591796875,-0.076904296875,-1.9226073026657104,0.3051757514476776,0.3356933295726776,100.0,180460.0,1.0
15:40:34.438264,176168.765625,170027.140625,160517.625,198575.765625,162708.90625,163592.15625,686721.5,160156.875,-0.056884765625,1.005126953125,-0.076171875,-1.9226073026657104,0.3662109076976776,0.3662109076976776,100.0,180461.0,1.0
15:40:34.441362,176112.0,170013.546875,160506.28125,198558.328125,162693.703125,163580.171875,686698.375,160130.5,-0.05712890625,1.005126953125,-0.0712890625,-1.8920897245407104,0.3051757514476776,0.3356933295726776,100.0,180462.0,1.0
15:40:34.441384,176086.6875,169991.640625,160494.390625,198585.515625,162686.375,163555.40625,686770.875,160156.34375,-0.058837890625,1.00439453125,-0.073486328125,-1.8310545682907104,0.3051757514476776,0.4272460639476776,100.0,180463.0,1.0
15:40:34.443220,176068.984375,169973.21875,160470.15625,198539.734375,162663.671875,163540.484375,686694.25,160103.40625,-0.058349609375,1.0048828125,-0.073486328125,-1.7089842557907104,0.3662109076976776,0.5187987685203552,100.0,180464.0,1.0
15:40:34.450842,176149.71875,169994.234375,160493.484375,198560.03125,162683.6875,163561.21875,686720.5625,160118.15625,-0.057373046875,1.00732421875,-0.0732421875,-1.7089842557907104,0.4272460639476776,0.5187987685203552,100.0,180465.0,1.0
15:40:34.459136,176120.484375,170010.59375,160506.09375,198549.125,162694.0625,163576.59375,686703.5625,160124.859375,-0.0595703125,1.007080078125,-0.072265625,-1.6174315214157104,0.5187987685203552,0.5493163466453552,100.0,180466.0,1.0
15:40:34.459161,176089.109375,169994.5,160499.390625,198569.875,162694.328125,163559.609375,686750.75,160147.390625,-0.0595703125,1.010009765625,-0.072021484375,-1.6784666776657104,0.4577636420726776,0.4882812201976776,100.0,180467.0,1.0
15:40:34.459169,176067.46875,169977.96875,160480.890625,198550.015625,162676.453125,163542.625,686698.4375,160123.078125,-0.05810546875,1.00927734375,-0.072998046875,-1.7395018339157104,0.4272460639476776,0.5798339247703552,100.0,180468.0,1.0
15:40:34.460922,176147.21875,169994.765625,160497.0625,198567.90625,162687.625,163560.78125,686692.3125,160132.90625,-0.05908203125,1.01025390625,-0.070556640625,-1.7700194120407104,0.3967284858226776,0.4272460639476776,100.0,180469.0,1.0
15:40:34.464648,176139.265625,170017.125,160512.890625,198577.90625,162697.640625,163583.75,686695.0625,160139.890625,-0.06005859375,1.009033203125,-0.072021484375,-1.7089842557907104,0.4272460639476776,0.4882812201976776,100.0,180470.0,1.0
15:40:34.480275,176104.03125,170009.703125,160508.15625,198590.703125,162699.875,163575.078125,686739.0625,160164.65625,-0.06201171875,1.010009765625,-0.071533203125,-1.7395018339157104,0.3967284858226776,0.6103515028953552,100.0,180471.0,1.0
15:40:34.480307,176068.09375,169976.171875,160485.625,198565.84375,162682.53125,163547.625,686727.1875,160149.1875,-0.061279296875,1.009033203125,-0.070068359375,-1.8005369901657104,0.4272460639476776,0.7934569716453552,100.0,180472.0,1.0
15:40:34.482719,176141.046875,169995.84375,160501.890625,198577.015625,162694.59375,163566.59375,686700.8125,160155.53125,-0.06201171875,1.009765625,-0.072021484375,-1.7089842557907104,0.4272460639476776,0.7934569716453552,100.0,180473.0,1.0
15:40:34.482744,176141.5,170014.796875,160510.03125,198570.578125,162698.265625,163583.3125,686714.8125,160142.5625,-0.060791015625,1.007568359375,-0.07275390625,-1.7089842557907104,0.2746581733226776,0.9765624403953552,100.0,180474.0,1.0
15:40:34.485165,176082.40625,169993.515625,160485.890625,198545.015625,162677.609375,163561.484375,686730.9375,160114.9375,-0.06005859375,1.00830078125,-0.072021484375,-1.7089842557907104,0.2441406100988388,0.8544921278953552,100.0,180475.0,1.0
15:40:34.512230,176052.265625,169971.96875,160469.34375,198546.53125,162666.4375,163537.171875,686758.1875,160121.015625,-0.0595703125,1.0087890625,-0.070068359375,-1.7395018339157104,0.2441406100988388,0.9460448622703552,100.0,180476.0,1.0
15:40:34.543848,176106.71875,169975.546875,160476.6875,198547.609375,162672.0625,163543.703125,686689.875,160120.84375,-0.059814453125,1.008544921875,-0.0712890625,-1.7089842557907104,0.2441406100988388,1.0070799589157104,100.0,180477.0,1.0
15:40:34.543876,176138.546875,169996.640625,160493.84375,198560.65625,162684.671875,163563.1875,686720.75,160121.28125,-0.059326171875,1.007568359375,-0.07470703125,-1.7395018339157104,0.2136230319738388,1.0681151151657104,100.0,180478.0,1.0
15:40:34.543882,176086.25,169995.125,160485.796875,198542.15625,162679.578125,163559.96875,686701.75,160117.4375,-0.057373046875,1.00634765625,-0.074462890625,-1.6479490995407104,0.2746581733226776,1.0986326932907104,100.0,180479.0,1.0
15:40:34.543887,176049.765625,169973.3125,160466.40625,198534.015625,162667.15625,163540.03125,686745.5625,160113.953125,-0.056884765625,1.0048828125,-0.072265625,-1.6174315214157104,0.3051757514476776,1.0986326932907104,100.0,180480.0,1.0
15:40:34.546376,176090.0,169984.3125,160474.359375,198539.296875,162672.703125,163553.796875,686674.5,160109.046875,-0.058349609375,1.0048828125,-0.072021484375,-1.4648436307907104,0.3356933295726776,1.1901854276657104,100.0,180481.0,1.0
15:40:34.546400,176142.125,169994.234375,160492.15625,198557.890625,162685.921875,163566.40625,686726.8125,160119.859375,-0.056396484375,1.005126953125,-0.070556640625,-1.5869139432907104,0.3051757514476776,1.1291502714157104,100.0,180482.0,1.0
15:40:34.548333,176097.6875,169998.875,160494.5625,198554.9375,162687.1875,163566.59375,686696.9375,160122.359375,-0.057861328125,1.007568359375,-0.072509765625,-1.5563963651657104,0.3051757514476776,1.0375975370407104,100.0,180483.0,1.0
15:40:34.550838,176067.109375,169976.359375,160478.734375,198562.984375,162675.640625,163539.234375,686778.1875,160129.15625,-0.05810546875,1.00830078125,-0.07275390625,-1.5563963651657104,0.3662109076976776,1.0681151151657104,100.0,180484.0,1.0
15:40:34.555862,176091.15625,169986.71875,160485.796875,198560.65625,162681.71875,163552.90625,686686.125,160133.359375,-0.058349609375,1.0078125,-0.072509765625,-1.4953612089157104,0.3967284858226776,1.0681151151657104,100.0,180485.0,1.0
15:40:34.558366,176161.796875,170009.4375,160507.796875,198571.203125,162700.5,163577.765625,686710.25,160141.671875,-0.058349609375,1.00927734375,-0.071533203125,-1.5258787870407104,0.2441406100988388,1.0375975370407104,100.0,180486.0,1.0
15:40:34.560961,176126.03125,170025.25,160521.203125,198572.1875,162712.03125,163593.140625,686698.0,160150.078125,-0.057373046875,1.006591796875,-0.073486328125,-1.4343260526657104,0.3662109076976776,0.8850097060203552,100.0,180487.0,1.0
15:40:34.563355,176092.5,170008.0,160503.953125,198576.296875,162701.390625,163572.125,686779.1875,160143.8125,-0.0537109375,1.004638671875,-0.07421875,-1.4648436307907104,0.3662109076976776,0.9460448622703552,100.0,180488.0,1.0
15:40:34.565977,176097.953125,170009.4375,160502.078125,198582.734375,162696.390625,163573.203125,686701.75,160143.640625,-0.052734375,1.00390625,-0.073486328125,-1.4038084745407104,0.3967284858226776,0.9460448622703552,100.0,180489.0,1.0
15:40:34.570911,176170.5625,170012.03125,160513.34375,198597.3125,162703.0,163577.3125,686723.25,160150.96875,-0.05126953125,1.00390625,-0.07470703125,-1.4038084745407104,0.3967284858226776,0.9155272841453552,100.0,180490.0,1.0
15:40:34.573345,176119.0625,170009.25,160502.15625,198539.375,162691.03125,163576.25,686694.5,160109.046875,-0.0517578125,1.003662109375,-0.07177734375,-1.3732908964157104,0.5187987685203552,0.8850097060203552,100.0,180491.0,1.0
15:40:34.575936,176083.828125,169996.46875,160493.046875,198541.53125,162690.21875,163564.796875,686747.875,160120.65625,-0.052001953125,1.003662109375,-0.0693359375,-1.2817381620407104,0.5187987685203552,0.8239745497703552,100.0,180492.0,1.0
15:40:34.579022,176083.390625,169997.359375,160498.140625,198574.78125,162693.96875,163566.765625,686719.0,160138.984375,-0.055908203125,1.003662109375,-0.0693359375,-1.3122557401657104,0.6103515028953552,0.8239745497703552,100.0,180493.0,1.0
15:40:34.579048,176166.625,170017.5625,160516.640625,198594.640625,162707.390625,163586.4375,686707.375,160146.5,-0.05615234375,1.00390625,-0.07177734375,-1.3122557401657104,0.6408690810203552,0.7934569716453552,100.0,180494.0,1.0
15:40:34.580841,176144.71875,170029.734375,160518.796875,198563.15625,162706.765625,163597.25,686703.5625,160127.71875,-0.05859375,1.003173828125,-0.072021484375,-1.3122557401657104,0.6713866591453552,0.7324218153953552,100.0,180495.0,1.0
15:40:34.583357,176098.3125,170011.046875,160505.03125,198570.5,162698.71875,163575.890625,686750.5625,160140.25,-0.057861328125,1.00537109375,-0.07421875,-1.3122557401657104,0.6713866591453552,0.6713866591453552,100.0,180496.0,1.0
15:40:34.585954,176070.15625,169990.03125,160486.78125,198572.109375,162683.421875,163554.96875,686743.0,160135.421875,-0.058837890625,1.00732421875,-0.075927734375,-1.2207030057907104,0.6408690810203552,0.6103515028953552,100.0,180497.0,1.0
15:40:34.588443,176136.84375,169995.484375,160495.28125,198572.8125,162688.875,163564.53125,686694.1875,160147.484375,-0.060546875,1.009765625,-0.072265625,-1.2207030057907104,0.5493163466453552,0.6103515028953552,100.0,180498.0,1.0
15:40:34.591556,176137.390625,170004.15625,160499.484375,198557.34375,162687.265625,163572.390625,686707.3125,160129.78125,-0.06103515625,1.01220703125,-0.071044921875,-1.2207030057907104,0.4882812201976776,0.4882812201976776,100.0,180499.0,1.0
15:40:34.591595,176081.515625,169987.34375,160480.25,198542.59375,162669.828125,163549.328125,686735.5,160110.296875,-0.060302734375,1.01220703125,-0.07275390625,-1.1291502714157104,0.4272460639476776,0.4882812201976776,100.0,180500.0,1.0
15:40:34.594067,176047.53125,169969.5625,160464.25,198545.90625,162660.09375,163533.6875,686768.9375,160111.1875,-0.059814453125,1.01123046875,-0.07470703125,-1.0681151151657104,0.4272460639476776,0.5187987685203552,100.0,180501.0,1.0
15:40:34.594097,176113.96875,169989.40625,160485.0,198571.203125,162678.6875,163554.34375,686696.25,160136.671875,-0.060302734375,1.009765625,-0.0751953125,-1.0681151151657104,0.2746581733226776,0.4577636420726776,100.0,180502.0,1.0
15:40:34.599721,176131.390625,169986.28125,160484.546875,198552.515625,162674.65625,163552.90625,686715.1875,160116.90625,-0.061767578125,1.008056640625,-0.073486328125,-1.1596678495407104,0.1831054538488388,0.3356933295726776,100.0,180503.0,1.0
15:40:34.610205,176075.78125,169977.6875,160475.515625,198539.015625,162667.234375,163545.3125,686703.5625,160113.953125,-0.06005859375,1.008544921875,-0.071533203125,-1.0681151151657104,0.1220703050494194,0.2441406100988388,100.0,180504.0,1.0
15:40:34.610216,176047.171875,169957.671875,160463.625,198552.609375,162662.6875,163527.0625,686781.0,160123.25,-0.062255859375,1.008544921875,-0.0703125,-1.1596678495407104,-0.03051757626235485,0.1831054538488388,100.0,180505.0,1.0
15:40:34.612617,176092.421875,169979.03125,160478.015625,198555.46875,162673.59375,163548.078125,686691.75,160120.125,-0.0625,1.009521484375,-0.07275390625,-1.0070799589157104,-0.0915527269244194,0.0610351525247097,100.0,180506.0,1.0
15:40:34.612628,176145.4375,170006.390625,160494.921875,198547.421875,162686.109375,163573.46875,686721.25,160115.296875,-0.0634765625,1.008544921875,-0.071533203125,-1.0375975370407104,-0.2441406100988388,-0.03051757626235485,100.0,180507.0,1.0
15:40:34.623316,176092.6875,170014.625,160489.640625,198526.6875,162679.671875,163576.875,686702.1875,160101.890625,-0.064208984375,1.00830078125,-0.073486328125,-1.1596678495407104,-0.4577636420726776,-0.1831054538488388,100.0,180508.0,1.0
15:40:34.627604,176062.109375,169989.40625,160472.84375,198550.46875,162669.390625,163556.484375,686784.5,160117.796875,-0.063232421875,1.008056640625,-0.071044921875,-1.1901854276657104,-0.5187987685203552,-0.3356933295726776,100.0,180509.0,1.0
15:40:34.627615,176080.796875,169974.65625,160473.640625,198563.34375,162666.96875,163540.5625,686692.0,160126.828125,-0.06396484375,1.01025390625,-0.0732421875,-1.1291502714157104,-0.6103515028953552,-0.3662109076976776,100.0,180510.0,1.0
15:40:34.629742,176158.9375,170004.875,160496.625,198564.234375,162683.875,163566.3125,686724.6875,160118.875,-0.0634765625,1.0087890625,-0.072998046875,-1.1291502714157104,-0.7019042372703552,-0.3356933295726776,100.0,180511.0,1.0
15:40:34.639769,176106.90625,170005.59375,160497.78125,198543.3125,162686.375,163573.46875,686700.1875,160117.796875,-0.061279296875,1.00927734375,-0.07177734375,-1.0986326932907104,-0.8239745497703552,-0.3356933295726776,100.0,180512.0,1.0
15:40:34.643913,176090.53125,170019.53125,160502.4375,198580.78125,162695.3125,163578.921875,686775.25,160152.671875,-0.061279296875,1.01025390625,-0.072265625,-1.1596678495407104,-0.9155272841453552,-0.1831054538488388,100.0,180513.0,1.0
15:40:34.643936,176102.703125,170046.53125,160506.1875,198576.84375,162696.203125,163600.734375,686708.5625,160141.578125,-0.06201171875,1.010498046875,-0.07275390625,-1.2207030057907104,-0.9460448622703552,-0.2136230319738388,100.0,180514.0,1.0
15:40:34.654110,176159.828125,169994.953125,160500.640625,198577.46875,162688.96875,163566.5,686723.5,160138.640625,-0.061279296875,1.00927734375,-0.076416015625,-1.1291502714157104,-1.0375975370407104,-0.0915527269244194,100.0,180515.0,1.0
15:40:34.654159,176120.9375,170011.9375,160504.390625,198549.125,162691.828125,163587.953125,686712.5,160125.3125,-0.061279296875,1.011962890625,-0.077392578125,-1.1596678495407104,-1.1291502714157104,-0.0610351525247097,100.0,180516.0,1.0
15:40:34.656005,176088.21875,170027.21875,160496.53125,198553.953125,162688.34375,163592.609375,686780.875,160120.3125,-0.057373046875,1.010986328125,-0.076171875,-1.2207030057907104,-1.1291502714157104,0.03051757626235485,100.0,180517.0,1.0
15:40:34.659731,176076.6875,170011.671875,160488.296875,198563.609375,162682.984375,163580.890625,686734.375,160130.59375,-0.056640625,1.012939453125,-0.07421875,-1.2207030057907104,-1.0070799589157104,0.1220703050494194,100.0,180518.0,1.0
15:40:34.668920,176132.109375,169969.828125,160480.53125,198559.046875,162674.03125,163550.765625,686711.9375,160124.234375,-0.054443359375,1.01171875,-0.073486328125,-1.3427733182907104,-1.0681151151657104,0.2136230319738388,100.0,180519.0,1.0
15:40:34.668961,176121.828125,169998.53125,160492.15625,198549.921875,162678.6875,163561.765625,686711.875,160117.796875,-0.053466796875,1.01171875,-0.069580078125,-1.4648436307907104,-0.9460448622703552,0.4272460639476776,100.0,180520.0,1.0
15:40:34.672633,176081.859375,169995.84375,160485.984375,198553.328125,162679.140625,163565.25,686736.125,160130.046875,-0.052978515625,1.01123046875,-0.072265625,-1.5869139432907104,-0.9155272841453552,0.5187987685203552,100.0,180521.0,1.0
15:40:34.672680,176054.328125,169986.640625,160470.515625,198551.09375,162666.96875,163553.890625,686744.25,160121.734375,-0.052978515625,1.01318359375,-0.0712890625,-1.6174315214157104,-0.9155272841453552,0.5493163466453552,100.0,180522.0,1.0
15:40:34.683515,176132.203125,170030.890625,160489.640625,198551.359375,162681.546875,163607.53125,686712.5625,160121.46875,-0.05615234375,1.01220703125,-0.0712890625,-1.6479490995407104,-0.8544921278953552,0.4882812201976776,100.0,180523.0,1.0
15:40:34.689024,176139.890625,170027.578125,160494.46875,198550.203125,162679.9375,163586.53125,686737.4375,160120.484375,-0.05517578125,1.011474609375,-0.0712890625,-1.7089842557907104,-0.9155272841453552,0.3662109076976776,100.0,180524.0,1.0
15:40:34.689068,176064.15625,169954.625,160463.265625,198532.3125,162656.0625,163532.4375,686702.75,160105.015625,-0.05810546875,1.011474609375,-0.072021484375,-1.7700194120407104,-0.7629393935203552,0.3356933295726776,100.0,180525.0,1.0
15:40:34.690956,176047.09375,169961.15625,160462.640625,198550.828125,162660.625,163541.734375,686747.375,160124.59375,-0.0576171875,1.012451171875,-0.071044921875,-1.8615721464157104,-0.8239745497703552,0.3356933295726776,100.0,180526.0,1.0
15:40:34.697112,176110.03125,170010.140625,160478.921875,198548.671875,162671.890625,163574.28125,686691.3125,160126.03125,-0.0576171875,1.0126953125,-0.0703125,-1.9226073026657104,-0.8850097060203552,0.3051757514476776,100.0,180527.0,1.0
15:40:34.705123,176123.96875,169983.328125,160473.828125,198528.734375,162664.296875,163558.0,686726.5625,160101.890625,-0.05810546875,1.011474609375,-0.072509765625,-2.044677495956421,-0.8850097060203552,0.2441406100988388,100.0,180528.0,1.0
15:40:34.705224,176069.265625,169965.53125,160468.015625,198525.34375,162658.484375,163536.1875,686707.75,160099.65625,-0.05712890625,1.010986328125,-0.0703125,-2.044677495956421,-0.9155272841453552,0.1220703050494194,100.0,180529.0,1.0
15:40:34.711377,176080.703125,170045.203125,160493.9375,198570.765625,162687.09375,163606.1875,686782.9375,160134.703125,-0.054443359375,1.009033203125,-0.07568359375,-2.136230230331421,-0.8544921278953552,-0.0610351525247097,100.0,180530.0,1.0
15:40:34.711439,176098.5,169999.328125,160480.078125,198554.40625,162674.9375,163564.703125,686690.125,160123.078125,-0.05322265625,1.005126953125,-0.0732421875,-2.105712652206421,-0.8544921278953552,-0.2136230319738388,100.0,180531.0,1.0
15:40:34.713256,176140.96875,169992.890625,160488.484375,198551.265625,162681.453125,163562.828125,686731.75,160120.125,-0.05126953125,1.003662109375,-0.07080078125,-2.014159917831421,-0.7934569716453552,-0.2441406100988388,100.0,180532.0,1.0
15:40:34.728850,176113.515625,170041.265625,160509.9375,198559.140625,162697.734375,163589.65625,686697.125,160131.296875,-0.052978515625,1.00244140625,-0.075927734375,-1.9836424589157104,-0.7629393935203552,-0.2746581733226776,100.0,180533.0,1.0
15:40:34.728874,176098.578125,170038.84375,160509.21875,198595.171875,162704.25,163595.734375,686776.4375,160164.65625,-0.051025390625,1.002685546875,-0.076416015625,-1.9226073026657104,-0.6103515028953552,-0.3967284858226776,100.0,180534.0,1.0
15:40:34.731952,176063.0,169950.609375,160462.203125,198538.9375,162663.578125,163540.21875,686690.4375,160110.109375,-0.0517578125,1.002197265625,-0.074951171875,-1.7700194120407104,-0.3967284858226776,-0.4272460639476776,100.0,180535.0,1.0
15:40:34.731982,176152.140625,170007.109375,160493.578125,198546.171875,162686.109375,163577.765625,686716.0625,160105.46875,-0.04931640625,1.004150390625,-0.07666015625,-1.6479490995407104,-0.2746581733226776,-0.5187987685203552,100.0,180536.0,1.0
15:40:34.731993,176136.046875,170073.453125,160524.96875,198556.90625,162712.75,163625.953125,686699.25,160128.171875,-0.0517578125,1.004150390625,-0.072998046875,-1.6479490995407104,-0.1525878757238388,-0.4272460639476776,100.0,180537.0,1.0
15:40:34.737105,176115.65625,170060.390625,160521.46875,198587.484375,162714.8125,163615.765625,686773.5625,160155.0,-0.052978515625,1.0009765625,-0.07177734375,-1.5563963651657104,0.03051757626235485,-0.3967284858226776,100.0,180538.0,1.0
15:40:34.749590,176087.3125,169993.515625,160493.21875,198574.15625,162688.796875,163563.8125,686702.8125,160132.203125,-0.05419921875,1.001708984375,-0.07373046875,-1.4648436307907104,0.0610351525247097,-0.2136230319738388,100.0,180539.0,1.0
15:40:34.757032,176164.921875,170026.59375,160507.796875,198567.90625,162697.640625,163586.96875,686714.3125,160124.59375,-0.0556640625,1.003173828125,-0.074951171875,-1.3732908964157104,0.0610351525247097,-0.2746581733226776,100.0,180540.0,1.0
15:40:34.757053,176128.171875,170003.890625,160508.421875,198556.453125,162698.359375,163586.4375,686693.1875,160123.078125,-0.057861328125,1.004150390625,-0.072265625,-1.2817381620407104,0.1831054538488388,-0.1831054538488388,100.0,180541.0,1.0
15:40:34.757060,176104.3125,169999.78125,160509.671875,198582.734375,162705.15625,163570.15625,686765.0625,160152.671875,-0.0576171875,1.004638671875,-0.0732421875,-1.1901854276657104,0.2441406100988388,-0.1220703050494194,100.0,180542.0,1.0
15:40:34.760142,176089.734375,170007.015625,160502.96875,198577.640625,162698.625,163573.296875,686726.875,160142.484375,-0.059326171875,1.006103515625,-0.076904296875,-1.1901854276657104,0.1220703050494194,-0.1220703050494194,100.0,180543.0,1.0
15:40:34.760165,176174.046875,170039.828125,160523.703125,198589.0,162715.609375,163601.90625,686694.8125,160152.578125,-0.060302734375,1.006591796875,-0.0751953125,-1.0681151151657104,0.2136230319738388,-0.2441406100988388,100.0,180544.0,1.0
15:40:34.772175,176144.453125,170032.5,160517.265625,198565.84375,162708.640625,163603.875,686700.8125,160135.765625,-0.0615234375,1.00732421875,-0.072265625,-1.0070799589157104,0.2136230319738388,-0.1831054538488388,100.0,180545.0,1.0
15:40:34.775264,176097.953125,170022.84375,160504.046875,198564.0625,162698.71875,163588.046875,686745.375,160133.359375,-0.06298828125,1.00830078125,-0.07177734375,-0.9155272841453552,0.2441406100988388,-0.1525878757238388,100.0,180546.0,1.0
15:40:34.775291,176078.46875,170030.71875,160496.265625,198566.828125,162693.078125,163596.8125,686746.3125,160133.8125,-0.063232421875,1.009765625,-0.073486328125,-0.8239745497703552,0.1525878757238388,-0.2136230319738388,100.0,180547.0,1.0
15:40:34.780967,176147.125,170026.0625,160504.9375,198582.65625,162696.390625,163594.03125,686693.125,160142.203125,-0.062255859375,1.009765625,-0.072998046875,-0.7934569716453552,0.03051757626235485,-0.1831054538488388,100.0,180548.0,1.0
15:40:34.783386,176171.8125,170101.96875,160527.015625,198559.5,162709.0,163629.96875,686701.5625,160126.203125,-0.0625,1.007568359375,-0.07421875,-0.8544921278953552,0.0,-0.1831054538488388,100.0,180549.0,1.0
15:40:34.789567,176114.40625,170047.875,160507.078125,198556.90625,162694.953125,163586.703125,686727.8125,160128.4375,-0.064453125,1.007568359375,-0.07373046875,-1.0070799589157104,-0.0610351525247097,-0.1831054538488388,100.0,180550.0,1.0
15:40:34.792595,176057.546875,169945.328125,160470.875,198562.453125,162670.8125,163521.703125,686766.4375,160133.359375,-0.063232421875,1.007568359375,-0.075927734375,-0.9765624403953552,-0.1525878757238388,-0.2136230319738388,100.0,180551.0,1.0
15:40:34.792617,176113.0625,169966.078125,160485.625,198567.984375,162682.265625,163538.25,686685.4375,160139.890625,-0.064697265625,1.007568359375,-0.074951171875,-0.9460448622703552,-0.2136230319738388,-0.1220703050494194,100.0,180552.0,1.0
15:40:34.794554,176147.21875,169986.640625,160501.984375,198562.625,162694.953125,163561.40625,686718.75,160131.578125,-0.0654296875,1.0068359375,-0.072998046875,-0.9155272841453552,-0.2746581733226776,-0.1220703050494194,100.0,180553.0,1.0
15:40:34.809579,176095.984375,169994.328125,160495.375,198541.96875,162687.1875,163560.78125,686717.25,160113.953125,-0.063232421875,1.0068359375,-0.075439453125,-0.9765624403953552,-0.2746581733226776,-0.03051757626235485,100.0,180554.0,1.0
15:40:34.814510,176081.953125,170013.015625,160494.203125,198573.359375,162689.234375,163573.46875,686790.375,160137.921875,-0.061767578125,1.00732421875,-0.075439453125,-0.9460448622703552,-0.4272460639476776,0.03051757626235485,100.0,180555.0,1.0
15:40:34.814543,176120.671875,170025.53125,160501.0,198570.40625,162693.265625,163578.125,686683.0625,160132.46875,-0.062744140625,1.00927734375,-0.072998046875,-0.9155272841453552,-0.3967284858226776,0.1220703050494194,100.0,180556.0,1.0
15:40:34.814553,176154.015625,170010.5,160499.390625,198552.796875,162693.34375,163580.890625,686716.0625,160119.234375,-0.06298828125,1.008056640625,-0.071533203125,-0.9460448622703552,-0.4577636420726776,0.1220703050494194,100.0,180557.0,1.0
15:40:34.817145,176111.640625,170042.328125,160508.6875,198544.125,162702.203125,163617.90625,686707.125,160119.953125,-0.06494140625,1.005126953125,-0.075927734375,-0.8544921278953552,-0.4882812201976776,0.1831054538488388,100.0,180558.0,1.0
15:40:34.820856,176071.21875,169968.75,160479.8125,198555.5625,162681.28125,163540.84375,686802.25,160126.109375,-0.06298828125,1.006591796875,-0.072509765625,-0.8239745497703552,-0.4577636420726776,0.2746581733226776,100.0,180559.0,1.0
15:40:34.833910,176101.890625,170019.984375,160500.90625,198565.84375,162698.4375,163588.765625,686707.3125,160131.296875,-0.064208984375,1.008056640625,-0.0732421875,-0.7324218153953552,-0.5187987685203552,0.2441406100988388,100.0,180560.0,1.0
15:40:34.833932,176172.078125,170027.5,160515.75,198569.0625,162707.296875,163590.453125,686734.25,160131.125,-0.062255859375,1.009033203125,-0.072998046875,-0.7629393935203552,-0.5493163466453552,0.2136230319738388,100.0,180561.0,1.0
15:40:34.840135,176145.96875,170081.9375,160534.625,198565.671875,162720.34375,163617.90625,686705.6875,160135.0625,-0.0634765625,1.007080078125,-0.07275390625,-0.7324218153953552,-0.5187987685203552,0.0610351525247097,100.0,180562.0,1.0
15:40:34.840157,176118.4375,170067.09375,160526.296875,198587.296875,162719.1875,163608.609375,686750.125,160156.34375,-0.064697265625,1.005126953125,-0.0751953125,-0.7934569716453552,-0.5493163466453552,0.0915527269244194,100.0,180563.0,1.0
15:40:34.848925,176095.984375,170002.375,160505.828125,198580.15625,162704.96875,163581.875,686710.8125,160148.015625,-0.06494140625,1.0048828125,-0.075927734375,-0.7934569716453552,-0.6103515028953552,-0.0915527269244194,100.0,180564.0,1.0
15:40:34.848951,176177.625,170018.015625,160525.046875,198591.5,162719.28125,163596.890625,686724.5625,160152.140625,-0.06689453125,1.0078125,-0.075927734375,-0.7629393935203552,-0.7934569716453552,-0.1525878757238388,100.0,180565.0,1.0
15:40:34.856379,176152.59375,170033.578125,160531.40625,198573.4375,162721.328125,163609.234375,686710.25,160140.421875,-0.066650390625,1.008544921875,-0.07666015625,-0.7629393935203552,-0.7629393935203552,-0.3051757514476776,100.0,180566.0,1.0
15:40:34.856412,176110.65625,170007.734375,160514.765625,198584.34375,162711.40625,163579.109375,686756.5625,160158.484375,-0.06396484375,1.006591796875,-0.074951171875,-0.7629393935203552,-0.8239745497703552,-0.4272460639476776,100.0,180567.0,1.0
15:40:34.890403,176094.03125,170006.84375,160507.53125,198590.4375,162706.046875,163573.46875,686726.6875,160164.828125,-0.066162109375,1.00927734375,-0.07666015625,-0.7629393935203552,-0.8239745497703552,-0.4882812201976776,100.0,180568.0,1.0
15:40:34.890477,176160.640625,170020.875,160513.34375,198582.03125,162707.46875,163588.9375,686712.3125,160143.90625,-0.06201171875,1.00830078125,-0.076904296875,-0.8239745497703552,-0.8544921278953552,-0.4882812201976776,100.0,180569.0,1.0
15:40:34.904827,176149.8125,170031.421875,160517.09375,198565.484375,162706.84375,163598.5,686715.875,160134.078125,-0.0595703125,1.009765625,-0.075927734375,-0.8544921278953552,-0.8544921278953552,-0.3967284858226776,100.0,180570.0,1.0
15:40:34.907866,176096.96875,170002.546875,160497.0625,198558.515625,162691.375,163569.625,686739.5625,160130.3125,-0.059814453125,1.010498046875,-0.076904296875,-0.7324218153953552,-0.8239745497703552,-0.4272460639476776,100.0,180571.0,1.0
15:40:34.907921,176059.421875,169968.3125,160472.921875,198547.96875,162672.25,163538.421875,686755.125,160124.328125,-0.05908203125,1.011962890625,-0.0771484375,-0.8850097060203552,-0.8239745497703552,-0.3662109076976776,100.0,180572.0,1.0
15:40:34.909565,176125.859375,169985.296875,160486.515625,198557.625,162681.1875,163556.125,686702.3125,160125.140625,-0.06005859375,1.012451171875,-0.077392578125,-0.9765624403953552,-0.7629393935203552,-0.2746581733226776,100.0,180573.0,1.0
15:40:34.912415,176143.734375,170005.234375,160500.734375,198554.125,162689.765625,163575.609375,686725.375,160118.609375,-0.061279296875,1.012451171875,-0.077392578125,-0.9765624403953552,-0.7934569716453552,-0.2136230319738388,100.0,180574.0,1.0
15:40:34.914875,176093.21875,169997.90625,160492.953125,198542.78125,162685.296875,163566.3125,686727.9375,160118.78125,-0.061767578125,1.010986328125,-0.078369140625,-0.9765624403953552,-0.6713866591453552,-0.0610351525247097,100.0,180575.0,1.0
15:40:34.917206,176068.359375,169986.71875,160482.84375,198558.953125,162682.171875,163555.859375,686782.125,160129.515625,-0.06298828125,1.01220703125,-0.075439453125,-1.0986326932907104,-0.7019042372703552,-0.1220703050494194,100.0,180576.0,1.0
15:40:34.919793,176119.859375,169995.578125,160492.59375,198567.90625,162688.609375,163566.234375,686700.6875,160134.875,-0.0615234375,1.01171875,-0.07666015625,-1.1291502714157104,-0.6713866591453552,-0.1220703050494194,100.0,180577.0,1.0
15:40:34.923073,176161.609375,170026.953125,160509.3125,198561.828125,162700.40625,163593.234375,686721.25,160128.078125,-0.0634765625,1.01123046875,-0.0771484375,-1.2207030057907104,-0.6408690810203552,0.03051757626235485,100.0,180578.0,1.0
15:40:34.924763,176105.640625,170012.5625,160500.46875,198548.59375,162694.59375,163581.609375,686700.6875,160123.171875,-0.0634765625,1.011474609375,-0.076416015625,-1.2512205839157104,-0.6408690810203552,0.03051757626235485,100.0,180579.0,1.0
15:40:34.927377,176076.234375,169988.0625,160488.125,198569.875,162689.6875,163555.671875,686778.3125,160147.84375,-0.063232421875,1.010986328125,-0.075439453125,-1.2207030057907104,-0.7019042372703552,0.0610351525247097,100.0,180580.0,1.0
15:40:34.934399,176113.875,170001.5625,160497.0625,198578.890625,162694.421875,163569.453125,686682.1875,160144.625,-0.062255859375,1.010986328125,-0.076904296875,-1.2512205839157104,-0.6103515028953552,0.2136230319738388,100.0,180581.0,1.0
15:40:34.938722,176175.390625,170023.46875,160514.234375,198583.453125,162704.96875,163589.203125,686708.5,160143.640625,-0.06298828125,1.010986328125,-0.07666015625,-1.3732908964157104,-0.5187987685203552,0.1831054538488388,100.0,180582.0,1.0
15:40:34.941461,176121.828125,170028.296875,160511.453125,198551.71875,162701.84375,163593.140625,686700.875,160122.1875,-0.062744140625,1.010009765625,-0.0751953125,-1.4038084745407104,-0.4882812201976776,0.1831054538488388,100.0,180583.0,1.0
15:40:34.941532,176086.15625,169999.59375,160492.78125,198559.765625,162690.21875,163566.046875,686790.9375,160127.71875,-0.0625,1.009765625,-0.072509765625,-1.3732908964157104,-0.6103515028953552,0.2136230319738388,100.0,180584.0,1.0
15:40:34.946364,176105.640625,170009.4375,160500.203125,198573.0,162694.0625,163575.703125,686700.8125,160134.515625,-0.0634765625,1.008544921875,-0.072021484375,-1.4648436307907104,-0.5798339247703552,0.3051757514476776,100.0,180585.0,1.0
15:40:34.971491,176176.8125,170027.40625,160514.234375,198574.0625,162705.515625,163594.75,686716.3125,160130.9375,-0.0634765625,1.009033203125,-0.076416015625,-1.5563963651657104,-0.5798339247703552,0.2136230319738388,100.0,180586.0,1.0
15:40:34.971507,176134.078125,170034.109375,160515.84375,198557.171875,162706.140625,163601.453125,686700.9375,160124.59375,-0.06494140625,1.010009765625,-0.076416015625,-1.5258787870407104,-0.4882812201976776,0.2136230319738388,100.0,180587.0,1.0
15:40:34.973462,176103.859375,170013.28125,160505.203125,198579.703125,162700.5,163578.03125,686777.9375,160143.8125,-0.063720703125,1.0107421875,-0.07666015625,-1.5869139432907104,-0.5187987685203552,0.1831054538488388,100.0,180588.0,1.0
15:40:34.975942,176102.078125,170010.59375,160503.765625,198589.09375,162699.515625,163576.875,686718.375,160149.265625,-0.0615234375,1.009521484375,-0.076904296875,-1.5563963651657104,-0.5187987685203552,0.1831054538488388,100.0,180589.0,1.0
15:40:34.978315,176171.546875,170022.390625,160511.8125,198579.515625,162703.625,163590.90625,686720.125,160139.890625,-0.063720703125,1.0068359375,-0.074462890625,-1.6479490995407104,-0.5493163466453552,0.0610351525247097,100.0,180590.0,1.0
15:40:34.980922,176145.875,170035.984375,160518.796875,198566.828125,162707.390625,163602.625,686704.875,160127.71875,-0.064453125,1.010009765625,-0.07568359375,-1.6479490995407104,-0.4577636420726776,0.1220703050494194,100.0,180591.0,1.0
15:40:34.983392,176109.9375,170021.0625,160512.4375,198577.375,162707.296875,163585.984375,686747.625,160142.921875,-0.06103515625,1.010986328125,-0.0751953125,-1.6479490995407104,-0.4272460639476776,0.1831054538488388,100.0,180592.0,1.0
15:40:34.985916,176089.015625,170004.34375,160500.640625,198579.078125,162698.0,163569.984375,686737.0625,160142.484375,-0.060302734375,1.010009765625,-0.075927734375,-1.7700194120407104,-0.3662109076976776,0.1525878757238388,100.0,180593.0,1.0
15:40:34.988320,176163.40625,170019.265625,160511.109375,198583.640625,162702.828125,163582.40625,686708.625,160141.5,-0.05810546875,1.00732421875,-0.076171875,-1.8005369901657104,-0.2746581733226776,0.1831054538488388,100.0,180594.0,1.0
15:40:34.990879,176146.78125,170021.234375,160510.390625,198563.78125,162699.078125,163585.625,686705.625,160125.9375,-0.060546875,1.00927734375,-0.07666015625,-1.8310545682907104,-0.1831054538488388,0.1831054538488388,100.0,180595.0,1.0
15:40:34.993324,176098.140625,170002.546875,160497.609375,198565.390625,162692.0,163568.375,686741.5625,160132.28125,-0.061767578125,1.007568359375,-0.07470703125,-1.8005369901657104,-0.2136230319738388,0.1831054538488388,100.0,180596.0,1.0
15:40:34.995832,176071.5,169989.140625,160485.0,198569.59375,162684.140625,163557.5625,686764.875,160138.09375,-0.061767578125,1.008544921875,-0.075927734375,-1.8310545682907104,-0.03051757626235485,0.1220703050494194,100.0,180597.0,1.0
15:40:34.998904,176135.59375,170010.421875,160496.078125,198563.515625,162691.5625,163579.015625,686696.9375,160127.375,-0.060791015625,1.008056640625,-0.076904296875,-1.8615721464157104,-0.0915527269244194,0.2136230319738388,100.0,180598.0,1.0
15:40:34.998928,176138.734375,170011.671875,160495.90625,198539.734375,162689.953125,163584.375,686713.75,160106.265625,-0.062255859375,1.00830078125,-0.078369140625,-1.8005369901657104,-0.0610351525247097,0.2746581733226776,100.0,180599.0,1.0
15:40:35.000877,176088.578125,169995.578125,160490.625,198546.890625,162687.71875,163566.859375,686708.125,160125.484375,-0.0634765625,1.008544921875,-0.07861328125,-1.6784666776657104,-0.0610351525247097,0.3051757514476776,100.0,180600.0,1.0
15:40:35.003883,176063.625,169979.84375,160475.515625,198557.265625,162675.828125,163548.078125,686764.375,160124.328125,-0.062255859375,1.010498046875,-0.076171875,-1.6784666776657104,0.0,0.2746581733226776,100.0,180601.0,1.0
15:40:35.003895,176116.203125,169999.59375,160486.515625,198559.765625,162681.546875,163565.875,686681.9375,160118.25,-0.062255859375,1.010986328125,-0.0771484375,-1.7700194120407104,0.0915527269244194,0.5187987685203552,100.0,180602.0,1.0
15:40:35.006476,176151.6875,170009.34375,160496.265625,198555.65625,162687.09375,163578.921875,686712.0625,160113.875,-0.061767578125,1.01123046875,-0.07568359375,-1.8005369901657104,0.0915527269244194,0.4272460639476776,100.0,180603.0,1.0
15:40:35.006496,176106.359375,170006.578125,160499.03125,198563.4375,162690.84375,163577.3125,686704.25,160130.671875,-0.061767578125,1.009521484375,-0.076171875,-1.8310545682907104,0.0915527269244194,0.4577636420726776,100.0,180604.0,1.0
15:40:35.008310,176077.125,169989.40625,160485.0,198564.40625,162683.78125,163556.125,686782.4375,160131.125,-0.0625,1.0087890625,-0.075927734375,-1.7700194120407104,0.2136230319738388,0.4272460639476776,100.0,180605.0,1.0
15:40:35.012648,176106.1875,170002.546875,160493.40625,198563.15625,162691.46875,163570.34375,686684.6875,160127.015625,-0.0625,1.00830078125,-0.073974609375,-1.8310545682907104,0.2746581733226776,0.4272460639476776,100.0,180606.0,1.0
15:40:35.012668,176167.96875,170021.0625,160512.171875,198570.765625,162706.9375,163590.28125,686717.0,160129.96875,-0.062255859375,1.005615234375,-0.075927734375,-1.7700194120407104,0.3356933295726776,0.4882812201976776,100.0,180607.0,1.0
15:40:35.022118,176126.84375,170028.921875,160519.15625,198568.265625,162711.5,163597.703125,686699.6875,160135.140625,-0.063232421875,1.004638671875,-0.07763671875,-1.7700194120407104,0.3662109076976776,0.5798339247703552,100.0,180608.0,1.0
15:40:35.027704,176096.703125,170005.40625,160502.15625,198580.0625,162698.890625,163569.984375,686792.0,160142.921875,-0.063232421875,1.00732421875,-0.07568359375,-1.7700194120407104,0.4577636420726776,0.4882812201976776,100.0,180609.0,1.0
15:40:35.027729,176104.3125,170004.78125,160501.453125,198587.75,162697.109375,163570.515625,686700.875,160145.78125,-0.0634765625,1.008544921875,-0.07568359375,-1.8310545682907104,0.3662109076976776,0.3662109076976776,100.0,180610.0,1.0
15:40:35.029743,176172.875,170017.5625,160510.75,198576.578125,162701.84375,163584.828125,686710.625,160131.03125,-0.0654296875,1.007080078125,-0.076416015625,-1.7700194120407104,0.3356933295726776,0.3662109076976776,100.0,180611.0,1.0
15:40:35.037117,176132.921875,170024.453125,160514.046875,198559.578125,162702.734375,163592.6875,686692.375,160124.234375,-0.065185546875,1.005126953125,-0.077880859375,-1.7700194120407104,0.4272460639476776,0.3662109076976776,100.0,180612.0,1.0
15:40:35.046429,176103.953125,170009.703125,160507.078125,198583.640625,162703.453125,163578.203125,686761.25,160148.015625,-0.066162109375,1.006103515625,-0.073486328125,-1.8005369901657104,0.3967284858226776,0.3662109076976776,100.0,180613.0,1.0
15:40:35.046453,176097.25,170009.703125,160505.734375,198581.9375,162705.234375,163582.234375,686717.625,160143.015625,-0.066162109375,1.008544921875,-0.0751953125,-1.7700194120407104,0.3051757514476776,0.3662109076976776,100.0,180614.0,1.0
15:40:35.048918,176173.859375,170027.21875,160521.65625,198587.921875,162716.140625,163600.5625,686716.625,160147.125,-0.06689453125,1.007568359375,-0.07421875,-1.8310545682907104,0.2746581733226776,0.3356933295726776,100.0,180615.0,1.0
15:40:35.048926,176145.703125,170031.96875,160521.65625,198571.65625,162712.125,163603.6875,686708.5,160138.09375,-0.06591796875,1.00537109375,-0.07568359375,-1.8005369901657104,0.2441406100988388,0.4577636420726776,100.0,180616.0,1.0
15:40:35.050828,176100.015625,170006.296875,160498.671875,198561.46875,162694.78125,163575.96875,686755.875,160125.3125,-0.066162109375,1.007080078125,-0.075927734375,-1.7700194120407104,0.2136230319738388,0.4577636420726776,100.0,180617.0,1.0
15:40:35.062233,176083.5625,170000.765625,160493.046875,198570.046875,162691.296875,163570.15625,686735.9375,160134.078125,-0.065673828125,1.008056640625,-0.074951171875,-1.6784666776657104,0.3356933295726776,0.4272460639476776,100.0,180618.0,1.0
15:40:35.065236,176152.40625,170009.875,160500.640625,198575.140625,162695.40625,163581.515625,686713.3125,160134.25,-0.066650390625,1.00732421875,-0.07666015625,-1.6174315214157104,0.3051757514476776,0.6103515028953552,100.0,180619.0,1.0
15:40:35.065307,176137.03125,170009.4375,160497.0625,198551.0,162687.53125,163580.359375,686713.1875,160115.828125,-0.06689453125,1.0087890625,-0.076904296875,-1.6174315214157104,0.3051757514476776,0.6713866591453552,100.0,180620.0,1.0
15:40:35.070984,176097.59375,170002.015625,160494.734375,198559.765625,162689.0625,163571.140625,686723.875,160130.5,-0.066162109375,1.00927734375,-0.073974609375,-1.6174315214157104,0.3356933295726776,0.7019042372703552,100.0,180621.0,1.0
15:40:35.081480,176069.796875,169985.921875,160482.3125,198564.953125,162680.203125,163556.03125,686758.125,160129.78125,-0.064208984375,1.007568359375,-0.074951171875,-1.6174315214157104,0.1525878757238388,0.7324218153953552,100.0,180622.0,1.0
15:40:35.081504,176129.34375,169993.25,160489.5625,198568.53125,162683.6875,163565.25,686702.1875,160128.265625,-0.065673828125,1.006591796875,-0.078125,-1.7089842557907104,0.0915527269244194,0.7019042372703552,100.0,180623.0,1.0
15:40:35.084082,176145.171875,170007.375,160496.625,198553.59375,162685.75,163577.578125,686729.125,160115.296875,-0.064697265625,1.00537109375,-0.076416015625,-1.5563963651657104,0.0915527269244194,0.7019042372703552,100.0,180624.0,1.0
15:40:35.084157,176096.53125,170005.859375,160494.5625,198558.515625,162686.375,163573.375,686720.875,160128.890625,-0.06201171875,1.00439453125,-0.076171875,-1.4648436307907104,0.1220703050494194,0.6713866591453552,100.0,180625.0,1.0
15:40:35.096026,176066.75,169981.890625,160479.625,198565.21875,162677.96875,163551.921875,686791.375,160130.234375,-0.059326171875,1.003662109375,-0.078369140625,-1.4038084745407104,0.1831054538488388,0.7934569716453552,100.0,180626.0,1.0
15:40:35.098446,176110.390625,169991.546875,160486.6875,198562.890625,162681.90625,163564.171875,686707.5625,160126.46875,-0.059814453125,1.001708984375,-0.07666015625,-1.3427733182907104,0.2136230319738388,0.9155272841453552,100.0,180627.0,1.0
15:40:35.102314,176144.625,169996.015625,160490.359375,198549.484375,162681.375,163569.09375,686732.6875,160111.71875,-0.058837890625,1.001953125,-0.078369140625,-1.1596678495407104,0.2746581733226776,0.8850097060203552,100.0,180628.0,1.0
15:40:35.103354,176096.96875,169996.375,160489.5625,198543.5,162681.1875,163567.75,686702.5,160112.609375,-0.056884765625,1.0029296875,-0.077880859375,-1.0681151151657104,0.4577636420726776,0.7934569716453552,100.0,180629.0,1.0
15:40:35.110182,176068.0,169976.796875,160475.78125,198567.09375,162675.015625,163546.46875,686781.8125,160131.21875,-0.057373046875,1.00537109375,-0.07763671875,-0.9460448622703552,0.5493163466453552,0.7324218153953552,100.0,180630.0,1.0
15:40:35.110234,176091.25,169980.640625,160477.671875,198565.21875,162675.203125,163551.125,686690.4375,160131.21875,-0.05810546875,1.009765625,-0.07666015625,-0.8239745497703552,0.7324218153953552,0.7019042372703552,100.0,180631.0,1.0
15:40:35.115838,176154.375,169999.6875,160492.421875,198557.96875,162685.578125,163568.90625,686724.5625,160117.890625,-0.057373046875,1.008056640625,-0.074462890625,-0.7629393935203552,0.8239745497703552,0.6103515028953552,100.0,180632.0,1.0
15:40:35.122744,176110.65625,170012.734375,160498.234375,198543.9375,162690.046875,163579.375,686699.1875,160113.875,-0.056640625,1.007080078125,-0.075927734375,-0.7629393935203552,0.9460448622703552,0.3967284858226776,100.0,180633.0,1.0
15:40:35.122810,176084.453125,169993.78125,160487.140625,198561.734375,162684.765625,163557.921875,686777.4375,160127.71875,-0.058349609375,1.00830078125,-0.076171875,-0.7629393935203552,1.1596678495407104,0.3662109076976776,100.0,180634.0,1.0
15:40:35.132737,176094.65625,169997.359375,160491.25,198574.6875,162688.15625,163562.296875,686705.6875,160138.71875,-0.06005859375,1.010498046875,-0.076416015625,-0.9765624403953552,1.2512205839157104,0.3662109076976776,100.0,180635.0,1.0
15:40:35.132812,176164.75,170010.78125,160502.609375,198572.375,162695.578125,163580.09375,686717.875,160129.78125,-0.06005859375,1.011474609375,-0.0791015625,-0.9155272841453552,1.3427733182907104,0.3356933295726776,100.0,180636.0,1.0
15:40:35.135377,176140.515625,170031.875,160517.546875,198574.34375,162706.765625,163598.0625,686701.0625,160139.34375,-0.060546875,1.011962890625,-0.0751953125,-1.0681151151657104,1.4343260526657104,0.3051757514476776,100.0,180637.0,1.0
15:40:35.135435,176095.8125,169995.578125,160493.484375,198561.1875,162690.3125,163564.0,686744.0625,160126.75,-0.06103515625,1.01318359375,-0.07275390625,-1.1596678495407104,1.4343260526657104,0.3356933295726776,100.0,180638.0,1.0
15:40:35.140864,176086.328125,169995.03125,160489.109375,198566.734375,162686.828125,163562.390625,686708.0,160130.671875,-0.0615234375,1.012939453125,-0.0751953125,-1.2207030057907104,1.4953612089157104,0.3662109076976776,100.0,180639.0,1.0
15:40:35.147250,176161.34375,170004.515625,160501.09375,198577.28125,162694.6875,163576.78125,686699.25,160135.140625,-0.062744140625,1.01416015625,-0.076416015625,-1.1596678495407104,1.4343260526657104,0.3662109076976776,100.0,180640.0,1.0
15:40:35.155540,176138.109375,170019.53125,160507.34375,198559.578125,162696.75,163590.90625,686698.4375,160126.5625,-0.0634765625,1.0146484375,-0.0751953125,-1.2512205839157104,1.5563963651657104,0.5493163466453552,100.0,180641.0,1.0
15:40:35.155616,176103.5,170019.0,160497.953125,198563.875,162691.03125,163579.546875,686781.4375,160126.46875,-0.06201171875,1.0146484375,-0.074462890625,-1.3732908964157104,1.4648436307907104,0.6408690810203552,100.0,180642.0,1.0
15:40:35.163002,176078.46875,169997.625,160485.359375,198566.828125,162683.6875,163564.984375,686758.1875,160129.6875,-0.063720703125,1.014892578125,-0.07421875,-1.4953612089157104,1.5869139432907104,0.6713866591453552,100.0,180643.0,1.0
15:40:35.163101,176146.0625,170018.46875,160497.953125,198564.5,162693.171875,163586.078125,686708.3125,160125.3125,-0.065185546875,1.0146484375,-0.074462890625,-1.6784666776657104,1.4953612089157104,0.6713866591453552,100.0,180644.0,1.0
15:40:35.169103,176145.25,170020.15625,160505.5625,198560.484375,162696.203125,163590.90625,686721.5,160121.28125,-0.066162109375,1.015380859375,-0.07421875,-1.8005369901657104,1.4953612089157104,0.7324218153953552,100.0,180645.0,1.0
15:40:35.169191,176092.765625,169985.734375,160488.125,198554.40625,162683.421875,163560.953125,686710.4375,160118.15625,-0.068603515625,1.015869140625,-0.072509765625,-1.9531248807907104,1.4343260526657104,0.7019042372703552,100.0,180646.0,1.0
15:40:35.170943,176075.703125,169981.71875,160483.390625,198569.421875,162682.796875,163548.078125,686748.8125,160131.21875,-0.070556640625,1.013916015625,-0.07373046875,-1.9836424589157104,1.3732908964157104,0.8850097060203552,100.0,180647.0,1.0
15:40:35.178315,176128.53125,169996.296875,160488.484375,198560.21875,162685.578125,163567.296875,686688.1875,160120.65625,-0.071044921875,1.014892578125,-0.072265625,-2.105712652206421,1.2207030057907104,1.0070799589157104,100.0,180648.0,1.0
15:40:35.185143,176147.9375,170008.625,160500.109375,198557.265625,162693.703125,163582.59375,686708.0,160118.875,-0.0712890625,1.015869140625,-0.075439453125,-2.227782964706421,1.0681151151657104,1.0375975370407104,100.0,180649.0,1.0
15:40:35.185202,176101.71875,170000.671875,160496.625,198557.796875,162691.921875,163570.15625,686711.6875,160128.703125,-0.071044921875,1.016357421875,-0.07421875,-2.380370855331421,0.9155272841453552,1.1596678495407104,100.0,180650.0,1.0
15:40:35.187052,176077.9375,170013.453125,160487.671875,198567.1875,162686.640625,163572.671875,686783.375,160131.296875,-0.06982421875,1.015869140625,-0.0712890625,-2.502441167831421,0.7934569716453552,1.1291502714157104,100.0,180651.0,1.0
15:40:35.197149,176123.796875,170040.8125,160498.671875,198569.6875,162694.515625,163599.125,686692.0,160126.5625,-0.07177734375,1.013671875,-0.07177734375,-2.593993902206421,0.5798339247703552,1.1291502714157104,100.0,180652.0,1.0
15:40:35.207664,176159.296875,170022.75,160501.71875,198558.515625,162694.78125,163582.40625,686727.875,160117.71875,-0.06982421875,1.012451171875,-0.071533203125,-2.746581792831421,0.4882812201976776,1.2512205839157104,100.0,180653.0,1.0
15:40:35.207685,176108.328125,170033.296875,160501.0,198546.0,162695.9375,163600.5625,686702.6875,160115.921875,-0.0693359375,1.012451171875,-0.070068359375,-2.899169683456421,0.3356933295726776,1.3732908964157104,100.0,180654.0,1.0
15:40:35.210279,176057.8125,169957.3125,160463.8125,198551.53125,162667.421875,163534.578125,686785.5625,160121.109375,-0.066650390625,1.010009765625,-0.070556640625,-3.021239995956421,0.2746581733226776,1.4953612089157104,100.0,180655.0,1.0
15:40:35.210328,176081.953125,169971.171875,160464.515625,198544.65625,162662.5,163540.21875,686693.125,160105.015625,-0.06494140625,1.010986328125,-0.072021484375,-2.929687261581421,0.1831054538488388,1.4953612089157104,100.0,180656.0,1.0
15:40:35.219678,176152.859375,169990.75,160486.609375,198559.40625,162681.09375,163561.40625,686721.1875,160111.0,-0.06494140625,1.00830078125,-0.071044921875,-3.051757574081421,0.0915527269244194,1.5869139432907104,100.0,180657.0,1.0
15:40:35.223856,176123.0,170058.0625,160506.0,198549.65625,162696.5625,163607.09375,686698.9375,160114.40625,-0.063232421875,1.0087890625,-0.07275390625,-3.021239995956421,-0.03051757626235485,1.5869139432907104,100.0,180658.0,1.0
15:40:35.223881,176103.6875,170044.484375,160505.03125,198580.328125,162702.46875,163599.484375,686781.6875,160143.90625,-0.062255859375,1.00830078125,-0.073974609375,-2.960204839706421,-0.03051757626235485,1.6174315214157104,100.0,180659.0,1.0
15:40:35.273995,176095.90625,170023.46875,160496.078125,198572.90625,162695.578125,163595.640625,686693.8125,160132.28125,-0.063720703125,1.0087890625,-0.075927734375,-3.021239995956421,-0.03051757626235485,1.6479490995407104,100.0,180660.0,1.0
15:40:35.274011,176166.09375,170043.140625,160510.484375,198569.6875,162706.671875,163618.171875,686696.875,160127.8125,-0.06298828125,1.009765625,-0.073974609375,-3.112792730331421,-0.2136230319738388,1.5563963651657104,100.0,180661.0,1.0
15:40:35.277044,176110.828125,169990.65625,160492.953125,198546.265625,162688.875,163559.703125,686684.0625,160111.90625,-0.061767578125,1.007568359375,-0.07470703125,-3.143310308456421,-0.3051757514476776,1.7089842557907104,100.0,180662.0,1.0
15:40:35.277055,176078.109375,169976.625,160483.5625,198557.34375,162684.9375,163549.953125,686766.25,160124.859375,-0.061279296875,1.00830078125,-0.076416015625,-3.112792730331421,-0.2746581733226776,1.7089842557907104,100.0,180663.0,1.0
15:40:35.277057,176077.03125,169997.453125,160487.234375,198563.78125,162690.84375,163571.953125,686722.875,160131.296875,-0.05859375,1.0068359375,-0.072998046875,-3.112792730331421,-0.3051757514476776,1.5869139432907104,100.0,180664.0,1.0
15:40:35.280778,176143.28125,169972.0625,160488.296875,198563.078125,162688.15625,163545.046875,686710.6875,160129.15625,-0.058349609375,1.003662109375,-0.072509765625,-3.021239995956421,-0.3662109076976776,1.6479490995407104,100.0,180665.0,1.0
15:40:35.280793,176138.734375,170026.953125,160509.578125,198561.640625,162702.734375,163591.359375,686710.0625,160127.71875,-0.05810546875,1.0029296875,-0.072509765625,-3.082275152206421,-0.3051757514476776,1.5563963651657104,100.0,180666.0,1.0
15:40:35.280797,176107.078125,170028.65625,160506.1875,198584.703125,162704.25,163590.8125,686764.0625,160148.734375,-0.05810546875,1.003662109375,-0.072021484375,-2.929687261581421,-0.3356933295726776,1.4343260526657104,100.0,180667.0,1.0
15:40:35.283393,176087.765625,170025.609375,160495.015625,198574.421875,162695.9375,163581.078125,686750.5,160137.65625,-0.055908203125,1.002685546875,-0.071533203125,-2.929687261581421,-0.3051757514476776,1.2207030057907104,100.0,180668.0,1.0
15:40:35.285801,176142.125,170007.46875,160492.0625,198561.546875,162691.46875,163574.640625,686698.125,160120.578125,-0.05615234375,1.00244140625,-0.07275390625,-2.868652105331421,-0.3051757514476776,1.2207030057907104,100.0,180669.0,1.0
15:40:35.290828,176141.765625,170018.828125,160503.765625,198555.65625,162702.203125,163594.578125,686720.1875,160125.578125,-0.0546875,1.00439453125,-0.072509765625,-2.838134527206421,-0.2441406100988388,1.1596678495407104,100.0,180670.0,1.0
15:40:35.293345,176080.53125,169987.171875,160482.40625,198538.3125,162685.296875,163563.640625,686724.5,160110.65625,-0.05517578125,1.005126953125,-0.07275390625,-2.716064214706421,-0.1525878757238388,1.0375975370407104,100.0,180671.0,1.0
15:40:35.295805,176072.828125,170013.640625,160483.125,198556.28125,162687.359375,163574.359375,686758.8125,160122.265625,-0.0546875,1.00537109375,-0.07275390625,-2.655029058456421,-0.0915527269244194,1.0375975370407104,100.0,180672.0,1.0
15:40:35.298450,176115.75,169982.25,160473.828125,198557.4375,162673.40625,163544.953125,686701.3125,160113.0625,-0.056884765625,1.00341796875,-0.06982421875,-2.532958745956421,-0.03051757626235485,0.9460448622703552,100.0,180673.0,1.0
15:40:35.300938,176158.125,170044.125,160499.921875,198556.8125,162691.46875,163596.8125,686723.75,160114.578125,-0.05712890625,1.003173828125,-0.07080078125,-2.410888433456421,0.1525878757238388,0.8239745497703552,100.0,180674.0,1.0
15:40:35.303431,176105.375,170018.640625,160494.296875,198555.65625,162691.203125,163592.875,686704.8125,160122.265625,-0.055908203125,1.0048828125,-0.07373046875,-2.319335699081421,0.0915527269244194,0.7324218153953552,100.0,180675.0,1.0
15:40:35.305868,176045.75,169932.625,160454.953125,198551.8125,162661.078125,163508.828125,686775.625,160114.765625,-0.0576171875,1.006103515625,-0.072509765625,-2.197265386581421,0.1220703050494194,0.7019042372703552,100.0,180676.0,1.0
15:40:35.308439,176090.53125,169981.71875,160471.578125,198549.75,162673.328125,163548.4375,686688.4375,160109.21875,-0.05810546875,1.0068359375,-0.072021484375,-2.197265386581421,0.1525878757238388,0.5798339247703552,100.0,180677.0,1.0
15:40:35.310875,176168.328125,170058.25,160511.546875,198567.453125,162704.703125,163608.703125,686722.6875,160121.921875,-0.058837890625,1.00537109375,-0.067626953125,-2.075195074081421,0.1831054538488388,0.5187987685203552,100.0,180678.0,1.0
15:40:35.313566,176099.84375,170003.625,160485.0,198538.578125,162679.671875,163574.09375,686695.9375,160101.34375,-0.058837890625,1.00390625,-0.06787109375,-1.9531248807907104,0.0915527269244194,0.4577636420726776,100.0,180679.0,1.0
15:40:35.316514,176065.5,169972.328125,160470.15625,198564.234375,162672.703125,163551.484375,686767.375,160124.234375,-0.060791015625,1.0029296875,-0.071533203125,-1.9226073026657104,0.0915527269244194,0.3967284858226776,100.0,180680.0,1.0
15:40:35.316659,176096.796875,170013.359375,160485.171875,198574.15625,162684.40625,163581.609375,686688.875,160135.140625,-0.058349609375,1.001220703125,-0.07177734375,-1.8310545682907104,0.1831054538488388,0.4272460639476776,100.0,180681.0,1.0
15:40:35.318536,176159.375,170035.890625,160493.84375,198556.09375,162687.265625,163592.34375,686718.25,160113.953125,-0.060791015625,1.0,-0.072021484375,-1.6784666776657104,0.1525878757238388,0.4577636420726776,100.0,180682.0,1.0
15:40:35.321599,176113.6875,170044.84375,160498.859375,198539.203125,162691.375,163612.984375,686694.875,160108.140625,-0.05810546875,0.999755859375,-0.0693359375,-1.5563963651657104,0.2136230319738388,0.4577636420726776,100.0,180683.0,1.0
15:40:35.321645,176076.59375,169983.328125,160480.890625,198560.65625,162682.984375,163566.40625,686781.625,160120.65625,-0.0595703125,1.0,-0.06787109375,-1.4953612089157104,0.1220703050494194,0.3967284858226776,100.0,180684.0,1.0
15:40:35.327168,176069.96875,169945.59375,160469.796875,198566.921875,162671.890625,163515.890625,686706.9375,160123.703125,-0.061279296875,0.999755859375,-0.070068359375,-1.4648436307907104,0.2136230319738388,0.3967284858226776,100.0,180685.0,1.0
15:40:35.336551,176159.828125,170004.34375,160498.59375,198565.390625,162693.265625,163569.453125,686730.5,160120.390625,-0.060546875,1.000732421875,-0.0703125,-1.4038084745407104,0.1831054538488388,0.4882812201976776,100.0,180686.0,1.0
15:40:35.336586,176132.921875,170032.859375,160511.453125,198550.640625,162702.203125,163600.828125,686718.0625,160117.984375,-0.061767578125,1.003662109375,-0.0732421875,-1.2512205839157104,0.1525878757238388,0.4882812201976776,100.0,180687.0,1.0
15:40:35.338962,176104.75,170038.9375,160507.890625,198570.84375,162704.53125,163606.546875,686751.6875,160141.9375,-0.060302734375,1.005126953125,-0.072265625,-1.1596678495407104,0.0610351525247097,0.4272460639476776,100.0,180688.0,1.0
15:40:35.338989,176099.75,170028.828125,160502.15625,198584.625,162696.484375,163578.203125,686719.9375,160141.765625,-0.0595703125,1.005126953125,-0.0712890625,-0.9765624403953552,0.1220703050494194,0.4577636420726776,100.0,180689.0,1.0
15:40:35.345896,176164.203125,170008.1875,160503.140625,198584.078125,162696.828125,163579.46875,686705.8125,160132.375,-0.056640625,1.005126953125,-0.071533203125,-0.8544921278953552,0.1831054538488388,0.4577636420726776,100.0,180690.0,1.0
15:40:35.350566,176128.890625,169982.25,160494.390625,198562.453125,162687.890625,163559.53125,686704.125,160124.234375,-0.055419921875,1.004150390625,-0.0732421875,-0.8239745497703552,0.1831054538488388,0.5493163466453552,100.0,180691.0,1.0
15:40:35.353484,176095.359375,170017.75,160495.015625,198563.4375,162692.640625,163582.5,686742.5625,160134.4375,-0.056640625,1.00537109375,-0.07421875,-0.7019042372703552,0.1831054538488388,0.5798339247703552,100.0,180692.0,1.0
15:40:35.363383,176068.640625,169995.578125,160479.359375,198560.5625,162680.75,163563.71875,686741.125,160123.078125,-0.054931640625,1.004150390625,-0.0751953125,-0.5187987685203552,0.2136230319738388,0.5798339247703552,100.0,180693.0,1.0
15:40:35.369581,176138.1875,170000.3125,160490.625,198570.9375,162688.25,163570.15625,686721.25,160127.1875,-0.055908203125,1.004638671875,-0.07373046875,-0.4272460639476776,0.3967284858226776,0.5187987685203552,100.0,180694.0,1.0
15:40:35.369620,176155.71875,170046.625,160511.109375,198564.5,162702.015625,163607.71875,686738.4375,160130.765625,-0.057373046875,1.00732421875,-0.073486328125,-0.2441406100988388,0.3662109076976776,0.4577636420726776,100.0,180695.0,1.0
15:40:35.369636,176100.109375,170022.671875,160494.65625,198554.84375,162689.953125,163588.765625,686709.875,160120.65625,-0.057373046875,1.01025390625,-0.0693359375,-0.2136230319738388,0.4577636420726776,0.4272460639476776,100.0,180696.0,1.0
15:40:35.372267,176067.921875,170002.546875,160474.0,198550.015625,162673.046875,163571.328125,686746.5625,160106.265625,-0.058837890625,1.01123046875,-0.06982421875,-0.2441406100988388,0.6103515028953552,0.3051757514476776,100.0,180697.0,1.0
15:40:35.375817,176116.015625,169987.703125,160476.5,198554.671875,162671.359375,163555.765625,686690.875,160110.46875,-0.06005859375,1.010498046875,-0.07080078125,-0.1831054538488388,0.7019042372703552,0.2136230319738388,100.0,180698.0,1.0
15:40:35.385898,176146.859375,170026.15625,160494.109375,198550.203125,162682.265625,163579.734375,686716.875,160112.265625,-0.05908203125,1.010986328125,-0.06982421875,-0.2746581733226776,0.6713866591453552,0.1220703050494194,100.0,180699.0,1.0
15:40:35.388954,176097.78125,170000.046875,160488.484375,198547.0625,162681.640625,163561.765625,686707.5625,160116.1875,-0.060302734375,1.012939453125,-0.069580078125,-0.3051757514476776,0.6713866591453552,0.0,100.0,180700.0,1.0
15:40:35.389064,176071.3125,169988.515625,160479.359375,198562.0,162680.109375,163557.921875,686777.9375,160124.234375,-0.062255859375,1.012939453125,-0.069091796875,-0.3356933295726776,0.7019042372703552,-0.1525878757238388,100.0,180701.0,1.0
15:40:35.390824,176100.734375,169986.71875,160479.453125,198556.8125,162677.171875,163556.125,686689.8125,160123.4375,-0.06103515625,1.01416015625,-0.06884765625,-0.4272460639476776,0.7019042372703552,-0.1220703050494194,100.0,180702.0,1.0
15:40:35.400982,176159.5625,170011.75,160499.03125,198566.46875,162689.953125,163581.515625,686722.3125,160126.65625,-0.061279296875,1.014404296875,-0.068603515625,-0.5798339247703552,0.7629393935203552,-0.0915527269244194,100.0,180703.0,1.0
15:40:35.405399,176105.015625,170007.734375,160490.546875,198544.03125,162682.53125,163577.765625,686704.375,160111.1875,-0.0615234375,1.015869140625,-0.067138671875,-0.6408690810203552,0.8544921278953552,-0.03051757626235485,100.0,180704.0,1.0
15:40:35.405429,176080.703125,169985.03125,160481.6875,198573.4375,162680.109375,163553.359375,686794.125,160141.5,-0.05712890625,1.015380859375,-0.068359375,-0.7629393935203552,0.8544921278953552,0.0610351525247097,100.0,180705.0,1.0
15:40:35.412132,176094.375,169995.9375,160482.765625,198568.078125,162680.75,163569.0,686699.0,160129.421875,-0.059326171875,1.01513671875,-0.068603515625,-0.9460448622703552,0.7629393935203552,0.2136230319738388,100.0,180706.0,1.0
15:40:35.416532,176158.125,170004.34375,160493.125,198563.875,162687.265625,163577.140625,686724.6875,160115.65625,-0.06103515625,1.012939453125,-0.0703125,-0.9765624403953552,0.9155272841453552,0.4272460639476776,100.0,180707.0,1.0
15:40:35.416595,176109.578125,170000.3125,160490.984375,198540.984375,162683.78125,163573.109375,686696.9375,160102.0625,-0.06103515625,1.01318359375,-0.0703125,-1.1291502714157104,0.8544921278953552,0.5493163466453552,100.0,180708.0,1.0
15:40:35.424614,176085.171875,169994.0625,160486.609375,198563.875,162684.859375,163563.09375,686771.3125,160124.234375,-0.0615234375,1.01611328125,-0.069091796875,-1.0986326932907104,0.9155272841453552,0.5187987685203552,100.0,180709.0,1.0
15:40:35.428869,176102.15625,170006.84375,160502.875,198603.84375,162702.46875,163579.375,686717.4375,160168.140625,-0.062255859375,1.01513671875,-0.07275390625,-1.2512205839157104,0.8544921278953552,0.6103515028953552,100.0,180710.0,1.0
15:40:35.428931,176162.25,170005.234375,160500.109375,198567.0,162697.28125,163582.328125,686734.6875,160125.140625,-0.066162109375,1.0146484375,-0.0693359375,-1.3732908964157104,0.8239745497703552,0.7019042372703552,100.0,180711.0,1.0
15:40:35.438597,176130.234375,170016.859375,160505.03125,198546.359375,162700.953125,163593.140625,686714.375,160112.96875,-0.06494140625,1.0146484375,-0.072021484375,-1.4953612089157104,0.7629393935203552,0.7324218153953552,100.0,180712.0,1.0
15:40:35.442816,176091.15625,169999.234375,160491.703125,198560.21875,162693.53125,163572.390625,686776.0625,160129.6875,-0.063232421875,1.01220703125,-0.06787109375,-1.6174315214157104,0.7019042372703552,0.8239745497703552,100.0,180713.0,1.0
15:40:35.442883,176078.46875,169994.859375,160488.03125,198579.96875,162690.390625,163567.75,686739.5,160136.3125,-0.06396484375,1.01171875,-0.06884765625,-1.7700194120407104,0.5798339247703552,0.9155272841453552,100.0,180714.0,1.0
15:40:35.455255,176149.546875,169998.53125,160494.203125,198576.296875,162692.8125,163573.921875,686713.1875,160133.359375,-0.065673828125,1.0107421875,-0.070068359375,-1.8615721464157104,0.4577636420726776,0.8850097060203552,100.0,180715.0,1.0
15:40:35.455331,176128.984375,170003.984375,160493.046875,198550.109375,162686.109375,163578.03125,686711.625,160116.375,-0.065185546875,1.00927734375,-0.069091796875,-1.9836424589157104,0.3662109076976776,0.9765624403953552,100.0,180716.0,1.0
15:40:35.457669,176083.125,169989.578125,160479.1875,198545.90625,162676.71875,163562.109375,686746.3125,160116.375,-0.06689453125,1.0107421875,-0.07275390625,-2.014159917831421,0.3356933295726776,0.8850097060203552,100.0,180717.0,1.0
15:40:35.457724,176061.65625,169977.6875,160472.390625,198562.71875,162673.5,163551.203125,686753.6875,160128.4375,-0.065673828125,1.00830078125,-0.0703125,-2.136230230331421,0.2746581733226776,0.8850097060203552,100.0,180718.0,1.0
15:40:35.469677,176129.875,169988.953125,160483.921875,198565.578125,162682.171875,163562.5625,686715.0,160130.5,-0.066650390625,1.006103515625,-0.068115234375,-2.166747808456421,0.1831054538488388,0.7324218153953552,100.0,180719.0,1.0
15:40:35.474223,176132.828125,170001.921875,160490.0,198547.96875,162684.40625,163576.0625,686725.375,160115.296875,-0.066162109375,1.00634765625,-0.069091796875,-2.136230230331421,0.1220703050494194,0.7019042372703552,100.0,180720.0,1.0
15:40:35.474318,176085.359375,169992.171875,160483.75,198547.6875,162681.28125,163566.5,686724.5625,160120.03125,-0.064697265625,1.00634765625,-0.0703125,-2.197265386581421,0.1220703050494194,0.6408690810203552,100.0,180721.0,1.0
15:40:35.481798,176071.140625,169986.71875,160484.546875,198579.515625,162687.71875,163561.671875,686786.375,160147.75,-0.064208984375,1.007080078125,-0.071533203125,-2.136230230331421,0.0610351525247097,0.6408690810203552,100.0,180722.0,1.0
15:40:35.481878,176119.59375,169990.921875,160487.40625,198573.890625,162687.09375,163569.265625,686705.0625,160133.453125,-0.063720703125,1.005126953125,-0.07470703125,-2.197265386581421,-0.1525878757238388,0.4882812201976776,100.0,180723.0,1.0
15:40:35.491465,176141.5,169992.265625,160488.03125,198557.625,162681.28125,163569.890625,686722.0625,160120.65625,-0.062744140625,1.005859375,-0.071533203125,-2.105712652206421,-0.2136230319738388,0.5798339247703552,100.0,180724.0,1.0
15:40:35.491486,176092.6875,169992.265625,160485.4375,198551.53125,162679.21875,163568.375,686720.875,160123.171875,-0.059814453125,1.0048828125,-0.07275390625,-2.105712652206421,-0.1831054538488388,0.5798339247703552,100.0,180725.0,1.0
15:40:35.498279,176057.8125,169969.5625,160463.890625,198544.125,162664.203125,163544.0625,686790.5625,160113.15625,-0.060302734375,1.002685546875,-0.072265625,-2.075195074081421,-0.3051757514476776,0.5493163466453552,100.0,180726.0,1.0
15:40:35.498292,176092.0625,169975.8125,160468.90625,198550.109375,162666.53125,163552.28125,686695.125,160110.203125,-0.05908203125,1.003662109375,-0.07470703125,-1.9836424589157104,-0.2441406100988388,0.5493163466453552,100.0,180727.0,1.0
15:40:35.498296,176144.984375,169992.71875,160480.25,198548.5,162671.890625,163566.9375,686720.625,160101.890625,-0.06005859375,1.0029296875,-0.074951171875,-1.9226073026657104,-0.2136230319738388,0.5493163466453552,100.0,180728.0,1.0
15:40:35.505807,176096.34375,169996.734375,160480.171875,198535.625,162670.546875,163570.078125,686689.8125,160100.09375,-0.06103515625,1.003662109375,-0.073974609375,-1.8615721464157104,-0.2746581733226776,0.6103515028953552,100.0,180729.0,1.0
15:40:35.508285,176064.078125,169970.984375,160465.953125,198550.46875,162662.953125,163544.6875,686770.0,160111.546875,-0.059814453125,1.0029296875,-0.072998046875,-1.7700194120407104,-0.1525878757238388,0.7019042372703552,100.0,180730.0,1.0
15:40:35.510785,176078.5625,169970.625,160466.84375,198557.625,162662.5,163547.8125,686689.8125,160112.703125,-0.060302734375,1.00390625,-0.07177734375,-1.8005369901657104,-0.2136230319738388,0.6103515028953552,100.0,180731.0,1.0
15:40:35.513290,176152.40625,169992.171875,160487.234375,198569.421875,162677.875,163569.09375,686717.9375,160124.15625,-0.060546875,1.004638671875,-0.072021484375,-1.6479490995407104,-0.2746581733226776,0.5798339247703552,100.0,180732.0,1.0
15:40:35.523858,176103.6875,169994.953125,160482.3125,198534.28125,162671.625,163569.984375,686700.1875,160098.40625,-0.060302734375,1.0048828125,-0.072998046875,-1.5563963651657104,-0.3051757514476776,0.5493163466453552,100.0,180733.0,1.0
15:40:35.523885,176074.796875,169977.6875,160472.125,198552.515625,162667.328125,163551.484375,686798.3125,160112.890625,-0.0595703125,1.004150390625,-0.0732421875,-1.4648436307907104,-0.2746581733226776,0.5187987685203552,100.0,180734.0,1.0
15:40:35.526362,176076.046875,169978.671875,160474.171875,198566.296875,162669.125,163553.4375,686708.5625,160122.71875,-0.06005859375,1.005615234375,-0.069091796875,-1.4343260526657104,-0.2746581733226776,0.4577636420726776,100.0,180735.0,1.0
15:40:35.526383,176150.34375,169992.890625,160486.78125,198561.734375,162678.6875,163570.4375,686709.375,160115.390625,-0.06005859375,1.008056640625,-0.072998046875,-1.3122557401657104,-0.3662109076976776,0.4882812201976776,100.0,180736.0,1.0
15:40:35.542122,176118.96875,170000.578125,160490.265625,198545.015625,162680.828125,163579.109375,686699.0,160106.53125,-0.05908203125,1.009033203125,-0.074951171875,-1.4038084745407104,-0.2441406100988388,0.4882812201976776,100.0,180737.0,1.0
15:40:35.550830,176085.796875,169987.34375,160481.421875,198562.09375,162677.875,163562.828125,686753.5625,160119.5,-0.059814453125,1.00927734375,-0.0732421875,-1.2512205839157104,-0.2136230319738388,0.4882812201976776,100.0,180738.0,1.0
15:40:35.550856,176066.390625,169979.484375,160470.15625,198553.234375,162669.65625,163554.25,686726.625,160114.046875,-0.060302734375,1.009521484375,-0.07470703125,-1.3427733182907104,-0.1525878757238388,0.4577636420726776,100.0,180739.0,1.0
15:40:35.550860,176136.578125,169988.328125,160478.734375,198550.46875,162676.359375,163566.3125,686717.0,160112.796875,-0.060302734375,1.008544921875,-0.07275390625,-1.2512205839157104,-0.1831054538488388,0.3967284858226776,100.0,180740.0,1.0
15:40:35.553493,176119.78125,169992.625,160482.140625,198533.03125,162675.015625,163572.21875,686716.875,160096.4375,-0.060546875,1.0068359375,-0.07275390625,-1.3122557401657104,-0.2441406100988388,0.3356933295726776,100.0,180741.0,1.0
15:40:35.555811,176080.703125,169984.75,160477.3125,198543.3125,162674.484375,163561.9375,686746.75,160110.296875,-0.06103515625,1.006103515625,-0.07421875,-1.2207030057907104,-0.3051757514476776,0.2746581733226776,100.0,180742.0,1.0
15:40:35.558449,176059.515625,169974.203125,160469.703125,198556.453125,162670.109375,163551.03125,686751.375,160116.375,-0.060791015625,1.00439453125,-0.076171875,-1.2207030057907104,-0.2746581733226776,0.2746581733226776,100.0,180743.0,1.0
15:40:35.560901,176126.125,169988.328125,160480.96875,198559.765625,162677.25,163567.484375,686706.3125,160117.359375,-0.05908203125,1.006103515625,-0.0771484375,-1.1291502714157104,-0.2746581733226776,0.2441406100988388,100.0,180744.0,1.0
15:40:35.572743,176135.234375,170000.9375,160485.984375,198539.734375,162677.25,163578.921875,686719.9375,160101.625,-0.057861328125,1.005615234375,-0.074951171875,-1.0681151151657104,-0.2136230319738388,0.3051757514476776,100.0,180745.0,1.0
15:40:35.572772,176088.03125,169994.59375,160479.453125,198540.71875,162672.703125,163569.984375,686733.5,160108.0625,-0.058349609375,1.0048828125,-0.07568359375,-0.9765624403953552,-0.03051757626235485,0.3967284858226776,100.0,180746.0,1.0
15:40:35.577593,176063.625,169977.6875,160467.734375,198557.796875,162665.0,163552.109375,686787.9375,160117.71875,-0.05712890625,1.007080078125,-0.0771484375,-0.9460448622703552,-0.1525878757238388,0.2746581733226776,100.0,180747.0,1.0
15:40:35.580185,176110.390625,169982.25,160472.03125,198555.65625,162667.421875,163560.953125,686696.0625,160112.796875,-0.059326171875,1.007080078125,-0.073974609375,-0.9460448622703552,-0.0610351525247097,0.3356933295726776,100.0,180748.0,1.0
15:40:35.580206,176137.203125,169991.28125,160478.828125,198546.078125,162671.0,163569.71875,686719.125,160098.84375,-0.059814453125,1.009765625,-0.07470703125,-0.9155272841453552,-0.0610351525247097,0.4272460639476776,100.0,180749.0,1.0
15:40:35.610822,176086.0625,169990.484375,160476.40625,198540.0,162668.9375,163567.296875,686711.3125,160101.4375,-0.060791015625,1.012451171875,-0.073974609375,-0.8850097060203552,-0.0610351525247097,0.3967284858226776,100.0,180750.0,1.0
15:40:35.640296,176058.53125,169967.953125,160457.28125,198543.84375,162654.546875,163542.09375,686797.875,160098.484375,-0.05908203125,1.00927734375,-0.077880859375,-0.9765624403953552,-0.0915527269244194,0.4577636420726776,100.0,180751.0,1.0
15:40:35.640334,176093.125,169979.921875,160466.671875,198549.296875,162661.78125,163556.390625,686703.375,160103.59375,-0.059814453125,1.010009765625,-0.077880859375,-1.0070799589157104,-0.0915527269244194,0.4882812201976776,100.0,180752.0,1.0
15:40:35.661967,176143.28125,169990.75,160476.859375,198549.390625,162668.21875,163568.375,686726.375,160102.328125,-0.061279296875,1.01123046875,-0.075439453125,-0.9155272841453552,0.0,0.4882812201976776,100.0,180753.0,1.0
15:40:35.661990,176094.109375,169991.109375,160473.109375,198534.734375,162662.5,163566.40625,686706.625,160093.75,-0.064453125,1.010009765625,-0.074462890625,-1.0375975370407104,-0.03051757626235485,0.3967284858226776,100.0,180754.0,1.0
15:40:35.661993,176063.171875,169973.140625,160457.28125,198541.078125,162653.109375,163544.5,686788.25,160099.5625,-0.064453125,1.009521484375,-0.075439453125,-1.0681151151657104,-0.1220703050494194,0.3051757514476776,100.0,180755.0,1.0
15:40:35.664573,176081.0625,169985.734375,160464.078125,198549.921875,162657.9375,163555.671875,686698.1875,160111.71875,-0.067138671875,1.0107421875,-0.076904296875,-1.0986326932907104,-0.1220703050494194,0.2136230319738388,100.0,180756.0,1.0
15:40:35.667033,176139.71875,169979.296875,160469.265625,198542.859375,162661.078125,163558.0,686725.3125,160096.875,-0.06591796875,1.008056640625,-0.074951171875,-1.1291502714157104,-0.0915527269244194,0.1220703050494194,100.0,180757.0,1.0
15:40:35.673262,176098.234375,169985.921875,160475.15625,198538.03125,162666.34375,163565.515625,686701.125,160103.234375,-0.06396484375,1.0078125,-0.07568359375,-1.2512205839157104,-0.1220703050494194,0.0610351525247097,100.0,180758.0,1.0
15:40:35.675807,176076.40625,169982.15625,160471.9375,198559.9375,162668.3125,163555.953125,686760.3125,160121.734375,-0.0634765625,1.010498046875,-0.075439453125,-1.2817381620407104,-0.3662109076976776,0.0,100.0,180759.0,1.0
15:40:35.678275,176071.9375,169984.21875,160466.3125,198551.71875,162661.875,163555.671875,686708.5625,160104.21875,-0.061279296875,1.010498046875,-0.075927734375,-1.3427733182907104,-0.4577636420726776,0.0,100.0,180760.0,1.0
15:40:35.680770,176149.09375,169999.421875,160481.953125,198556.453125,162672.515625,163570.875,686699.875,160110.296875,-0.06005859375,1.009765625,-0.072998046875,-1.4038084745407104,-0.3356933295726776,0.03051757626235485,100.0,180761.0,1.0
15:40:35.683281,176114.40625,169991.46875,160479.90625,198535.53125,162668.9375,163566.59375,686688.625,160097.59375,-0.05908203125,1.013916015625,-0.075439453125,-1.4648436307907104,-0.3662109076976776,0.0915527269244194,100.0,180762.0,1.0
15:40:35.688611,176083.46875,169979.125,160475.25,198554.84375,162670.109375,163554.25,686755.75,160116.8125,-0.059814453125,1.013427734375,-0.073486328125,-1.5258787870407104,-0.3051757514476776,0.1525878757238388,100.0,180763.0,1.0
15:40:35.690739,176067.5625,169983.328125,160469.796875,198554.125,162666.078125,163555.671875,686728.875,160114.40625,-0.06103515625,1.0126953125,-0.075439453125,-1.5563963651657104,-0.3356933295726776,0.1831054538488388,100.0,180764.0,1.0
15:40:35.693497,176143.5625,170001.390625,160482.765625,198551.1875,162674.3125,163571.234375,686709.1875,160108.140625,-0.058837890625,1.012451171875,-0.07568359375,-1.6784666776657104,-0.3662109076976776,0.2136230319738388,100.0,180765.0,1.0
15:40:35.695771,176128.265625,170000.9375,160485.265625,198540.71875,162672.78125,163578.390625,686711.3125,160099.390625,-0.05810546875,1.011962890625,-0.073486328125,-1.8005369901657104,-0.2441406100988388,0.3356933295726776,100.0,180766.0,1.0
15:40:35.698406,176083.828125,169987.796875,160478.203125,198545.640625,162670.734375,163570.875,686729.5625,160108.765625,-0.056396484375,1.0107421875,-0.075927734375,-1.8920897245407104,-0.1831054538488388,0.3967284858226776,100.0,180767.0,1.0
15:40:35.703458,176063.171875,169968.484375,160470.515625,198565.9375,162667.59375,163553.984375,686754.25,160122.359375,-0.0576171875,1.010009765625,-0.077880859375,-1.9836424589157104,-0.1831054538488388,0.5187987685203552,100.0,180768.0,1.0
15:40:35.705767,176127.28125,169989.578125,160482.140625,198561.1875,162677.078125,163576.875,686704.125,160117.0,-0.0576171875,1.0107421875,-0.0751953125,-2.014159917831421,0.0,0.4577636420726776,100.0,180769.0,1.0
15:40:35.708430,176148.65625,170014.796875,160496.703125,198553.59375,162686.375,163601.453125,686728.875,160110.734375,-0.060302734375,1.00927734375,-0.0771484375,-2.105712652206421,-0.03051757626235485,0.4882812201976776,100.0,180770.0,1.0
15:40:35.710802,176098.5,170007.46875,160489.375,198549.75,162680.5625,163591.703125,686712.0625,160115.296875,-0.060546875,1.00927734375,-0.076171875,-2.075195074081421,-0.0915527269244194,0.4272460639476776,100.0,180771.0,1.0
15:40:35.713430,176073.109375,170003.078125,160476.0625,198553.59375,162670.375,163579.90625,686763.5625,160107.609375,-0.0595703125,1.009765625,-0.07470703125,-2.136230230331421,0.0,0.4882812201976776,100.0,180772.0,1.0
15:40:35.718916,176114.140625,169994.5,160477.578125,198559.578125,162671.171875,163582.5,686691.875,160113.875,-0.06103515625,1.01025390625,-0.075439453125,-2.197265386581421,0.03051757626235485,0.4272460639476776,100.0,180773.0,1.0
15:40:35.718941,176151.953125,170013.453125,160490.984375,198557.625,162679.140625,163600.46875,686726.1875,160113.0625,-0.06201171875,1.00732421875,-0.073486328125,-2.197265386581421,0.0,0.3967284858226776,100.0,180774.0,1.0
15:40:35.721429,176104.9375,170018.46875,160490.265625,198545.546875,162677.703125,163601.453125,686708.5625,160101.890625,-0.0615234375,1.008056640625,-0.072509765625,-2.227782964706421,0.0610351525247097,0.1525878757238388,100.0,180775.0,1.0
15:40:35.721454,176066.9375,169979.75,160470.25,198554.9375,162668.3125,163575.265625,686788.75,160113.15625,-0.059326171875,1.008544921875,-0.070556640625,-2.258300542831421,0.0915527269244194,0.0915527269244194,100.0,180776.0,1.0
15:40:35.725930,176092.0625,169980.015625,160470.15625,198558.515625,162665.453125,163574.359375,686696.9375,160113.6875,-0.05908203125,1.0078125,-0.072265625,-2.319335699081421,0.0610351525247097,0.0915527269244194,100.0,180777.0,1.0
15:40:35.729513,176159.828125,170031.421875,160489.90625,198549.65625,162677.25,163611.109375,686729.3125,160101.4375,-0.05908203125,1.0078125,-0.071533203125,-2.410888433456421,0.03051757626235485,0.1525878757238388,100.0,180778.0,1.0
15:40:35.729538,176104.03125,170011.21875,160481.0625,198532.3125,162668.84375,163596.53125,686699.4375,160094.5625,-0.059814453125,1.008544921875,-0.074951171875,-2.197265386581421,0.0915527269244194,-0.03051757626235485,100.0,180779.0,1.0
15:40:35.729546,176057.8125,169946.40625,160452.625,198540.90625,162649.1875,163540.921875,686776.25,160098.765625,-0.05908203125,1.0087890625,-0.073486328125,-2.197265386581421,0.0915527269244194,-0.0915527269244194,100.0,180780.0,1.0
15:40:35.732102,176089.640625,170016.140625,160478.734375,198557.4375,162671.265625,163597.609375,686695.6875,160118.15625,-0.060791015625,1.0068359375,-0.072998046875,-2.105712652206421,0.03051757626235485,-0.0915527269244194,100.0,180781.0,1.0
15:40:35.734568,176162.15625,170032.140625,160493.046875,198556.359375,162681.8125,163615.046875,686707.5625,160112.96875,-0.062744140625,1.007568359375,-0.072509765625,-2.136230230331421,0.1220703050494194,-0.0610351525247097,100.0,180782.0,1.0
15:40:35.737003,176119.5,170030.53125,160496.796875,198546.796875,162684.140625,163626.046875,686695.6875,160108.421875,-0.06396484375,1.00732421875,-0.072998046875,-2.136230230331421,0.0915527269244194,-0.03051757626235485,100.0,180783.0,1.0
15:40:35.742670,176093.84375,170029.453125,160490.984375,198569.421875,162683.6875,163620.046875,686783.9375,160134.15625,-0.06298828125,1.007568359375,-0.07275390625,-2.044677495956421,0.1525878757238388,-0.03051757626235485,100.0,180784.0,1.0
15:40:35.742709,176071.5,169986.453125,160465.59375,198543.671875,162658.75,163571.5,686721.0625,160107.4375,-0.062255859375,1.007080078125,-0.0712890625,-2.136230230331421,0.1220703050494194,-0.0610351525247097,100.0,180785.0,1.0
