Timestamp,Fz,FC3,FCz,FC4,Cz,C3,C4
15:00:33.520361,177020.8125,182601.515625,195901.34375,174456.984375,172303.703125,194405.921875,688610.9375,173353.4375,0.0654296875,0.989501953125,-0.20263671875,-1.4343260526657104,0.0,0.3662109076976776,100.0,155843.0,1.0
15:00:33.520382,176954.828125,182589.171875,195885.421875,174462.34375,172298.4375,194355.046875,688528.1875,173358.4375,0.066162109375,0.990478515625,-0.203857421875,-1.4648436307907104,0.0,0.1831054538488388,100.0,155844.0,1.0
15:00:33.526643,176925.234375,182590.421875,195882.828125,174465.921875,172299.953125,194334.296875,688281.0625,173363.53125,0.067138671875,0.989990234375,-0.1982421875,-1.4343260526657104,-0.03051757626235485,0.1831054538488388,100.0,155845.0,1.0
15:00:33.526654,177019.390625,182609.640625,195908.3125,174467.625,172309.0625,194386.328125,688340.875,173371.046875,0.06689453125,0.990966796875,-0.201904296875,-1.4343260526657104,0.03051757626235485,0.0915527269244194,100.0,155846.0,1.0
15:00:33.528540,177041.65625,182616.4375,195921.0,174473.515625,172318.90625,194421.203125,688594.8125,173374.796875,0.0673828125,0.9912109375,-0.201904296875,-1.4038084745407104,0.0610351525247097,0.1220703050494194,100.0,155847.0,1.0
15:00:33.541017,176963.953125,182585.234375,195890.515625,174462.078125,172299.765625,194359.25,688560.75,173361.5625,0.068359375,0.992431640625,-0.20458984375,-1.4953612089157104,0.1220703050494194,0.1525878757238388,100.0,155848.0,1.0
15:00:33.547953,176915.671875,182574.421875,195874.6875,174457.34375,172288.78125,194316.15625,688326.8125,173356.109375,0.067626953125,0.99365234375,-0.203369140625,-1.4648436307907104,0.0610351525247097,0.2136230319738388,100.0,155849.0,1.0
15:00:33.547966,176988.8125,182583.1875,195888.734375,174452.78125,172288.859375,194350.21875,688298.5625,173355.3125,0.068115234375,0.990478515625,-0.208251953125,-1.4038084745407104,0.0,0.2746581733226776,100.0,155850.0,1.0
15:00:33.554175,177027.796875,182592.125,195896.6875,174447.234375,172290.921875,194390.984375,688562.875,173350.84375,0.069091796875,0.990478515625,-0.205810546875,-1.4343260526657104,-0.0610351525247097,0.3051757514476776,100.0,155851.0,1.0
15:00:33.554181,176962.25,182574.59375,195881.40625,174449.390625,172286.1875,194353.609375,688585.75,173351.734375,0.06884765625,0.9892578125,-0.205078125,-1.4343260526657104,-0.03051757626235485,0.3051757514476776,100.0,155852.0,1.0
15:00:33.560285,176903.609375,182560.65625,195863.15625,174447.421875,172276.796875,194303.359375,688364.75,173347.890625,0.06640625,0.988525390625,-0.202880859375,-1.4343260526657104,0.03051757626235485,0.3967284858226776,100.0,155853.0,1.0
15:00:33.560287,176958.328125,182571.921875,195874.609375,174443.03125,172278.84375,194333.9375,688258.0,173345.296875,0.064453125,0.98876953125,-0.20166015625,-1.4038084745407104,0.1220703050494194,0.4577636420726776,100.0,155854.0,1.0
15:00:33.578440,177024.9375,182587.75,195892.75,174441.515625,172288.15625,194387.59375,688519.875,173346.09375,0.0634765625,0.9912109375,-0.2041015625,-1.3122557401657104,-0.03051757626235485,0.4577636420726776,100.0,155855.0,1.0
15:00:33.578460,176971.828125,182578.09375,195882.203125,174445.453125,172288.5,194367.921875,688606.4375,173345.390625,0.06298828125,0.990966796875,-0.20361328125,-1.2817381620407104,0.0,0.5798339247703552,100.0,155856.0,1.0
15:00:33.578463,176908.078125,182560.921875,195863.609375,174446.171875,172279.921875,194311.140625,688400.5625,173343.234375,0.0615234375,0.991455078125,-0.201171875,-1.2817381620407104,-0.03051757626235485,0.5798339247703552,100.0,155857.0,1.0
15:00:33.582231,176940.984375,182569.59375,195872.09375,174445.1875,172281.53125,194326.703125,688234.5,173344.578125,0.0625,0.9912109375,-0.200439453125,-1.2817381620407104,-0.03051757626235485,0.6103515028953552,100.0,155858.0,1.0
15:00:33.582247,177026.71875,182586.84375,195893.734375,174444.015625,172290.296875,194385.4375,688478.125,173348.15625,0.064453125,0.991455078125,-0.202392578125,-1.2817381620407104,-0.0915527269244194,0.6713866591453552,100.0,155859.0,1.0
15:00:33.582251,176982.8125,182583.8125,195886.9375,174445.1875,172292.53125,194383.921875,688609.8125,173347.796875,0.063720703125,0.992431640625,-0.20166015625,-1.3122557401657104,-0.1525878757238388,0.5798339247703552,100.0,155860.0,1.0
15:00:33.584733,176914.421875,182561.71875,195865.75,174447.234375,172282.15625,194316.953125,688443.3125,173348.15625,0.06494140625,0.992919921875,-0.19970703125,-1.4038084745407104,-0.2441406100988388,0.6103515028953552,100.0,155861.0,1.0
15:00:33.588581,176932.9375,182576.75,195876.578125,174454.390625,172288.234375,194325.265625,688237.3125,173352.8125,0.06591796875,0.993408203125,-0.200927734375,-1.5258787870407104,-0.2746581733226776,0.6408690810203552,100.0,155862.0,1.0
15:00:33.599794,177026.8125,182589.265625,195894.984375,174447.140625,172292.265625,194377.125,688426.625,173349.140625,0.067138671875,0.992919921875,-0.202392578125,-1.5563963651657104,-0.2136230319738388,0.6408690810203552,100.0,155863.0,1.0
15:00:33.607836,177000.171875,182590.34375,195890.609375,174447.6875,172293.609375,194386.25,688610.6875,173346.8125,0.0673828125,0.992919921875,-0.204345703125,-1.6174315214157104,-0.1525878757238388,0.6713866591453552,100.0,155864.0,1.0
15:00:33.607848,176931.59375,182574.515625,195870.9375,174451.890625,172285.828125,194329.296875,688491.8125,173347.171875,0.06787109375,0.992919921875,-0.20068359375,-1.7089842557907104,-0.2136230319738388,0.6103515028953552,100.0,155865.0,1.0
15:00:33.610274,176918.71875,182576.484375,195869.59375,174453.40625,172285.28125,194318.921875,688254.9375,173347.265625,0.0693359375,0.992919921875,-0.20263671875,-1.7395018339157104,-0.2441406100988388,0.7019042372703552,100.0,155866.0,1.0
15:00:33.610277,177012.0625,182586.046875,195887.84375,174447.140625,172287.34375,194366.671875,688367.5,173345.390625,0.069091796875,0.993408203125,-0.203125,-1.8310545682907104,-0.1831054538488388,0.6408690810203552,100.0,155867.0,1.0
15:00:33.619805,177008.484375,182590.15625,195889.625,174445.984375,172290.203125,194387.765625,688590.9375,173342.609375,0.07080078125,0.9921875,-0.2001953125,-2.014159917831421,-0.1831054538488388,0.7019042372703552,100.0,155868.0,1.0
15:00:33.624167,176949.65625,182576.75,195872.90625,174450.90625,172283.5,194335.546875,688516.5625,173345.828125,0.07080078125,0.993408203125,-0.201416015625,-2.136230230331421,-0.0915527269244194,0.7019042372703552,100.0,155869.0,1.0
15:00:33.624245,176924.265625,182575.40625,195867.90625,174453.671875,172281.265625,194310.078125,688270.875,173345.921875,0.072265625,0.993408203125,-0.200927734375,-2.227782964706421,0.0,0.6408690810203552,100.0,155870.0,1.0
15:00:33.631115,177015.984375,182586.3125,195884.53125,174449.03125,172281.078125,194352.71875,688319.25,173343.859375,0.07080078125,0.989990234375,-0.19921875,-2.319335699081421,0.0610351525247097,0.6103515028953552,100.0,155871.0,1.0
15:00:33.637896,177037.8125,182596.59375,195894.453125,174452.6875,172288.6875,194390.0,688572.9375,173346.640625,0.071533203125,0.991455078125,-0.19873046875,-2.380370855331421,0.1220703050494194,0.6103515028953552,100.0,155872.0,1.0
15:00:33.637902,176967.625,182576.5625,195872.640625,174451.53125,172278.21875,194337.34375,688547.375,173343.0625,0.072021484375,0.99072265625,-0.197509765625,-2.441406011581421,0.1525878757238388,0.5798339247703552,100.0,155873.0,1.0
15:00:33.640287,176924.53125,182568.34375,195862.4375,174453.234375,172273.484375,194294.6875,688316.75,173343.6875,0.07177734375,0.991455078125,-0.197509765625,-2.563476324081421,0.0915527269244194,0.5493163466453552,100.0,155874.0,1.0
15:00:33.640292,177001.953125,182581.578125,195882.109375,174453.234375,172279.296875,194334.84375,688280.3125,173347.984375,0.072509765625,0.989990234375,-0.196533203125,-2.593993902206421,0.2136230319738388,0.5493163466453552,100.0,155875.0,1.0
15:00:33.652236,177049.34375,182594.625,195899.8125,174457.4375,172292.53125,194383.5625,688551.875,173353.703125,0.0712890625,0.990234375,-0.200439453125,-2.624511480331421,0.2441406100988388,0.5187987685203552,100.0,155876.0,1.0
15:00:33.659672,176985.140625,182581.125,195886.140625,174460.203125,172291.71875,194350.65625,688581.3125,173356.390625,0.0693359375,0.988525390625,-0.19970703125,-2.655029058456421,0.3051757514476776,0.3967284858226776,100.0,155877.0,1.0
15:00:33.659683,176918.984375,182556.625,195860.828125,174451.625,172276.078125,194291.296875,688352.3125,173346.90625,0.068359375,0.987548828125,-0.1982421875,-2.655029058456421,0.3356933295726776,0.4272460639476776,100.0,155878.0,1.0
15:00:33.659685,176972.453125,182570.484375,195872.8125,174447.859375,172278.046875,194320.171875,688243.5625,173345.46875,0.068115234375,0.988037109375,-0.197021484375,-2.685546636581421,0.4272460639476776,0.3356933295726776,100.0,155879.0,1.0
15:00:33.693461,177039.59375,182585.15625,195891.5,174444.734375,172286.359375,194374.171875,688502.0,173348.15625,0.0673828125,0.987548828125,-0.197509765625,-2.624511480331421,0.4272460639476776,0.3967284858226776,100.0,155880.0,1.0
15:00:33.712871,176985.953125,182576.5625,195880.78125,174447.234375,172286.359375,194354.78125,688592.8125,173349.953125,0.066650390625,0.986572265625,-0.19677734375,-2.532958745956421,0.3967284858226776,0.4272460639476776,100.0,155881.0,1.0
15:00:33.712894,176926.9375,182565.125,195864.40625,174451.0,172279.03125,194300.0625,688401.6875,173349.234375,0.0673828125,0.987060546875,-0.199951171875,-2.502441167831421,0.4882812201976776,0.3356933295726776,100.0,155882.0,1.0
15:00:33.715345,176961.546875,182577.640625,195877.015625,174451.4375,172286.265625,194322.40625,688236.4375,173351.46875,0.068603515625,0.986083984375,-0.200439453125,-2.532958745956421,0.4272460639476776,0.4272460639476776,100.0,155883.0,1.0
15:00:33.715359,177042.640625,182590.15625,195894.8125,174446.796875,172294.3125,194381.234375,688475.0,173352.0,0.068115234375,0.988037109375,-0.196533203125,-2.502441167831421,0.3356933295726776,0.4577636420726776,100.0,155884.0,1.0
15:00:33.717263,176991.9375,182580.40625,195879.515625,174439.640625,172290.203125,194372.03125,688604.6875,173343.953125,0.066162109375,0.988037109375,-0.197265625,-2.441406011581421,0.3051757514476776,0.3356933295726776,100.0,155885.0,1.0
15:00:33.719693,176926.21875,182561.546875,195857.078125,174441.25,172279.390625,194308.546875,688443.875,173341.453125,0.065185546875,0.989013671875,-0.196044921875,-2.380370855331421,0.3051757514476776,0.3356933295726776,100.0,155886.0,1.0
15:00:33.722253,176937.125,182571.203125,195864.046875,174442.953125,172282.25,194312.03125,688234.9375,173344.140625,0.0654296875,0.9892578125,-0.197998046875,-2.349853277206421,0.3051757514476776,0.3662109076976776,100.0,155887.0,1.0
15:00:33.724729,177031.546875,182589.890625,195886.5,174438.75,172288.5,194368.453125,688420.4375,173344.9375,0.0654296875,0.990478515625,-0.200439453125,-2.380370855331421,0.2136230319738388,0.3967284858226776,100.0,155888.0,1.0
15:00:33.727244,177008.125,182592.65625,195886.5,174441.34375,172293.6875,194379.8125,688611.75,173345.65625,0.065673828125,0.9912109375,-0.197021484375,-2.288818120956421,0.1831054538488388,0.5187987685203552,100.0,155889.0,1.0
15:00:33.729738,176935.796875,182572.1875,195861.640625,174439.015625,172279.46875,194316.15625,688495.25,173340.375,0.066650390625,0.9892578125,-0.19677734375,-2.197265386581421,0.1220703050494194,0.4272460639476776,100.0,155890.0,1.0
15:00:33.732260,176911.46875,182562.625,195851.09375,174431.953125,172267.578125,194291.125,688256.0,173329.46875,0.06787109375,0.989501953125,-0.19873046875,-2.319335699081421,0.1525878757238388,0.4272460639476776,100.0,155891.0,1.0
15:00:33.734739,177004.453125,182570.671875,195867.984375,174423.90625,172268.125,194337.78125,688381.5625,173325.984375,0.06787109375,0.98974609375,-0.196044921875,-2.166747808456421,0.1220703050494194,0.5187987685203552,100.0,155892.0,1.0
15:00:33.737302,177011.609375,182584.34375,195881.046875,174435.796875,172283.40625,194371.5,688607.5625,173336.984375,0.067626953125,0.99072265625,-0.196044921875,-2.227782964706421,0.1525878757238388,0.4577636420726776,100.0,155893.0,1.0
15:00:33.739739,176951.171875,182572.90625,195868.875,174450.28125,172281.890625,194318.203125,688533.0625,173348.15625,0.06689453125,0.990478515625,-0.19775390625,-2.105712652206421,0.1525878757238388,0.5493163466453552,100.0,155894.0,1.0
15:00:33.742958,176923.546875,182574.875,195865.03125,174455.734375,172280.453125,194293.796875,688288.8125,173352.359375,0.06689453125,0.9892578125,-0.197265625,-2.014159917831421,0.0915527269244194,0.6103515028953552,100.0,155895.0,1.0
15:00:33.742971,177011.4375,182583.71875,195884.34375,174454.84375,172284.21875,194335.90625,688327.75,173354.953125,0.06689453125,0.98828125,-0.1953125,-2.105712652206421,0.0,0.7629393935203552,100.0,155896.0,1.0
15:00:33.745308,177031.453125,182591.953125,195892.671875,174454.125,172291.09375,194373.109375,688577.6875,173355.125,0.06689453125,0.988525390625,-0.193359375,-2.166747808456421,0.0,0.6408690810203552,100.0,155897.0,1.0
15:00:33.745311,176965.5625,182577.546875,195875.953125,174457.34375,172285.28125,194328.578125,688560.375,173356.828125,0.068359375,0.986083984375,-0.193359375,-2.044677495956421,0.0610351525247097,0.6408690810203552,100.0,155898.0,1.0
15:00:33.747229,176917.90625,182566.828125,195862.4375,174455.828125,172278.578125,194286.109375,688323.875,173352.625,0.06787109375,0.98779296875,-0.19287109375,-1.9836424589157104,0.03051757626235485,0.6408690810203552,100.0,155899.0,1.0
15:00:33.750379,176986.84375,182572.546875,195873.53125,174446.703125,172276.609375,194319.640625,688274.5,173345.921875,0.06640625,0.98779296875,-0.193115234375,-1.9836424589157104,0.0,0.6408690810203552,100.0,155900.0,1.0
15:00:33.750382,177033.328125,182584.4375,195886.140625,174443.21875,172282.609375,194366.390625,688537.9375,173342.796875,0.06689453125,0.990966796875,-0.1943359375,-1.9226073026657104,0.03051757626235485,0.6408690810203552,100.0,155901.0,1.0
15:00:33.759095,176975.21875,182579.421875,195875.859375,174448.125,172282.875,194342.078125,688580.1875,173344.671875,0.068603515625,0.989990234375,-0.1962890625,-1.8310545682907104,-0.0610351525247097,0.5493163466453552,100.0,155902.0,1.0
15:00:33.759118,176917.734375,182566.109375,195859.40625,174448.21875,172275.1875,194293.078125,688350.4375,173341.453125,0.067626953125,0.989990234375,-0.19677734375,-1.8920897245407104,-0.0915527269244194,0.5493163466453552,100.0,155903.0,1.0
15:00:33.769103,176961.90625,182573.4375,195865.484375,174436.6875,172271.703125,194320.625,688233.875,173334.390625,0.06884765625,0.989501953125,-0.197021484375,-1.8615721464157104,-0.0915527269244194,0.4272460639476776,100.0,155904.0,1.0
15:00:33.769120,177032.34375,182592.125,195886.140625,174434.0,172284.21875,194380.53125,688503.75,173336.71875,0.068603515625,0.98974609375,-0.19580078125,-1.7700194120407104,0.0,0.4272460639476776,100.0,155905.0,1.0
15:00:33.771638,176976.296875,182583.265625,195874.6875,174437.140625,172284.125,194355.84375,688592.125,173337.875,0.06787109375,0.9892578125,-0.196044921875,-1.7089842557907104,0.0,0.5187987685203552,100.0,155906.0,1.0
15:00:33.771651,176923.0,182578.890625,195867.09375,174447.859375,172286.546875,194309.71875,688405.5,173347.078125,0.068115234375,0.990234375,-0.1943359375,-1.6174315214157104,-0.03051757626235485,0.5798339247703552,100.0,155907.0,1.0
15:00:33.777250,176943.484375,182574.515625,195867.546875,174439.640625,172278.21875,194311.6875,688220.4375,173341.0,0.067626953125,0.98974609375,-0.194091796875,-1.6784666776657104,0.03051757626235485,0.6713866591453552,100.0,155908.0,1.0
15:00:33.784703,177017.59375,182575.765625,195877.734375,174428.109375,172274.46875,194355.3125,688441.0625,173334.75,0.067626953125,0.989013671875,-0.19287109375,-1.6174315214157104,-0.0915527269244194,0.6713866591453552,100.0,155909.0,1.0
15:00:33.784716,176970.296875,182568.078125,195867.8125,174427.03125,172271.875,194348.0625,688576.875,173332.15625,0.06494140625,0.989990234375,-0.19384765625,-1.5563963651657104,-0.2441406100988388,0.6713866591453552,100.0,155910.0,1.0
15:00:33.790310,176913.703125,182560.5625,195856.28125,174438.65625,172271.78125,194295.59375,688439.8125,173339.578125,0.067626953125,0.98876953125,-0.196044921875,-1.6174315214157104,-0.3356933295726776,0.5798339247703552,100.0,155911.0,1.0
15:00:33.790320,176922.375,182567.625,195861.46875,174440.53125,172273.3125,194297.734375,688225.8125,173341.625,0.06982421875,0.988525390625,-0.196533203125,-1.5869139432907104,-0.1831054538488388,0.3967284858226776,100.0,155912.0,1.0
15:00:33.797224,177012.0625,182576.03125,195877.375,174431.859375,172271.609375,194345.828125,688403.5625,173338.328125,0.072265625,0.986328125,-0.197998046875,-1.4953612089157104,-0.0915527269244194,0.3051757514476776,100.0,155913.0,1.0
15:00:33.804192,176994.359375,182598.65625,195883.1875,174438.03125,172280.640625,194373.734375,688591.1875,173341.90625,0.07080078125,0.987060546875,-0.197265625,-1.4648436307907104,0.03051757626235485,0.2746581733226776,100.0,155914.0,1.0
15:00:33.804201,176919.078125,182592.75,195855.203125,174430.421875,172264.1875,194310.078125,688463.1875,173332.78125,0.072998046875,0.98779296875,-0.1982421875,-1.4648436307907104,0.1220703050494194,0.3051757514476776,100.0,155915.0,1.0
15:00:33.832954,176910.125,182569.0625,195858.59375,174438.828125,172269.28125,194295.859375,688240.4375,173339.75,0.07470703125,0.9873046875,-0.196533203125,-1.3122557401657104,0.1525878757238388,0.3051757514476776,100.0,155916.0,1.0
15:00:33.832978,177009.109375,182572.90625,195882.46875,174440.265625,172276.890625,194340.203125,688370.9375,173345.46875,0.074951171875,0.98681640625,-0.195556640625,-1.2512205839157104,0.1831054538488388,0.3356933295726776,100.0,155917.0,1.0
15:00:33.834799,177022.34375,182599.09375,195897.765625,174450.546875,172292.0,194373.109375,688609.1875,173353.25,0.06884765625,0.98583984375,-0.19482421875,-1.1596678495407104,0.1220703050494194,0.5493163466453552,100.0,155918.0,1.0
15:00:33.837216,176948.84375,182577.640625,195874.421875,174450.71875,172280.28125,194319.640625,688530.0625,173350.484375,0.066650390625,0.985595703125,-0.1982421875,-0.9460448622703552,0.1525878757238388,0.8544921278953552,100.0,155919.0,1.0
15:00:33.840366,176909.5,182583.09375,195861.546875,174444.734375,172269.28125,194296.484375,688275.0625,173339.9375,0.065185546875,0.9892578125,-0.197021484375,-0.9765624403953552,0.0915527269244194,0.8850097060203552,100.0,155920.0,1.0
15:00:33.842243,176998.828125,182607.140625,195883.28125,174439.109375,172274.828125,194354.859375,688329.875,173340.46875,0.064208984375,0.990478515625,-0.195068359375,-1.0986326932907104,-0.0915527269244194,0.7934569716453552,100.0,155921.0,1.0
15:00:33.844885,177010.625,182570.40625,195881.671875,174435.609375,172273.671875,194361.75,688588.375,173338.6875,0.065185546875,0.99365234375,-0.1923828125,-1.1596678495407104,-0.1220703050494194,0.6713866591453552,100.0,155922.0,1.0
15:00:33.847219,176945.71875,182563.0625,195866.734375,174440.984375,172271.34375,194315.890625,688560.8125,173342.078125,0.06640625,0.99169921875,-0.190185546875,-1.2817381620407104,-0.03051757626235485,0.3967284858226776,100.0,155923.0,1.0
15:00:33.849746,176900.921875,182563.96875,195858.59375,174444.5625,172270.625,194287.359375,688316.25,173343.421875,0.07080078125,0.99267578125,-0.192138671875,-1.3427733182907104,0.0915527269244194,0.1525878757238388,100.0,155924.0,1.0
15:00:33.852223,176982.375,182595.796875,195884.703125,174446.25,172281.71875,194339.046875,688296.875,173350.65625,0.07275390625,0.989013671875,-0.19775390625,-1.4343260526657104,0.1220703050494194,-0.03051757626235485,100.0,155925.0,1.0
15:00:33.855271,177025.203125,182606.875,195895.890625,174441.25,172287.609375,194388.578125,688572.25,173348.609375,0.0732421875,0.9892578125,-0.197509765625,-1.4953612089157104,0.1831054538488388,-0.03051757626235485,100.0,155926.0,1.0
15:00:33.855279,176964.3125,182598.828125,195880.6875,174441.0625,172284.390625,194361.03125,688597.625,173347.078125,0.07275390625,0.987548828125,-0.19970703125,-1.4038084745407104,0.2441406100988388,0.03051757626235485,100.0,155927.0,1.0
15:00:33.857794,176905.03125,182576.65625,195860.921875,174437.40625,172273.3125,194302.921875,688377.5,173342.171875,0.071044921875,0.989990234375,-0.200927734375,-1.3732908964157104,0.2746581733226776,0.2746581733226776,100.0,155928.0,1.0
15:00:33.857799,176954.203125,182584.875,195870.046875,174431.140625,172272.234375,194332.25,688261.1875,173337.875,0.0693359375,0.99267578125,-0.198486328125,-1.3427733182907104,0.2441406100988388,0.2441406100988388,100.0,155929.0,1.0
15:00:33.866134,177019.125,182589.265625,195883.546875,174427.390625,172274.203125,194376.046875,688523.875,173333.578125,0.069580078125,0.991943359375,-0.19775390625,-1.4343260526657104,0.1831054538488388,0.3051757514476776,100.0,155930.0,1.0
15:00:33.868506,176966.453125,182585.234375,195872.734375,174433.109375,172275.359375,194356.734375,688620.0,173333.671875,0.070556640625,0.9912109375,-0.19921875,-1.4953612089157104,0.3051757514476776,0.1831054538488388,100.0,155931.0,1.0
15:00:33.872256,176904.765625,182573.890625,195854.84375,174433.375,172266.78125,194299.609375,688433.375,173332.59375,0.070068359375,0.992431640625,-0.200439453125,-1.5258787870407104,0.4577636420726776,0.1525878757238388,100.0,155932.0,1.0
15:00:33.880414,176939.375,182588.375,195868.609375,174436.421875,172275.09375,194320.0,688259.25,173337.875,0.068603515625,0.990234375,-0.1982421875,-1.4038084745407104,0.4577636420726776,0.1831054538488388,100.0,155933.0,1.0
15:00:33.880434,177021.71875,182596.234375,195887.03125,174432.578125,172280.375,194370.59375,688486.75,173338.140625,0.068603515625,0.99072265625,-0.19775390625,-1.4343260526657104,0.4272460639476776,0.2136230319738388,100.0,155934.0,1.0
15:00:33.884116,176988.984375,182610.625,195887.75,174439.90625,172287.171875,194380.53125,688629.9375,173340.921875,0.06787109375,0.990966796875,-0.1953125,-1.2817381620407104,0.4272460639476776,0.3356933295726776,100.0,155935.0,1.0
15:00:33.884124,176924.078125,182596.0625,195867.8125,174442.5,172277.78125,194323.21875,688464.875,173340.5625,0.0654296875,0.991455078125,-0.194580078125,-1.3122557401657104,0.5493163466453552,0.3356933295726776,100.0,155936.0,1.0
15:00:33.893609,176923.359375,182572.453125,195863.78125,174438.921875,172271.78125,194297.640625,688248.625,173339.125,0.0615234375,0.989990234375,-0.194091796875,-1.3732908964157104,0.3967284858226776,0.3967284858226776,100.0,155937.0,1.0
15:00:33.896614,177018.3125,182599.28125,195887.65625,174435.609375,172280.015625,194358.796875,688422.3125,173342.4375,0.059326171875,0.989990234375,-0.196044921875,-1.2817381620407104,0.3051757514476776,0.4272460639476776,100.0,155938.0,1.0
15:00:33.896630,176995.609375,182594.265625,195885.0625,174437.578125,172281.796875,194369.703125,688610.9375,173342.25,0.059326171875,0.988037109375,-0.197021484375,-1.4038084745407104,0.1525878757238388,0.3356933295726776,100.0,155939.0,1.0
15:00:33.903451,176926.84375,182569.5,195861.109375,174440.4375,172266.78125,194299.15625,688492.5625,173340.109375,0.06103515625,0.98876953125,-0.197509765625,-1.3732908964157104,0.0610351525247097,0.3967284858226776,100.0,155940.0,1.0
15:00:33.914077,176913.171875,182577.1875,195860.203125,174442.953125,172267.046875,194293.359375,688257.0625,173340.5625,0.062255859375,0.9892578125,-0.19970703125,-1.2817381620407104,0.03051757626235485,0.3662109076976776,100.0,155941.0,1.0
15:00:33.914087,177008.390625,182598.65625,195881.671875,174439.546875,172273.125,194350.21875,688362.6875,173341.546875,0.062744140625,0.989013671875,-0.197021484375,-1.2207030057907104,-0.1220703050494194,0.3662109076976776,100.0,155942.0,1.0
15:00:33.916609,177016.4375,182625.03125,195895.078125,174445.8125,172287.34375,194399.921875,688593.375,173345.46875,0.06494140625,0.990966796875,-0.196533203125,-1.2512205839157104,-0.2441406100988388,0.4577636420726776,100.0,155943.0,1.0
15:00:33.916629,176943.390625,182582.828125,195868.25,174443.75,172271.421875,194325.359375,688531.9375,173341.453125,0.064208984375,0.99072265625,-0.1962890625,-1.1596678495407104,-0.2441406100988388,0.3662109076976776,100.0,155944.0,1.0
15:00:33.922224,176904.328125,182572.0,195856.09375,174442.328125,172262.578125,194287.265625,688292.875,173337.703125,0.064453125,0.989501953125,-0.19384765625,-1.2817381620407104,-0.2746581733226776,0.3662109076976776,100.0,155945.0,1.0
15:00:33.932355,176988.1875,182581.65625,195872.8125,174435.796875,172264.71875,194335.375,688330.4375,173337.609375,0.064697265625,0.9892578125,-0.197265625,-1.0681151151657104,-0.3662109076976776,0.4577636420726776,100.0,155946.0,1.0
15:00:33.936602,177013.390625,182593.28125,195884.53125,174435.25,172273.671875,194374.0,688584.0625,173337.609375,0.066650390625,0.990234375,-0.197509765625,-1.0681151151657104,-0.4272460639476776,0.4272460639476776,100.0,155947.0,1.0
15:00:33.936611,176950.8125,182582.109375,195870.046875,174436.6875,172274.109375,194335.28125,688566.875,173337.34375,0.06591796875,0.990966796875,-0.197021484375,-1.0681151151657104,-0.5493163466453552,0.5187987685203552,100.0,155948.0,1.0
15:00:33.942949,176902.796875,182573.609375,195855.921875,174436.421875,172266.328125,194294.421875,688338.625,173332.328125,0.06591796875,0.991943359375,-0.197265625,-1.0070799589157104,-0.6103515028953552,0.5187987685203552,100.0,155949.0,1.0
15:00:33.942957,176972.453125,182580.59375,195869.421875,174433.828125,172267.234375,194331.34375,688291.6875,173331.4375,0.067138671875,0.9921875,-0.1943359375,-1.0375975370407104,-0.6408690810203552,0.3967284858226776,100.0,155950.0,1.0
15:00:33.949130,177013.390625,182582.203125,195875.765625,174426.859375,172268.921875,194360.046875,688558.0625,173327.859375,0.067626953125,0.989013671875,-0.197509765625,-0.9765624403953552,-0.6713866591453552,0.3662109076976776,100.0,155951.0,1.0
15:00:33.949139,176953.9375,182578.4375,195863.078125,174432.75,172268.5625,194337.78125,688593.5625,173332.421875,0.06787109375,0.988037109375,-0.198974609375,-1.0986326932907104,-0.5493163466453552,0.4577636420726776,100.0,155952.0,1.0
15:00:33.967468,176901.8125,182584.34375,195851.890625,174440.078125,172265.265625,194294.34375,688366.4375,173336.796875,0.071533203125,0.984130859375,-0.20166015625,-1.0681151151657104,-0.5493163466453552,0.4272460639476776,100.0,155953.0,1.0
15:00:33.970376,176950.640625,182571.5625,195861.734375,174436.6875,172264.71875,194310.78125,688251.9375,173336.71875,0.06982421875,0.985107421875,-0.201171875,-0.9155272841453552,-0.5493163466453552,0.4882812201976776,100.0,155954.0,1.0
15:00:33.970383,177020.546875,182590.515625,195881.125,174429.171875,172271.515625,194364.15625,688510.1875,173332.59375,0.070068359375,0.986328125,-0.200439453125,-0.8850097060203552,-0.6103515028953552,0.6103515028953552,100.0,155955.0,1.0
15:00:33.972790,176977.1875,182596.328125,195879.4375,174438.203125,172277.515625,194354.78125,688607.0625,173338.953125,0.068359375,0.989013671875,-0.199951171875,-0.8239745497703552,-0.5798339247703552,0.5493163466453552,100.0,155956.0,1.0
15:00:33.972802,176919.515625,182584.25,195866.015625,174445.359375,172272.328125,194299.96875,688428.0625,173343.953125,0.068603515625,0.98876953125,-0.200927734375,-0.8544921278953552,-0.3967284858226776,0.4577636420726776,100.0,155957.0,1.0
15:00:33.972804,176947.953125,182588.640625,195875.765625,174446.515625,172273.75,194310.15625,688244.875,173346.375,0.06982421875,0.98876953125,-0.2021484375,-0.8239745497703552,-0.3051757514476776,0.4272460639476776,100.0,155958.0,1.0
15:00:33.984714,177030.203125,182592.21875,195892.578125,174443.296875,172277.15625,194358.078125,688460.375,173346.09375,0.068603515625,0.98876953125,-0.202392578125,-0.8239745497703552,-0.2746581733226776,0.4272460639476776,100.0,155959.0,1.0
15:00:33.989263,176990.78125,182599.359375,195884.96875,174443.296875,172277.6875,194364.078125,688605.5,173344.484375,0.069580078125,0.988037109375,-0.201904296875,-0.8239745497703552,-0.2746581733226776,0.4272460639476776,100.0,155960.0,1.0
15:00:33.989271,176918.984375,182576.03125,195858.875,174441.15625,172262.578125,194300.953125,688452.4375,173340.375,0.06982421875,0.98974609375,-0.200439453125,-0.8544921278953552,-0.2136230319738388,0.4272460639476776,100.0,155961.0,1.0
15:00:33.989273,176919.34375,182562.265625,195855.65625,174437.140625,172258.5625,194287.09375,688235.625,173337.421875,0.06787109375,0.992919921875,-0.19921875,-0.8850097060203552,-0.3356933295726776,0.4577636420726776,100.0,155962.0,1.0
15:00:33.998454,177013.578125,182581.9375,195877.015625,174433.734375,172264.984375,194349.859375,688420.0,173338.6875,0.068359375,0.99169921875,-0.20068359375,-0.9460448622703552,-0.3356933295726776,0.3662109076976776,100.0,155963.0,1.0
15:00:34.002798,176986.03125,182578.53125,195869.953125,174428.90625,172263.5625,194354.78125,688607.125,173333.140625,0.06884765625,0.991455078125,-0.20263671875,-1.0375975370407104,-0.2746581733226776,0.2441406100988388,100.0,155964.0,1.0
15:00:34.002808,176914.953125,182563.0625,195848.59375,174429.796875,172254.4375,194297.109375,688489.3125,173331.890625,0.0693359375,0.99169921875,-0.2021484375,-1.0375975370407104,-0.2441406100988388,0.1831054538488388,100.0,155965.0,1.0
15:00:34.008522,176902.890625,182578.796875,195851.0,174431.6875,172256.671875,194302.375,688248.3125,173332.6875,0.06787109375,0.9912109375,-0.201904296875,-1.1901854276657104,-0.1525878757238388,0.2441406100988388,100.0,155966.0,1.0
15:00:34.019089,176991.5,182576.921875,195865.578125,174422.109375,172254.53125,194336.453125,688365.5625,173329.46875,0.0703125,0.99267578125,-0.201171875,-1.1596678495407104,-0.1220703050494194,0.2136230319738388,100.0,155967.0,1.0
15:00:34.019174,176990.328125,182587.203125,195869.6875,174421.21875,172260.34375,194357.640625,688589.875,173327.859375,0.070068359375,0.99365234375,-0.20068359375,-1.1596678495407104,-0.0610351525247097,0.0915527269244194,100.0,155968.0,1.0
15:00:34.025292,176923.28125,182569.0625,195852.34375,174425.421875,172255.515625,194312.125,688525.9375,173329.109375,0.0693359375,0.991455078125,-0.19775390625,-1.1596678495407104,-0.03051757626235485,0.1525878757238388,100.0,155969.0,1.0
15:00:34.025301,176890.734375,182557.96875,195845.546875,174430.609375,172252.5625,194280.5625,688289.4375,173330.015625,0.071044921875,0.990478515625,-0.200439453125,-1.1596678495407104,0.0,0.1220703050494194,100.0,155970.0,1.0
15:00:34.056764,176980.671875,182574.875,195867.0,174427.75,172260.609375,194331.265625,688328.8125,173333.578125,0.070068359375,0.99267578125,-0.202392578125,-1.2207030057907104,0.03051757626235485,0.1525878757238388,100.0,155971.0,1.0
15:00:34.056778,177006.609375,182585.234375,195877.375,174429.359375,172270.453125,194372.921875,688588.375,173336.265625,0.069580078125,0.993896484375,-0.2041015625,-1.3427733182907104,0.0915527269244194,0.2136230319738388,100.0,155972.0,1.0
15:00:34.082877,176939.453125,182571.5625,195858.15625,174428.375,172264.09375,194330.015625,688569.75,173335.015625,0.067626953125,0.993896484375,-0.199951171875,-1.3427733182907104,0.0,0.3967284858226776,100.0,155973.0,1.0
15:00:34.082902,176889.84375,182563.328125,195844.65625,174428.375,172258.90625,194288.34375,688331.5,173332.6875,0.063720703125,0.991455078125,-0.200439453125,-1.4038084745407104,0.03051757626235485,0.4272460639476776,100.0,155974.0,1.0
15:00:34.085323,176956.359375,182570.3125,195856.8125,174425.953125,172258.90625,194322.40625,688282.5,173332.515625,0.06689453125,0.99072265625,-0.202392578125,-1.4343260526657104,-0.03051757626235485,0.4272460639476776,100.0,155975.0,1.0
15:00:34.085338,176999.359375,182572.1875,195863.703125,174419.703125,172258.5625,194362.640625,688550.625,173327.953125,0.068115234375,0.989990234375,-0.199951171875,-1.5258787870407104,0.1525878757238388,0.3356933295726776,100.0,155976.0,1.0
15:00:34.085341,176932.578125,182555.015625,195843.671875,174416.390625,172247.828125,194320.796875,688585.5625,173322.671875,0.0654296875,0.990966796875,-0.20166015625,-1.4953612089157104,0.0915527269244194,0.4577636420726776,100.0,155977.0,1.0
15:00:34.087191,176877.140625,182541.78125,195829.546875,174418.359375,172239.328125,194268.046875,688368.5625,173322.671875,0.066650390625,0.99072265625,-0.20166015625,-1.4343260526657104,0.0,0.3356933295726776,100.0,155978.0,1.0
15:00:34.089790,176929.0,182559.40625,195844.828125,174417.46875,172243.09375,194295.953125,688240.8125,173323.75,0.066650390625,0.99267578125,-0.203369140625,-1.4343260526657104,0.0,0.3967284858226776,100.0,155979.0,1.0
15:00:34.092242,176999.53125,182567.71875,195862.796875,174416.578125,172253.375,194347.171875,688503.875,173326.875,0.06640625,0.98974609375,-0.20263671875,-1.5258787870407104,0.0,0.4577636420726776,100.0,155980.0,1.0
15:00:34.095374,176949.03125,182566.015625,195855.296875,174422.734375,172257.125,194339.390625,688598.0625,173330.1875,0.066162109375,0.9892578125,-0.20166015625,-1.5563963651657104,0.0,0.3356933295726776,100.0,155981.0,1.0
15:00:34.097176,176887.328125,182543.671875,195836.421875,174424.4375,172247.375,194275.375,688407.5,173330.28125,0.065673828125,0.988037109375,-0.19970703125,-1.5869139432907104,-0.03051757626235485,0.3051757514476776,100.0,155982.0,1.0
15:00:34.099689,176915.234375,182547.6875,195844.296875,174423.71875,172249.53125,194286.828125,688228.1875,173332.421875,0.064208984375,0.989013671875,-0.19921875,-1.4648436307907104,-0.03051757626235485,0.5187987685203552,100.0,155983.0,1.0
15:00:34.102207,176995.515625,182564.234375,195858.875,174415.765625,172251.046875,194343.875,688451.1875,173327.0625,0.06494140625,0.98974609375,-0.200439453125,-1.4343260526657104,0.0,0.4882812201976776,100.0,155984.0,1.0
15:00:34.104712,176957.96875,182564.765625,195855.828125,174421.671875,172253.90625,194347.984375,688606.9375,173326.15625,0.06494140625,0.98974609375,-0.19970703125,-1.4343260526657104,-0.0915527269244194,0.4882812201976776,100.0,155985.0,1.0
15:00:34.107306,176889.75,182544.5625,195834.109375,174419.875,172241.390625,194279.765625,688455.875,173322.140625,0.066162109375,0.9912109375,-0.196533203125,-1.5258787870407104,-0.0915527269244194,0.4272460639476776,100.0,155986.0,1.0
15:00:34.110455,176891.09375,182550.8125,195835.796875,174417.46875,172241.484375,194283.15625,688230.6875,173320.265625,0.067138671875,0.990478515625,-0.198974609375,-1.4648436307907104,-0.0915527269244194,0.5187987685203552,100.0,155987.0,1.0
15:00:34.110475,176983.0,182561.09375,195851.265625,174407.0,172242.1875,194338.6875,688409.0,173314.984375,0.067138671875,0.989990234375,-0.19873046875,-1.5563963651657104,0.03051757626235485,0.5493163466453552,100.0,155988.0,1.0
15:00:34.112181,176962.34375,182571.65625,195849.65625,174405.84375,172245.140625,194342.53125,688597.625,173313.46875,0.06689453125,0.989501953125,-0.198486328125,-1.6174315214157104,0.03051757626235485,0.4882812201976776,100.0,155989.0,1.0
15:00:34.115390,176896.984375,182551.53125,195829.359375,174407.09375,172237.453125,194288.609375,688479.0,173313.109375,0.068603515625,0.990234375,-0.2001953125,-1.6174315214157104,0.0610351525247097,0.4577636420726776,100.0,155990.0,1.0
15:00:34.115395,176881.703125,182545.90625,195830.171875,174412.375,172239.515625,194277.890625,688248.9375,173315.703125,0.0673828125,0.989501953125,-0.199462890625,-1.5563963651657104,0.0,0.4272460639476776,100.0,155991.0,1.0
15:00:34.117231,176985.40625,182572.453125,195859.5,174416.296875,172252.296875,194341.09375,688366.625,173322.234375,0.066650390625,0.990234375,-0.199462890625,-1.5869139432907104,0.03051757626235485,0.5798339247703552,100.0,155992.0,1.0
15:00:34.120372,176994.984375,182586.765625,195871.5625,174425.0625,172266.15625,194379.453125,688620.0625,173327.59375,0.066650390625,0.990966796875,-0.200439453125,-1.6174315214157104,0.0915527269244194,0.4882812201976776,100.0,155993.0,1.0
15:00:34.120379,176932.65625,182580.6875,195859.046875,174433.296875,172264.90625,194334.03125,688563.875,173332.953125,0.067626953125,0.990478515625,-0.19775390625,-1.6174315214157104,0.2136230319738388,0.5493163466453552,100.0,155994.0,1.0
15:00:34.122240,176896.28125,182578.09375,195851.359375,174434.359375,172260.34375,194304.890625,688321.375,173331.171875,0.06884765625,0.98974609375,-0.197509765625,-1.5869139432907104,0.1220703050494194,0.6408690810203552,100.0,155995.0,1.0
15:00:34.129698,176980.859375,182590.875,195868.875,174428.28125,172262.484375,194347.890625,688342.3125,173330.359375,0.06982421875,0.99072265625,-0.19921875,-1.6174315214157104,0.1525878757238388,0.6103515028953552,100.0,155996.0,1.0
15:00:34.137801,177002.671875,182588.28125,195872.546875,174423.90625,172264.015625,194377.75,688596.0625,173327.765625,0.067138671875,0.990234375,-0.2001953125,-1.5563963651657104,0.1525878757238388,0.5187987685203552,100.0,155997.0,1.0
15:00:34.137810,176929.625,182563.875,195846.078125,174422.828125,172250.6875,194323.296875,688578.6875,173322.5,0.068115234375,0.98876953125,-0.197265625,-1.5869139432907104,0.1831054538488388,0.5798339247703552,100.0,155998.0,1.0
15:00:34.144053,176876.15625,182549.390625,195829.984375,174419.515625,172239.15625,194272.875,688331.375,173316.59375,0.06884765625,0.990478515625,-0.198486328125,-1.6174315214157104,0.3051757514476776,0.4882812201976776,100.0,155999.0,1.0
15:00:34.144072,176939.09375,182555.28125,195843.3125,174412.453125,172237.71875,194303.359375,688272.8125,173313.46875,0.068115234375,0.989013671875,-0.198974609375,-1.6174315214157104,0.1831054538488388,0.4577636420726776,100.0,156000.0,1.0
15:00:34.151593,176991.3125,182570.046875,195862.09375,174417.546875,172250.859375,194353.703125,688551.125,173320.890625,0.067626953125,0.9892578125,-0.197021484375,-1.5258787870407104,0.2136230319738388,0.5493163466453552,100.0,156001.0,1.0
15:00:34.151601,176926.40625,182554.484375,195843.484375,174418.453125,172244.25,194318.5625,688584.3125,173320.0,0.0673828125,0.99072265625,-0.19775390625,-1.4648436307907104,0.2136230319738388,0.5187987685203552,100.0,156002.0,1.0
15:00:34.154712,176868.015625,182537.59375,195824.8125,174418.453125,172232.53125,194260.625,688365.5625,173318.109375,0.066650390625,0.990234375,-0.200927734375,-1.4343260526657104,0.1525878757238388,0.6103515028953552,100.0,156003.0,1.0
15:00:34.165373,176924.265625,182554.75,195845.453125,174425.6875,172243.0,194292.28125,688235.5625,173327.421875,0.06591796875,0.98828125,-0.198974609375,-1.4953612089157104,0.1220703050494194,0.5798339247703552,100.0,156004.0,1.0
15:00:34.165386,176998.203125,182574.421875,195868.875,174428.546875,172256.3125,194349.59375,688497.3125,173333.9375,0.067138671875,0.991943359375,-0.198486328125,-1.5258787870407104,0.2441406100988388,0.5798339247703552,100.0,156005.0,1.0
15:00:34.167861,176948.21875,182570.84375,195862.171875,174433.921875,172261.0625,194337.78125,688595.3125,173337.875,0.06591796875,0.99267578125,-0.198974609375,-1.4648436307907104,0.2136230319738388,0.6103515028953552,100.0,156006.0,1.0
15:00:34.167875,176886.796875,182557.53125,195845.28125,174438.203125,172253.640625,194280.5625,688406.375,173339.03125,0.06591796875,0.991455078125,-0.19921875,-1.3732908964157104,0.2441406100988388,0.5493163466453552,100.0,156007.0,1.0
15:00:34.173478,176910.578125,182565.390625,195852.25,174437.3125,172254.53125,194293.625,688224.4375,173336.625,0.064453125,0.9912109375,-0.197509765625,-1.4038084745407104,0.2136230319738388,0.6103515028953552,100.0,156008.0,1.0
15:00:34.183447,176995.421875,182578.171875,195869.515625,174431.5,172256.953125,194347.890625,688443.0,173333.671875,0.0634765625,0.99072265625,-0.197998046875,-1.3732908964157104,0.2441406100988388,0.6103515028953552,100.0,156009.0,1.0
15:00:34.186618,176963.953125,182583.09375,195867.625,174435.890625,172261.5,194354.78125,688602.8125,173334.5625,0.064208984375,0.989013671875,-0.19677734375,-1.4648436307907104,0.2136230319738388,0.6103515028953552,100.0,156010.0,1.0
15:00:34.186635,176896.28125,182562.703125,195844.65625,174434.0,172248.90625,194291.5625,688461.75,173331.171875,0.065673828125,0.988037109375,-0.19921875,-1.4343260526657104,0.0915527269244194,0.5493163466453552,100.0,156011.0,1.0
15:00:34.196015,176898.78125,182566.109375,195848.140625,174435.890625,172251.3125,194291.75,688242.1875,173332.953125,0.066650390625,0.989013671875,-0.19970703125,-1.3732908964157104,0.1220703050494194,0.4882812201976776,100.0,156012.0,1.0
15:00:34.200518,176987.296875,182575.9375,195864.328125,174426.578125,172252.65625,194341.546875,688416.875,173329.46875,0.067138671875,0.9873046875,-0.197509765625,-1.3732908964157104,0.1220703050494194,0.5187987685203552,100.0,156013.0,1.0
15:00:34.200527,176961.546875,182575.859375,195859.5,174424.4375,172254.265625,194353.171875,688607.0625,173326.25,0.067626953125,0.98583984375,-0.19775390625,-1.4038084745407104,0.0610351525247097,0.5798339247703552,100.0,156014.0,1.0
15:00:34.209757,176892.25,182560.109375,195838.84375,174425.515625,172246.390625,194294.875,688495.5625,173324.46875,0.0673828125,0.984375,-0.19677734375,-1.3427733182907104,0.0610351525247097,0.4272460639476776,100.0,156015.0,1.0
15:00:34.220329,176877.234375,182563.421875,195840.09375,174430.78125,172249.171875,194283.875,688261.3125,173326.609375,0.066650390625,0.984375,-0.198974609375,-1.1901854276657104,0.0610351525247097,0.3967284858226776,100.0,156016.0,1.0
15:00:34.220338,176969.3125,182572.28125,195856.546875,174422.5625,172249.96875,194333.5,688373.3125,173324.015625,0.066650390625,0.984130859375,-0.201904296875,-1.1596678495407104,0.03051757626235485,0.5187987685203552,100.0,156017.0,1.0
15:00:34.220339,176976.921875,182581.9375,195864.046875,174425.59375,172259.53125,194367.203125,688607.6875,173326.515625,0.064697265625,0.984375,-0.1982421875,-1.2207030057907104,0.0610351525247097,0.5187987685203552,100.0,156018.0,1.0
15:00:34.222270,176909.78125,182564.140625,195844.109375,174428.734375,172252.46875,194314.71875,688545.1875,173326.4375,0.06591796875,0.985595703125,-0.201171875,-0.9765624403953552,0.1220703050494194,0.5187987685203552,100.0,156019.0,1.0
15:00:34.232336,176870.34375,182555.015625,195830.96875,174426.140625,172243.984375,194280.484375,688303.125,173323.390625,0.06591796875,0.986572265625,-0.197998046875,-0.9765624403953552,0.03051757626235485,0.5493163466453552,100.0,156020.0,1.0
15:00:34.236644,176955.375,182570.671875,195849.84375,174423.71875,172246.484375,194324.734375,688315.375,173326.078125,0.0673828125,0.9873046875,-0.198974609375,-1.0375975370407104,0.03051757626235485,0.5187987685203552,100.0,156021.0,1.0
15:00:34.236674,176976.65625,182568.96875,195855.109375,174418.8125,172249.34375,194353.875,688572.0,173323.921875,0.06787109375,0.986572265625,-0.197998046875,-1.0375975370407104,0.0915527269244194,0.6103515028953552,100.0,156022.0,1.0
15:00:34.243595,176904.59375,182553.140625,195836.78125,174418.984375,172242.90625,194308.015625,688567.0625,173323.21875,0.066650390625,0.9853515625,-0.203125,-1.0375975370407104,0.1831054538488388,0.6103515028953552,100.0,156023.0,1.0
15:00:34.247809,176857.375,182543.671875,195824.890625,174420.328125,172237.8125,194265.8125,688323.4375,173322.046875,0.067138671875,0.989501953125,-0.205078125,-0.9155272841453552,0.1831054538488388,0.5798339247703552,100.0,156024.0,1.0
15:00:34.247833,176927.5625,182552.78125,195840.71875,174418.1875,172240.9375,194299.609375,688263.375,173323.03125,0.068603515625,0.989501953125,-0.203369140625,-0.9460448622703552,0.1220703050494194,0.4577636420726776,100.0,156025.0,1.0
15:00:34.250458,176984.78125,182569.140625,195862.0,174423.71875,172254.703125,194354.328125,688532.625,173328.84375,0.0693359375,0.991943359375,-0.203369140625,-0.9155272841453552,0.1220703050494194,0.4577636420726776,100.0,156026.0,1.0
15:00:34.250488,176928.453125,182563.609375,195851.453125,174428.1875,172254.53125,194328.671875,688583.875,173330.015625,0.0693359375,0.993896484375,-0.20458984375,-0.9155272841453552,0.1525878757238388,0.5187987685203552,100.0,156027.0,1.0
15:00:34.261058,176872.484375,182550.015625,195834.453125,174429.71875,172246.65625,194276.1875,688379.375,173329.828125,0.06982421875,0.991943359375,-0.20458984375,-0.9765624403953552,0.2136230319738388,0.4272460639476776,100.0,156028.0,1.0
15:00:34.265310,176919.34375,182560.296875,195843.84375,174426.578125,172245.5,194299.25,688237.625,173329.203125,0.0693359375,0.992431640625,-0.2021484375,-1.0070799589157104,0.2441406100988388,0.5493163466453552,100.0,156029.0,1.0
15:00:34.265337,176993.09375,182576.65625,195860.921875,174427.390625,172252.46875,194353.171875,688494.5,173331.796875,0.068115234375,0.989990234375,-0.201416015625,-1.0375975370407104,0.2441406100988388,0.3967284858226776,100.0,156030.0,1.0
15:00:34.265344,176946.15625,182573.4375,195853.5,174434.28125,172255.15625,194341.09375,688602.625,173334.75,0.069091796875,0.989013671875,-0.201416015625,-1.0375975370407104,0.2746581733226776,0.5798339247703552,100.0,156031.0,1.0
15:00:34.272300,176877.953125,182550.1875,195830.078125,174432.84375,172240.046875,194274.578125,688419.75,173327.328125,0.0654296875,0.989501953125,-0.2001953125,-0.9155272841453552,0.1831054538488388,0.5493163466453552,100.0,156032.0,1.0
15:00:34.277879,176902.796875,182562.265625,195839.5625,174431.140625,172241.296875,194290.578125,688231.0,173328.671875,0.061279296875,0.990234375,-0.19970703125,-1.0375975370407104,0.1220703050494194,0.4577636420726776,100.0,156033.0,1.0
15:00:34.277916,176991.21875,182584.609375,195861.109375,174425.875,172249.4375,194356.46875,688462.3125,173328.84375,0.061279296875,0.993896484375,-0.200927734375,-1.0986326932907104,0.1525878757238388,0.3662109076976776,100.0,156034.0,1.0
15:00:34.283476,176951.53125,182576.75,195851.359375,174425.6875,172249.609375,194353.34375,688610.0,173327.234375,0.060791015625,0.99609375,-0.20263671875,-1.1596678495407104,0.03051757626235485,0.1220703050494194,100.0,156035.0,1.0
15:00:34.290401,176880.453125,182544.375,195825.78125,174423.28125,172236.375,194276.546875,688461.3125,173324.375,0.06005859375,0.998291015625,-0.197998046875,-1.1901854276657104,-0.0915527269244194,0.1220703050494194,100.0,156036.0,1.0
15:00:34.290444,176880.09375,182550.640625,195827.84375,174424.171875,172237.453125,194276.640625,688236.8125,173325.53125,0.06201171875,0.997314453125,-0.197509765625,-1.4343260526657104,-0.1525878757238388,0.03051757626235485,100.0,156037.0,1.0
15:00:34.292330,176976.109375,182569.140625,195848.9375,174419.796875,172242.640625,194334.21875,688406.375,173324.734375,0.06298828125,0.99951171875,-0.19677734375,-1.5258787870407104,-0.2136230319738388,0.0915527269244194,100.0,156038.0,1.0
15:00:34.304857,176961.359375,182578.625,195851.0,174419.609375,172247.5625,194352.09375,688609.6875,173323.84375,0.0654296875,1.00048828125,-0.197509765625,-1.6479490995407104,-0.1831054538488388,0.0,100.0,156039.0,1.0
15:00:34.307899,176893.5,182558.15625,195830.703125,174421.046875,172237.28125,194290.578125,688499.5625,173324.203125,0.066162109375,0.99853515625,-0.19384765625,-1.8615721464157104,-0.1831054538488388,0.0915527269244194,100.0,156040.0,1.0
15:00:34.307943,176874.453125,182554.21875,195828.921875,174422.203125,172236.375,194272.609375,688256.125,173324.28125,0.0673828125,0.998046875,-0.193603515625,-1.9531248807907104,-0.1831054538488388,0.2746581733226776,100.0,156041.0,1.0
15:00:34.313576,176967.703125,182567.1875,195849.921875,174415.140625,172239.78125,194323.484375,688358.1875,173322.5,0.068115234375,0.99755859375,-0.1953125,-2.014159917831421,-0.2136230319738388,0.4272460639476776,100.0,156042.0,1.0
15:00:34.317910,176973.4375,182578.09375,195857.265625,174418.0,172248.453125,194354.421875,688600.4375,173322.9375,0.0673828125,0.997314453125,-0.195068359375,-2.136230230331421,-0.2136230319738388,0.4272460639476776,100.0,156043.0,1.0
15:00:34.317961,176914.15625,182572.453125,195848.046875,174432.3125,172251.84375,194309.453125,688553.0,173333.5,0.067626953125,0.993896484375,-0.196044921875,-2.258300542831421,-0.1831054538488388,0.6103515028953552,100.0,156044.0,1.0
15:00:34.324790,176881.703125,182571.375,195843.9375,174435.53125,172252.03125,194278.953125,688310.5625,173335.734375,0.067138671875,0.992919921875,-0.192626953125,-2.288818120956421,-0.1525878757238388,0.7934569716453552,100.0,156045.0,1.0
15:00:34.329067,176965.5625,182582.828125,195860.921875,174430.15625,172255.421875,194322.328125,688318.6875,173336.09375,0.06787109375,0.990478515625,-0.194580078125,-2.380370855331421,0.03051757626235485,0.8544921278953552,100.0,156046.0,1.0
15:00:34.329097,176995.515625,182591.3125,195871.828125,174432.390625,172264.8125,194366.578125,688580.3125,173337.515625,0.06787109375,0.989501953125,-0.19580078125,-2.380370855331421,0.0,0.9155272841453552,100.0,156047.0,1.0
15:00:34.335989,176926.765625,182576.5625,195851.890625,174433.46875,172256.5,194323.484375,688581.625,173334.5625,0.0654296875,0.989990234375,-0.196044921875,-2.349853277206421,-0.0610351525247097,0.9765624403953552,100.0,156048.0,1.0
15:00:34.340280,176879.015625,182565.578125,195838.484375,174435.96875,172248.453125,194277.171875,688349.375,173333.3125,0.0654296875,0.98828125,-0.194091796875,-2.319335699081421,-0.0915527269244194,0.9155272841453552,100.0,156049.0,1.0
15:00:34.340306,176945.0,182575.046875,195851.453125,174431.0625,172249.875,194309.453125,688279.1875,173332.15625,0.062744140625,0.987548828125,-0.1923828125,-2.258300542831421,-0.1220703050494194,0.9460448622703552,100.0,156050.0,1.0
15:00:34.348482,176996.59375,182582.640625,195865.125,174429.984375,172258.640625,194354.78125,688546.75,173331.4375,0.06396484375,0.986572265625,-0.195068359375,-2.197265386581421,-0.0610351525247097,0.9765624403953552,100.0,156051.0,1.0
15:00:34.355371,176938.03125,182573.609375,195853.859375,174434.1875,172260.4375,194330.453125,688608.625,173334.75,0.064697265625,0.984619140625,-0.19189453125,-2.197265386581421,-0.1525878757238388,0.9460448622703552,100.0,156052.0,1.0
15:00:34.355398,176880.453125,182563.78125,195838.21875,174432.84375,172253.375,194280.03125,688382.875,173333.859375,0.064453125,0.984130859375,-0.192138671875,-2.227782964706421,-0.1220703050494194,0.7629393935203552,100.0,156053.0,1.0
15:00:34.362956,176924.796875,182578.09375,195850.203125,174427.921875,172254.53125,194309.890625,688251.9375,173332.25,0.064208984375,0.9833984375,-0.1943359375,-2.105712652206421,-0.2136230319738388,0.7934569716453552,100.0,156054.0,1.0
15:00:34.362980,176996.5,182592.921875,195867.546875,174423.09375,172260.96875,194366.84375,688507.875,173331.265625,0.065185546875,0.982666015625,-0.196044921875,-1.8920897245407104,-0.1525878757238388,0.7934569716453552,100.0,156055.0,1.0
15:00:34.368526,176945.890625,182578.359375,195854.671875,174423.984375,172257.84375,194343.421875,688620.625,173330.015625,0.066162109375,0.982177734375,-0.194580078125,-1.7700194120407104,-0.1525878757238388,0.6713866591453552,100.0,156056.0,1.0
15:00:34.372828,176879.90625,182564.40625,195832.5,174422.46875,172244.78125,194287.359375,688433.25,173326.703125,0.0693359375,0.98193359375,-0.194091796875,-1.5869139432907104,-0.1525878757238388,0.6103515028953552,100.0,156057.0,1.0
15:00:34.372849,176899.21875,182569.59375,195835.53125,174420.0625,172241.296875,194297.203125,688239.5,173323.84375,0.069091796875,0.981689453125,-0.193603515625,-1.3732908964157104,-0.1220703050494194,0.5187987685203552,100.0,156058.0,1.0
15:00:34.384823,176983.265625,182580.328125,195852.609375,174412.375,172243.984375,194349.59375,688461.3125,173320.890625,0.069091796875,0.981201171875,-0.19384765625,-1.2512205839157104,-0.1220703050494194,0.3967284858226776,100.0,156059.0,1.0
15:00:34.389083,176945.359375,182576.390625,195845.640625,174411.203125,172246.03125,194350.125,688626.8125,173319.71875,0.07080078125,0.980712890625,-0.194091796875,-1.1291502714157104,-0.1525878757238388,0.3662109076976776,100.0,156060.0,1.0
15:00:34.389108,176880.1875,182560.46875,195826.859375,174417.28125,172238.796875,194290.3125,688477.8125,173321.421875,0.069580078125,0.982421875,-0.195068359375,-1.0375975370407104,0.0,0.3967284858226776,100.0,156061.0,1.0
15:00:34.395332,176888.5,182586.40625,195837.5,174423.71875,172246.484375,194298.8125,688249.5625,173324.734375,0.0712890625,0.983642578125,-0.193603515625,-0.8239745497703552,0.03051757626235485,0.3967284858226776,100.0,156062.0,1.0
15:00:34.395353,176982.375,182580.140625,195856.1875,174417.28125,172249.25,194344.046875,688429.375,173323.578125,0.071044921875,0.985595703125,-0.195556640625,-0.8239745497703552,0.0915527269244194,0.2136230319738388,100.0,156063.0,1.0
15:00:34.419835,176974.234375,182590.78125,195865.3125,174426.765625,172261.78125,194369.34375,688633.6875,173329.296875,0.0703125,0.986083984375,-0.195556640625,-0.7629393935203552,0.2136230319738388,0.2136230319738388,100.0,156064.0,1.0
15:00:34.449138,176913.53125,182582.5625,195851.984375,174435.609375,172259.8125,194317.40625,688524.6875,173333.765625,0.069580078125,0.984619140625,-0.1923828125,-0.6103515028953552,0.1831054538488388,0.3356933295726776,100.0,156065.0,1.0
15:00:34.449192,176892.421875,182582.734375,195847.875,174436.15625,172258.640625,194301.9375,688279.0625,173334.296875,0.069580078125,0.98486328125,-0.195068359375,-0.5187987685203552,0.3051757514476776,0.3356933295726776,100.0,156066.0,1.0
15:00:34.476586,176980.046875,182586.765625,195862.796875,174427.5625,172259.71875,194346.734375,688365.8125,173333.046875,0.0693359375,0.985595703125,-0.197265625,-0.4577636420726776,0.2746581733226776,0.4272460639476776,100.0,156067.0,1.0
15:00:34.476605,176985.234375,182592.578125,195864.859375,174427.03125,172264.1875,194375.421875,688604.0,173332.0625,0.068359375,0.98974609375,-0.19580078125,-0.3356933295726776,0.3662109076976776,0.2746581733226776,100.0,156068.0,1.0
15:00:34.476610,176915.234375,182574.875,195843.40625,174430.421875,172254.265625,194320.984375,688547.375,173332.515625,0.067138671875,0.989013671875,-0.198486328125,-0.2441406100988388,0.3356933295726776,0.3967284858226776,100.0,156069.0,1.0
15:00:34.479119,176879.546875,182562.4375,195838.03125,174438.75,172252.46875,194285.21875,688305.625,173336.984375,0.065185546875,0.988037109375,-0.19970703125,-0.1220703050494194,0.4882812201976776,0.4577636420726776,100.0,156070.0,1.0
15:00:34.479138,176963.0625,182578.796875,195857.34375,174438.125,172257.125,194327.6875,688311.375,173339.84375,0.064208984375,0.990234375,-0.19970703125,-0.1220703050494194,0.3967284858226776,0.4882812201976776,100.0,156071.0,1.0
15:00:34.479142,176989.25,182586.40625,195863.515625,174431.953125,172261.421875,194366.9375,688568.125,173337.15625,0.062744140625,0.99072265625,-0.19873046875,-0.0610351525247097,0.3662109076976776,0.3967284858226776,100.0,156072.0,1.0
15:00:34.481629,176920.953125,182573.53125,195843.40625,174431.5,172254.703125,194327.328125,688559.5625,173335.375,0.062255859375,0.9931640625,-0.19921875,0.0,0.3051757514476776,0.3356933295726776,100.0,156073.0,1.0
15:00:34.481647,176869.265625,182558.953125,195828.203125,174429.984375,172245.5,194274.3125,688314.5,173333.578125,0.06298828125,0.991943359375,-0.198974609375,0.0915527269244194,0.2746581733226776,0.3356933295726776,100.0,156074.0,1.0
15:00:34.485953,176937.046875,182564.671875,195844.46875,174429.53125,172248.1875,194302.203125,688248.5,173335.640625,0.0625,0.992431640625,-0.20166015625,0.1525878757238388,0.1220703050494194,0.4882812201976776,100.0,156075.0,1.0
15:00:34.488487,176988.8125,182579.421875,195857.34375,174424.96875,172254.4375,194354.59375,688521.5,173333.234375,0.062744140625,0.992431640625,-0.20458984375,0.03051757626235485,0.1831054538488388,0.4272460639476776,100.0,156076.0,1.0
15:00:34.491087,176926.21875,182568.875,195839.640625,174420.765625,172248.265625,194324.28125,688576.75,173328.484375,0.064453125,0.9912109375,-0.20263671875,0.0610351525247097,0.0610351525247097,0.4272460639476776,100.0,156077.0,1.0
15:00:34.493633,176866.328125,182555.640625,195820.78125,174419.796875,172238.609375,194268.046875,688365.8125,173325.984375,0.0634765625,0.9931640625,-0.203125,0.0,0.0,0.4577636420726776,100.0,156078.0,1.0
15:00:34.496104,176912.8125,182569.59375,195836.421875,174421.21875,172243.265625,194295.3125,688220.5,173327.859375,0.065185546875,0.9931640625,-0.203369140625,0.0,-0.2136230319738388,0.5187987685203552,100.0,156079.0,1.0
15:00:34.498676,176989.703125,182583.1875,195857.53125,174422.734375,172253.015625,194352.09375,688478.4375,173330.546875,0.063232421875,0.99267578125,-0.2041015625,0.03051757626235485,-0.2136230319738388,0.5493163466453552,100.0,156080.0,1.0
15:00:34.501125,176941.875,182574.0625,195845.90625,174425.875,172252.203125,194337.34375,688585.1875,173330.28125,0.063720703125,0.994873046875,-0.203369140625,-0.0610351525247097,-0.2441406100988388,0.5798339247703552,100.0,156081.0,1.0
15:00:34.503670,176875.890625,182558.5,195825.96875,174426.578125,172241.484375,194279.9375,688413.375,173328.046875,0.06494140625,0.99658203125,-0.203125,-0.1525878757238388,-0.2441406100988388,0.6408690810203552,100.0,156082.0,1.0
15:00:34.505990,176896.1875,182564.140625,195832.5,174426.140625,172240.9375,194286.828125,688218.8125,173327.5,0.064697265625,0.99267578125,-0.19970703125,-0.2746581733226776,-0.1525878757238388,0.7629393935203552,100.0,156083.0,1.0
15:00:34.508678,176980.9375,182573.609375,195847.78125,174417.828125,172241.921875,194337.34375,688437.0,173323.03125,0.06689453125,0.994873046875,-0.202392578125,-0.3051757514476776,-0.1831054538488388,0.7629393935203552,100.0,156084.0,1.0
15:00:34.511153,176943.921875,182574.328125,195841.171875,174418.625,172242.90625,194342.078125,688594.3125,173320.359375,0.06689453125,0.994873046875,-0.201416015625,-0.3356933295726776,-0.2441406100988388,0.6408690810203552,100.0,156085.0,1.0
15:00:34.513682,176871.421875,182561.28125,195815.953125,174413.4375,172229.140625,194277.796875,688452.625,173313.015625,0.068359375,0.995361328125,-0.201904296875,-0.3662109076976776,-0.2746581733226776,0.7934569716453552,100.0,156086.0,1.0
15:00:34.516172,176871.6875,182567.890625,195822.21875,174416.75,172232.625,194275.921875,688222.375,173316.234375,0.068359375,0.99560546875,-0.202880859375,-0.4577636420726776,-0.2136230319738388,0.7934569716453552,100.0,156087.0,1.0
15:00:34.519149,176963.328125,182556.453125,195840.09375,174415.5,172234.765625,194318.203125,688380.9375,173318.296875,0.06689453125,0.994140625,-0.20263671875,-0.4882812201976776,-0.1831054538488388,0.7629393935203552,100.0,156088.0,1.0
15:00:34.519236,176954.5625,182572.453125,195847.0625,174418.359375,172245.046875,194341.1875,688592.1875,173322.40625,0.064697265625,0.99072265625,-0.20361328125,-0.7019042372703552,-0.1831054538488388,0.7934569716453552,100.0,156089.0,1.0
15:00:34.521684,176885.09375,182553.765625,195824.0,174415.3125,172235.046875,194280.921875,688493.125,173319.28125,0.067626953125,0.986328125,-0.201171875,-0.8239745497703552,-0.1525878757238388,0.8544921278953552,100.0,156090.0,1.0
15:00:34.521754,176862.03125,182556.453125,195820.25,174414.0625,172233.703125,194262.234375,688249.9375,173318.921875,0.067138671875,0.986572265625,-0.203125,-0.7019042372703552,-0.2136230319738388,0.8544921278953552,100.0,156091.0,1.0
15:00:34.523618,176955.46875,182568.25,195839.375,174407.90625,172237.546875,194313.109375,688334.0,173318.46875,0.06787109375,0.98828125,-0.20556640625,-0.7934569716453552,-0.1831054538488388,0.8850097060203552,100.0,156092.0,1.0
15:00:34.526665,176965.03125,182573.171875,195845.71875,174408.078125,172243.09375,194345.296875,688577.0,173317.671875,0.07080078125,0.991943359375,-0.203369140625,-0.7629393935203552,-0.1525878757238388,0.9765624403953552,100.0,156093.0,1.0
15:00:34.526700,176899.84375,182557.171875,195827.671875,174414.609375,172236.828125,194292.1875,688532.3125,173318.75,0.07080078125,0.992431640625,-0.205322265625,-0.7629393935203552,-0.0610351525247097,0.8850097060203552,100.0,156094.0,1.0
15:00:34.528458,176864.71875,182554.84375,195821.765625,174421.75,172233.875,194260.625,688296.25,173321.609375,0.070068359375,0.989990234375,-0.205322265625,-0.7934569716453552,0.03051757626235485,0.8850097060203552,100.0,156095.0,1.0
15:00:34.530980,176949.46875,182572.546875,195842.953125,174421.578125,172239.421875,194308.109375,688299.0,173324.203125,0.06884765625,0.987548828125,-0.201904296875,-0.8239745497703552,0.2136230319738388,0.9155272841453552,100.0,156096.0,1.0
15:00:34.535298,176980.3125,182586.9375,195853.5,174419.15625,172245.140625,194350.84375,688565.0,173321.96875,0.06884765625,0.983642578125,-0.201171875,-0.7934569716453552,0.2441406100988388,0.9460448622703552,100.0,156097.0,1.0
15:00:34.535322,176913.34375,182564.859375,195835.09375,174420.859375,172238.796875,194305.875,688570.4375,173320.984375,0.069091796875,0.984375,-0.206298828125,-0.7324218153953552,0.2746581733226776,0.8544921278953552,100.0,156098.0,1.0
15:00:34.545362,176862.921875,182547.953125,195820.609375,174423.640625,172231.734375,194253.203125,688343.0,173320.171875,0.069091796875,0.984130859375,-0.206298828125,-0.7629393935203552,0.2136230319738388,0.8239745497703552,100.0,156099.0,1.0
15:00:34.545376,176929.625,182569.140625,195837.5,174419.25,172236.46875,194293.984375,688266.9375,173321.15625,0.06689453125,0.98486328125,-0.20458984375,-0.8239745497703552,0.2441406100988388,0.7629393935203552,100.0,156100.0,1.0
15:00:34.547786,176985.40625,182587.296875,195855.109375,174418.984375,172247.109375,194351.46875,688541.5,173322.765625,0.065185546875,0.989501953125,-0.203369140625,-0.7629393935203552,0.2746581733226776,0.7629393935203552,100.0,156101.0,1.0
15:00:34.547795,176923.453125,182572.359375,195837.671875,174416.921875,172241.921875,194320.890625,688598.1875,173318.390625,0.06640625,0.988525390625,-0.2060546875,-0.9155272841453552,0.2136230319738388,0.7019042372703552,100.0,156102.0,1.0
15:00:34.557432,176859.890625,182547.953125,195813.984375,174413.078125,172227.625,194257.140625,688382.875,173313.203125,0.067138671875,0.990478515625,-0.207763671875,-0.8850097060203552,0.2441406100988388,0.5798339247703552,100.0,156103.0,1.0
15:00:34.560397,176901.640625,182554.125,195822.75,174412.015625,172226.8125,194278.25,688241.625,173314.265625,0.066650390625,0.989990234375,-0.2041015625,-0.9765624403953552,0.1831054538488388,0.5798339247703552,100.0,156104.0,1.0
15:00:34.560409,176976.46875,182567.359375,195838.9375,174407.625,172230.921875,194330.71875,688507.5,173314.265625,0.06689453125,0.98876953125,-0.205810546875,-0.9155272841453552,0.2136230319738388,0.5187987685203552,100.0,156105.0,1.0
15:00:34.563505,176934.453125,182569.421875,195835.53125,174418.53125,172237.09375,194326.078125,688623.3125,173320.4375,0.06640625,0.9892578125,-0.204833984375,-0.9460448622703552,0.2746581733226776,0.4882812201976776,100.0,156106.0,1.0
15:00:34.578601,176869.0,182553.328125,195818.015625,174420.59375,172228.515625,194267.609375,688435.4375,173319.546875,0.06689453125,0.99169921875,-0.207275390625,-0.8850097060203552,0.1831054538488388,0.3967284858226776,100.0,156107.0,1.0
15:00:34.581709,176888.5,182559.578125,195825.34375,174420.140625,172230.390625,194275.921875,688238.3125,173319.90625,0.069091796875,0.98974609375,-0.20361328125,-1.0375975370407104,0.1525878757238388,0.3662109076976776,100.0,156108.0,1.0
15:00:34.581723,176968.78125,182562.890625,195835.359375,174406.734375,172225.46875,194321.15625,688448.5,173309.0,0.068359375,0.989501953125,-0.20654296875,-1.0986326932907104,0.1525878757238388,0.3662109076976776,100.0,156109.0,1.0
15:00:34.584799,176935.34375,182564.40625,195831.234375,174404.765625,172228.328125,194324.109375,688615.375,173305.515625,0.070556640625,0.990966796875,-0.205810546875,-1.0986326932907104,0.1525878757238388,0.4882812201976776,100.0,156110.0,1.0
15:00:34.588573,176873.46875,182551.890625,195817.296875,174410.9375,172225.65625,194268.765625,688466.3125,173310.34375,0.068603515625,0.99267578125,-0.20947265625,-1.1291502714157104,0.2746581733226776,0.5187987685203552,100.0,156111.0,1.0
15:00:34.600987,176877.234375,182558.6875,195823.90625,174416.578125,172231.109375,194269.390625,688241.1875,173315.796875,0.068603515625,0.99365234375,-0.206787109375,-1.2207030057907104,0.3356933295726776,0.5798339247703552,100.0,156112.0,1.0
15:00:34.604053,176973.796875,182569.59375,195845.375,174415.40625,172236.921875,194323.390625,688414.5625,173319.375,0.06787109375,0.9931640625,-0.20703125,-1.1596678495407104,0.3051757514476776,0.6408690810203552,100.0,156113.0,1.0
15:00:34.604090,176963.6875,182571.828125,195849.125,174421.9375,172245.046875,194342.265625,688625.625,173324.375,0.064697265625,0.993896484375,-0.206787109375,-1.2817381620407104,0.3662109076976776,0.7629393935203552,100.0,156114.0,1.0
15:00:34.605971,176896.0,182557.53125,195829.8125,174426.40625,172237.71875,194283.875,688522.5625,173326.609375,0.064208984375,0.992919921875,-0.21044921875,-1.2512205839157104,0.2441406100988388,0.7934569716453552,100.0,156115.0,1.0
15:00:34.608424,176874.09375,182559.578125,195828.5625,174429.71875,172238.4375,194268.140625,688276.0625,173328.3125,0.065185546875,0.992919921875,-0.206787109375,-1.3732908964157104,0.2136230319738388,0.8544921278953552,100.0,156116.0,1.0
15:00:34.610941,176968.78125,182577.46875,195852.515625,174426.765625,172246.84375,194328.125,688352.9375,173330.1875,0.065185546875,0.99365234375,-0.20703125,-1.4648436307907104,0.2746581733226776,0.8850097060203552,100.0,156117.0,1.0
15:00:34.617435,176983.53125,182613.5,195865.484375,174429.0,172258.90625,194382.21875,688599.0625,173330.546875,0.0654296875,0.99365234375,-0.205322265625,-1.6174315214157104,0.1831054538488388,0.7934569716453552,100.0,156118.0,1.0
15:00:34.624205,176915.859375,182585.421875,195844.203125,174431.59375,172247.5625,194310.515625,688558.3125,173330.640625,0.064208984375,0.991455078125,-0.2060546875,-1.5869139432907104,0.1525878757238388,0.7629393935203552,100.0,156119.0,1.0
15:00:34.624254,176874.90625,182553.328125,195832.046875,174433.828125,172240.671875,194261.4375,688316.8125,173330.09375,0.06494140625,0.993896484375,-0.205078125,-1.6174315214157104,0.1831054538488388,0.8544921278953552,100.0,156120.0,1.0
15:00:34.631699,176950.1875,182568.515625,195843.578125,174422.5625,172238.34375,194306.765625,688300.875,173323.578125,0.06591796875,0.9931640625,-0.2041015625,-1.7395018339157104,0.1525878757238388,0.7934569716453552,100.0,156121.0,1.0
15:00:34.631724,176977.984375,182577.28125,195850.28125,174418.984375,172242.015625,194350.9375,688564.5625,173321.328125,0.065673828125,0.990234375,-0.20458984375,-1.8005369901657104,0.0915527269244194,0.7629393935203552,100.0,156122.0,1.0
15:00:34.637854,176907.71875,182559.046875,195830.34375,174417.734375,172233.703125,194308.28125,688581.625,173318.65625,0.065673828125,0.991943359375,-0.20654296875,-1.9531248807907104,0.03051757626235485,0.7019042372703552,100.0,156123.0,1.0
15:00:34.637873,176849.78125,182540.359375,195811.125,174410.484375,172221.890625,194253.921875,688338.625,173311.234375,0.066162109375,0.9921875,-0.2041015625,-1.9836424589157104,0.03051757626235485,0.7019042372703552,100.0,156124.0,1.0
15:00:34.639758,176915.40625,182552.609375,195825.34375,174407.625,172224.9375,194289.234375,688260.3125,173312.84375,0.068115234375,0.992431640625,-0.20947265625,-2.014159917831421,-0.0610351525247097,0.6713866591453552,100.0,156125.0,1.0
15:00:34.649772,176972.53125,182568.515625,195843.671875,174407.625,172234.6875,194342.53125,688526.1875,173314.0,0.06689453125,0.991455078125,-0.202880859375,-2.044677495956421,-0.03051757626235485,0.6408690810203552,100.0,156126.0,1.0
15:00:34.654094,176916.484375,182559.578125,195831.953125,174411.65625,172234.234375,194316.6875,688598.8125,173313.640625,0.06787109375,0.99072265625,-0.2041015625,-2.105712652206421,0.1525878757238388,0.6408690810203552,100.0,156127.0,1.0
15:00:34.654105,176858.28125,182547.875,195815.234375,174413.53125,172226.09375,194263.9375,688385.6875,173312.578125,0.069580078125,0.99072265625,-0.203369140625,-2.197265386581421,0.1525878757238388,0.6103515028953552,100.0,156128.0,1.0
15:00:34.659813,176901.375,182557.078125,195825.34375,174412.734375,172226.8125,194284.6875,688238.4375,173313.921875,0.0693359375,0.989501953125,-0.201416015625,-2.258300542831421,0.1831054538488388,0.4577636420726776,100.0,156129.0,1.0
15:00:34.670413,176978.625,182573.171875,195846.53125,174413.4375,172236.203125,194341.359375,688503.4375,173317.40625,0.070068359375,0.987548828125,-0.2001953125,-2.258300542831421,0.2441406100988388,0.3356933295726776,100.0,156130.0,1.0
15:00:34.670424,176936.5,182570.40625,195845.453125,174423.90625,172243.53125,194333.859375,688620.375,173324.90625,0.068359375,0.98974609375,-0.201171875,-2.288818120956421,0.1525878757238388,0.2746581733226776,100.0,156131.0,1.0
15:00:34.672261,176876.78125,182551.71875,195827.9375,174427.125,172234.59375,194270.46875,688426.4375,173326.875,0.068603515625,0.986572265625,-0.200439453125,-2.288818120956421,0.2441406100988388,0.3356933295726776,100.0,156132.0,1.0
15:00:34.675969,176894.484375,182553.859375,195830.703125,174423.1875,172231.46875,194273.140625,688226.875,173322.046875,0.068359375,0.988037109375,-0.2021484375,-2.197265386581421,0.2746581733226776,0.3356933295726776,100.0,156133.0,1.0
15:00:34.691710,176982.546875,182565.578125,195848.5,174416.75,172233.703125,194323.484375,688451.4375,173318.03125,0.066162109375,0.98681640625,-0.200927734375,-2.349853277206421,0.3051757514476776,0.2136230319738388,100.0,156134.0,1.0
15:00:34.691736,176950.1875,182568.515625,195843.84375,174416.921875,172236.734375,194331.0,688618.75,173319.09375,0.06689453125,0.9873046875,-0.200927734375,-2.288818120956421,0.3967284858226776,0.2746581733226776,100.0,156135.0,1.0
15:00:34.717412,176879.28125,182547.421875,195820.328125,174417.640625,172225.46875,194269.65625,688469.875,173319.546875,0.06787109375,0.989013671875,-0.201416015625,-2.136230230331421,0.3967284858226776,0.1831054538488388,100.0,156136.0,1.0
15:00:34.717424,176869.359375,182546.171875,195815.6875,174416.125,172221.0,194264.828125,688235.5625,173316.15625,0.06787109375,0.98681640625,-0.20166015625,-2.075195074081421,0.4577636420726776,0.1831054538488388,100.0,156137.0,1.0
15:00:34.717426,176962.609375,182560.921875,195832.9375,174410.84375,172224.9375,194318.5625,688384.75,173316.0625,0.06591796875,0.98486328125,-0.199462890625,-2.105712652206421,0.3967284858226776,0.1525878757238388,100.0,156138.0,1.0
15:00:34.717428,176950.546875,182566.640625,195834.453125,174411.828125,172230.296875,194341.625,688604.875,173316.59375,0.065673828125,0.984130859375,-0.202880859375,-2.075195074081421,0.3051757514476776,0.1831054538488388,100.0,156139.0,1.0
15:00:34.717430,176881.796875,182545.71875,195812.640625,174415.234375,172219.65625,194281.8125,688507.6875,173316.6875,0.066162109375,0.984619140625,-0.20166015625,-2.014159917831421,0.2746581733226776,0.0915527269244194,100.0,156140.0,1.0
15:00:34.721595,176857.375,182546.34375,195809.15625,174416.484375,172217.609375,194262.953125,688257.0625,173314.984375,0.065185546875,0.9853515625,-0.1962890625,-1.8920897245407104,0.2441406100988388,0.03051757626235485,100.0,156141.0,1.0
15:00:34.721662,176951.265625,182560.46875,195831.59375,174413.4375,172223.15625,194310.703125,688344.1875,173317.046875,0.064697265625,0.986083984375,-0.19921875,-1.8310545682907104,0.1525878757238388,0.2136230319738388,100.0,156142.0,1.0
15:00:34.721685,176957.875,182563.96875,195835.984375,174412.09375,172228.515625,194340.203125,688589.9375,173315.53125,0.0634765625,0.98681640625,-0.197021484375,-1.8310545682907104,0.1525878757238388,0.1525878757238388,100.0,156143.0,1.0
15:00:34.721706,176886.4375,182545.28125,195812.828125,174408.078125,172218.671875,194287.71875,688536.5,173312.21875,0.065185546875,0.9873046875,-0.2021484375,-1.8615721464157104,0.2441406100988388,0.0915527269244194,100.0,156144.0,1.0
15:00:34.723457,176850.859375,182545.1875,195809.15625,174411.828125,172218.046875,194260.1875,688289.125,173314.453125,0.0634765625,0.98583984375,-0.20263671875,-1.7089842557907104,0.1525878757238388,0.1220703050494194,100.0,156145.0,1.0
15:00:34.725967,176939.1875,182566.015625,195834.640625,174415.234375,172227.53125,194309.625,688290.8125,173321.328125,0.06298828125,0.987060546875,-0.201416015625,-1.6174315214157104,0.0610351525247097,0.1525878757238388,100.0,156146.0,1.0
15:00:34.732288,176976.734375,182584.078125,195850.109375,174417.015625,172238.171875,194357.90625,688561.0,173322.9375,0.063720703125,0.98681640625,-0.202392578125,-1.5258787870407104,-0.03051757626235485,0.2746581733226776,100.0,156147.0,1.0
15:00:34.736641,176903.875,182562.0,195824.71875,174409.78125,172226.375,194313.203125,688567.0625,173313.5625,0.064697265625,0.98681640625,-0.199951171875,-1.5563963651657104,-0.0610351525247097,0.2746581733226776,100.0,156148.0,1.0
15:00:34.736656,176853.625,182551.796875,195812.015625,174412.375,172221.0,194266.53125,688332.625,173314.09375,0.06494140625,0.987060546875,-0.19873046875,-1.4648436307907104,-0.0610351525247097,0.2746581733226776,100.0,156149.0,1.0
15:00:34.746017,176923.71875,182568.4375,195834.734375,174415.5,172230.296875,194303.015625,688263.5,173322.859375,0.062744140625,0.98876953125,-0.197509765625,-1.4038084745407104,-0.0610351525247097,0.2746581733226776,100.0,156150.0,1.0
15:00:34.750401,176977.90625,182576.75,195847.6875,174413.890625,172235.484375,194345.828125,688533.0,173320.984375,0.061767578125,0.990234375,-0.2001953125,-1.4343260526657104,-0.1525878757238388,0.3662109076976776,100.0,156151.0,1.0
15:00:34.750411,176922.5625,182573.171875,195836.96875,174417.375,172235.3125,194321.875,688584.5,173320.703125,0.0625,0.98779296875,-0.2021484375,-1.3732908964157104,-0.1831054538488388,0.4882812201976776,100.0,156152.0,1.0
15:00:34.759859,176867.390625,182560.109375,195822.390625,174421.671875,172229.046875,194268.9375,688369.375,173322.859375,0.062255859375,0.98876953125,-0.198974609375,-1.3122557401657104,-0.1831054538488388,0.4882812201976776,100.0,156153.0,1.0
15:00:34.764085,176906.5625,182562.625,195832.5,174422.203125,172230.84375,194285.9375,688222.6875,173325.1875,0.065185546875,0.989990234375,-0.200439453125,-1.2817381620407104,-0.3662109076976776,0.5493163466453552,100.0,156154.0,1.0
15:00:34.764096,176989.078125,182582.203125,195855.828125,174424.53125,172242.46875,194345.75,688476.5,173331.53125,0.062255859375,0.990966796875,-0.198974609375,-1.1901854276657104,-0.4272460639476776,0.4577636420726776,100.0,156155.0,1.0
15:00:34.791647,176943.84375,182579.875,195848.234375,174424.625,172243.265625,194336.0,688601.5,173330.984375,0.06396484375,0.990478515625,-0.19921875,-1.1901854276657104,-0.4272460639476776,0.5493163466453552,100.0,156156.0,1.0
15:00:34.791658,176871.859375,182554.578125,195820.875,174417.828125,172226.546875,194266.984375,688416.9375,173321.609375,0.06591796875,0.990234375,-0.200927734375,-1.1901854276657104,-0.3662109076976776,0.6103515028953552,100.0,156157.0,1.0
15:00:34.817833,176888.234375,182561.015625,195827.046875,174417.90625,172228.96875,194275.921875,688216.9375,173323.125,0.0654296875,0.988037109375,-0.201904296875,-1.1291502714157104,-0.2746581733226776,0.6103515028953552,100.0,156158.0,1.0
15:00:34.817850,176982.734375,182583.1875,195851.265625,174419.609375,172238.34375,194337.78125,688427.25,173329.109375,0.0654296875,0.98876953125,-0.199951171875,-1.0986326932907104,-0.4577636420726776,0.5798339247703552,100.0,156159.0,1.0
15:00:34.817873,176945.625,182575.21875,195839.375,174414.78125,172233.515625,194336.71875,688595.125,173320.53125,0.065185546875,0.98779296875,-0.202880859375,-1.1291502714157104,-0.3967284858226776,0.7019042372703552,100.0,156160.0,1.0
15:00:34.817877,176875.890625,182550.8125,195815.6875,174413.625,172220.5625,194272.703125,688457.375,173315.96875,0.06591796875,0.98828125,-0.203857421875,-1.1291502714157104,-0.4272460639476776,0.6408690810203552,100.0,156161.0,1.0
15:00:34.828682,176878.484375,182564.9375,195824.625,174422.828125,172227.171875,194278.421875,688228.9375,173320.359375,0.0654296875,0.988037109375,-0.20361328125,-1.0986326932907104,-0.4577636420726776,0.5798339247703552,100.0,156162.0,1.0
15:00:34.831003,176977.90625,182582.109375,195849.03125,174419.078125,172235.390625,194337.078125,688391.9375,173321.609375,0.065185546875,0.989013671875,-0.20166015625,-1.0986326932907104,-0.3967284858226776,0.3967284858226776,100.0,156163.0,1.0
15:00:34.833591,176965.828125,182585.59375,195852.515625,174422.375,172242.90625,194361.21875,688602.8125,173323.75,0.068359375,0.990478515625,-0.19873046875,-0.9460448622703552,-0.3967284858226776,0.4882812201976776,100.0,156164.0,1.0
15:00:34.836091,176895.203125,182564.5,195831.515625,174424.171875,172234.859375,194302.828125,688502.25,173325.359375,0.06787109375,0.98974609375,-0.202392578125,-1.0375975370407104,-0.3662109076976776,0.3967284858226776,100.0,156165.0,1.0
15:00:34.838670,176875.890625,182580.046875,195834.734375,174429.984375,172241.125,194296.578125,688255.5,173330.984375,0.066162109375,0.9892578125,-0.205078125,-1.0986326932907104,-0.3051757514476776,0.3967284858226776,100.0,156166.0,1.0
15:00:34.841070,176966.28125,182580.765625,195850.734375,174423.28125,172242.1875,194334.03125,688328.4375,173328.671875,0.06640625,0.990478515625,-0.2041015625,-1.0986326932907104,-0.2746581733226776,0.4577636420726776,100.0,156167.0,1.0
15:00:34.843444,176977.8125,182584.96875,195856.8125,174424.34375,172248.265625,194365.59375,688578.125,173327.59375,0.06640625,0.9912109375,-0.200927734375,-1.0681151151657104,-0.2746581733226776,0.5493163466453552,100.0,156168.0,1.0
15:00:34.846042,176911.46875,182567.890625,195835.984375,174425.953125,172240.3125,194314.359375,688533.1875,173325.984375,0.06591796875,0.990234375,-0.2041015625,-1.0681151151657104,-0.2746581733226776,0.4882812201976776,100.0,156169.0,1.0
15:00:34.848498,176874.90625,182563.328125,195829.359375,174429.796875,172237.28125,194279.671875,688288.5625,173327.5,0.066650390625,0.99072265625,-0.201904296875,-1.1291502714157104,-0.1831054538488388,0.4882812201976776,100.0,156170.0,1.0
15:00:34.850960,176956.0,182577.1875,195848.046875,174427.03125,172239.0625,194320.171875,688296.0,173328.9375,0.06787109375,0.989990234375,-0.201416015625,-1.1901854276657104,-0.1831054538488388,0.4882812201976776,100.0,156171.0,1.0
15:00:34.853433,176997.578125,182594.453125,195865.3125,174434.1875,172251.484375,194366.484375,688572.875,173335.375,0.069580078125,0.989013671875,-0.203125,-1.1596678495407104,-0.0915527269244194,0.4882812201976776,100.0,156172.0,1.0
15:00:34.856117,176930.703125,182583.359375,195844.390625,174431.765625,172243.171875,194324.28125,688577.1875,173330.453125,0.068603515625,0.989501953125,-0.20556640625,-1.1596678495407104,-0.1831054538488388,0.4577636420726776,100.0,156173.0,1.0
15:00:34.858495,176884.46875,182587.75,195833.484375,174437.140625,172240.578125,194284.140625,688348.75,173332.25,0.065673828125,0.990234375,-0.20263671875,-1.1596678495407104,-0.2136230319738388,0.5187987685203552,100.0,156174.0,1.0
15:00:34.861597,176944.734375,182568.4375,195845.640625,174436.953125,172242.640625,194303.984375,688265.5625,173335.640625,0.06640625,0.988525390625,-0.200927734375,-1.1596678495407104,-0.0915527269244194,0.5187987685203552,100.0,156175.0,1.0
15:00:34.861607,176999.09375,182583.8125,195859.578125,174430.078125,172247.921875,194353.4375,688535.3125,173332.515625,0.06591796875,0.990234375,-0.203125,-1.1291502714157104,0.1220703050494194,0.6408690810203552,100.0,156176.0,1.0
15:00:34.863470,176936.6875,182563.515625,195843.484375,174429.453125,172243.71875,194324.109375,688598.5625,173330.90625,0.067138671875,0.9912109375,-0.2041015625,-1.1596678495407104,0.0610351525247097,0.5493163466453552,100.0,156177.0,1.0
15:00:34.866725,176878.21875,182559.484375,195829.8125,174432.84375,172240.671875,194279.046875,688388.5,173332.953125,0.0693359375,0.9912109375,-0.2041015625,-1.2512205839157104,0.0915527269244194,0.5798339247703552,100.0,156178.0,1.0
15:00:34.866755,176918.453125,182571.828125,195842.421875,174432.578125,172245.953125,194302.03125,688232.0,173336.53125,0.066162109375,0.9912109375,-0.204833984375,-1.3122557401657104,0.1525878757238388,0.5798339247703552,100.0,156179.0,1.0
15:00:34.868657,176994.0,182580.859375,195858.25,174427.03125,172249.078125,194349.328125,688478.8125,173336.265625,0.06689453125,0.9892578125,-0.202880859375,-1.2817381620407104,0.2441406100988388,0.6713866591453552,100.0,156180.0,1.0
15:00:34.871031,176949.203125,182589.984375,195852.515625,174429.796875,172250.515625,194350.578125,688609.6875,173336.359375,0.06689453125,0.98779296875,-0.2021484375,-1.3122557401657104,0.2136230319738388,0.6103515028953552,100.0,156181.0,1.0
15:00:34.874150,176877.671875,182555.5625,195825.703125,174427.296875,172232.8125,194274.125,688432.6875,173330.8125,0.066650390625,0.990478515625,-0.205078125,-1.4038084745407104,0.3051757514476776,0.6713866591453552,100.0,156182.0,1.0
15:00:34.874183,176898.515625,182564.859375,195834.8125,174429.796875,172235.671875,194282.796875,688230.8125,173333.578125,0.065185546875,0.99072265625,-0.20361328125,-1.3732908964157104,0.1525878757238388,0.5798339247703552,100.0,156183.0,1.0
15:00:34.883505,176990.59375,182581.578125,195854.84375,174425.25,172241.296875,194342.96875,688432.6875,173334.03125,0.065673828125,0.98974609375,-0.2021484375,-1.4038084745407104,0.2441406100988388,0.6103515028953552,100.0,156184.0,1.0
15:00:34.887981,176967.0,182593.015625,195857.265625,174434.28125,172250.0625,194362.375,688613.1875,173339.03125,0.066650390625,0.992431640625,-0.19921875,-1.4648436307907104,0.2746581733226776,0.7019042372703552,100.0,156185.0,1.0
15:00:34.888037,176895.109375,182573.34375,195833.125,174432.84375,172236.203125,194299.15625,688466.9375,173335.015625,0.0673828125,0.992431640625,-0.201416015625,-1.4953612089157104,0.2441406100988388,0.7934569716453552,100.0,156186.0,1.0
15:00:34.897851,176887.59375,182572.09375,195832.765625,174431.765625,172235.125,194280.390625,688233.875,173334.03125,0.067138671875,0.98974609375,-0.201416015625,-1.4953612089157104,0.3051757514476776,0.7629393935203552,100.0,156187.0,1.0
15:00:34.897866,176980.578125,182577.8125,195851.0,174419.609375,172237.984375,194335.28125,688385.9375,173329.109375,0.0673828125,0.98828125,-0.2021484375,-1.4953612089157104,0.3356933295726776,0.7019042372703552,100.0,156188.0,1.0
15:00:34.900428,176967.078125,182581.9375,195852.15625,174418.0,172244.34375,194357.640625,688607.3125,173324.828125,0.06640625,0.989013671875,-0.2021484375,-1.5563963651657104,0.3662109076976776,0.6408690810203552,100.0,156189.0,1.0
15:00:34.900434,176898.78125,182565.21875,195833.03125,174419.078125,172239.78125,194304.703125,688517.4375,173324.46875,0.06396484375,0.989013671875,-0.20556640625,-1.6174315214157104,0.3662109076976776,0.7019042372703552,100.0,156190.0,1.0
15:00:34.909729,176877.046875,182567.09375,195830.265625,174422.03125,172240.140625,194286.828125,688271.125,173324.203125,0.065185546875,0.989501953125,-0.2041015625,-1.4953612089157104,0.4882812201976776,0.7934569716453552,100.0,156191.0,1.0
15:00:34.914053,176967.4375,182580.5,195849.390625,174417.015625,172244.875,194336.984375,688334.0,173323.75,0.06689453125,0.988037109375,-0.202880859375,-1.4038084745407104,0.5798339247703552,0.7629393935203552,100.0,156192.0,1.0
15:00:34.914058,176977.8125,182585.421875,195853.59375,174417.015625,172248.0,194355.046875,688581.375,173322.9375,0.068115234375,0.989013671875,-0.2021484375,-1.4343260526657104,0.6103515028953552,0.7324218153953552,100.0,156193.0,1.0
15:00:34.922244,176912.8125,182570.125,195836.421875,174421.84375,172242.015625,194307.5625,688548.375,173326.4375,0.068359375,0.988037109375,-0.201416015625,-1.4648436307907104,0.6713866591453552,0.7629393935203552,100.0,156194.0,1.0
15:00:34.926728,176875.625,182577.28125,195832.671875,174426.40625,172241.921875,194278.59375,688307.4375,173330.28125,0.069091796875,0.989013671875,-0.203125,-1.4953612089157104,0.7324218153953552,0.7019042372703552,100.0,156195.0,1.0
15:00:34.926735,176956.796875,182571.375,195851.625,174426.671875,172248.09375,194314.09375,688285.625,173337.421875,0.0693359375,0.990966796875,-0.202880859375,-1.4953612089157104,0.7019042372703552,0.8544921278953552,100.0,156196.0,1.0
15:00:34.936675,176994.625,182581.390625,195862.890625,174428.640625,172255.25,194355.671875,688550.4375,173339.9375,0.068603515625,0.99072265625,-0.201171875,-1.5869139432907104,0.6103515028953552,0.7934569716453552,100.0,156197.0,1.0
15:00:34.936682,176929.171875,182568.703125,195847.25,174436.953125,172248.546875,194310.96875,688579.875,173342.171875,0.06787109375,0.99072265625,-0.20068359375,-1.5869139432907104,0.7019042372703552,0.8544921278953552,100.0,156198.0,1.0
15:00:34.939078,176878.125,182560.46875,195835.171875,174440.0,172243.53125,194265.90625,688342.375,173344.9375,0.066650390625,0.990478515625,-0.20263671875,-1.6784666776657104,0.7019042372703552,0.7019042372703552,100.0,156199.0,1.0
15:00:34.939103,176936.78125,182578.796875,195847.78125,174431.6875,172245.6875,194305.421875,688249.3125,173344.21875,0.067138671875,0.98876953125,-0.203369140625,-1.6479490995407104,0.7629393935203552,0.7934569716453552,100.0,156200.0,1.0
15:00:34.944917,176989.890625,182577.015625,195854.671875,174424.34375,172244.15625,194343.15625,688514.5,173338.765625,0.068115234375,0.989013671875,-0.202880859375,-1.6479490995407104,0.6713866591453552,0.8544921278953552,100.0,156201.0,1.0
15:00:34.952309,176935.4375,182572.984375,195844.75,174429.71875,172243.09375,194321.15625,688596.5625,173340.828125,0.069091796875,0.9892578125,-0.2041015625,-1.6479490995407104,0.7019042372703552,0.7629393935203552,100.0,156202.0,1.0
15:00:34.959095,176878.84375,182559.3125,195829.625,174433.109375,172236.203125,194265.546875,688391.1875,173341.984375,0.068359375,0.990966796875,-0.203125,-1.6174315214157104,0.7629393935203552,0.8239745497703552,100.0,156203.0,1.0
15:00:34.959122,176915.578125,182564.859375,195836.0625,174426.3125,172233.34375,194281.375,688231.6875,173335.90625,0.06884765625,0.990966796875,-0.2021484375,-1.6479490995407104,0.7019042372703552,0.8239745497703552,100.0,156204.0,1.0
15:00:34.961147,176991.84375,182579.25,195851.453125,174420.59375,172235.671875,194334.125,688474.5625,173330.90625,0.069580078125,0.992919921875,-0.20166015625,-1.5869139432907104,0.6713866591453552,0.8850097060203552,100.0,156205.0,1.0
15:00:34.974093,176945.53125,182578.359375,195842.328125,174421.046875,172236.203125,194329.734375,688608.1875,173329.921875,0.068115234375,0.992431640625,-0.2021484375,-1.6784666776657104,0.7324218153953552,0.9155272841453552,100.0,156206.0,1.0
15:00:34.974109,176879.90625,182563.0625,195823.46875,174422.5625,172227.625,194272.15625,688429.3125,173327.765625,0.0673828125,0.989013671875,-0.201904296875,-1.6784666776657104,0.7019042372703552,0.7934569716453552,100.0,156207.0,1.0
15:00:34.976629,176898.6875,182574.6875,195832.9375,174427.296875,172232.625,194283.15625,688224.9375,173331.171875,0.066162109375,0.9912109375,-0.201171875,-1.7395018339157104,0.7019042372703552,0.8544921278953552,100.0,156208.0,1.0
15:00:34.976637,176988.625,182588.1875,195852.796875,174421.9375,172238.890625,194346.90625,688427.75,173330.71875,0.0673828125,0.98974609375,-0.200927734375,-1.7700194120407104,0.6103515028953552,0.7324218153953552,100.0,156209.0,1.0
15:00:34.982221,176956.4375,182589.984375,195847.875,174421.21875,172240.671875,194355.40625,688605.0,173329.828125,0.0693359375,0.987548828125,-0.203857421875,-1.7395018339157104,0.6103515028953552,0.8850097060203552,100.0,156210.0,1.0
15:00:34.989349,176888.234375,182561.640625,195824.453125,174422.65625,172229.234375,194277.609375,688477.6875,173328.75,0.068359375,0.98876953125,-0.200927734375,-1.7395018339157104,0.5798339247703552,0.8239745497703552,100.0,156211.0,1.0
15:00:34.989357,176880.359375,182564.671875,195825.78125,174421.9375,172230.484375,194278.328125,688238.6875,173326.4375,0.06884765625,0.98779296875,-0.20068359375,-1.7395018339157104,0.6408690810203552,0.7629393935203552,100.0,156212.0,1.0
15:00:34.997219,176970.296875,182575.40625,195839.921875,174406.921875,172228.78125,194322.953125,688375.0,173317.9375,0.066162109375,0.98681640625,-0.203125,-1.7700194120407104,0.5798339247703552,0.7019042372703552,100.0,156213.0,1.0
15:00:35.000568,176959.75,182579.515625,195841.796875,174405.390625,172235.3125,194347.359375,688600.5,173313.921875,0.066650390625,0.9892578125,-0.20361328125,-1.7700194120407104,0.4882812201976776,0.6713866591453552,100.0,156214.0,1.0
15:00:35.000581,176893.140625,182562.171875,195823.546875,174409.421875,172230.921875,194293.703125,688514.6875,173316.421875,0.0654296875,0.989013671875,-0.20361328125,-1.8310545682907104,0.5493163466453552,0.7629393935203552,100.0,156215.0,1.0
15:00:35.002197,176869.265625,182566.90625,195821.5,174414.25,172230.75,194274.578125,688271.3125,173319.8125,0.06640625,0.990478515625,-0.200439453125,-1.7089842557907104,0.4882812201976776,0.7629393935203552,100.0,156216.0,1.0
15:00:35.012312,176962.171875,182584.171875,195844.921875,174414.0625,172237.453125,194325.984375,688347.75,173325.09375,0.068603515625,0.98974609375,-0.20166015625,-1.8310545682907104,0.3662109076976776,0.7629393935203552,100.0,156217.0,1.0
15:00:35.016723,176980.3125,182596.5,195856.546875,174419.96875,172247.375,194362.828125,688599.4375,173331.171875,0.068115234375,0.9892578125,-0.200439453125,-1.7700194120407104,0.3051757514476776,0.7019042372703552,100.0,156218.0,1.0
15:00:35.016748,176910.125,182581.03125,195835.359375,174420.234375,172238.4375,194313.828125,688553.6875,173331.171875,0.06787109375,0.98876953125,-0.202880859375,-1.8310545682907104,0.3662109076976776,0.5493163466453552,100.0,156219.0,1.0
15:00:35.026046,176867.9375,182585.234375,195826.859375,174420.765625,172235.578125,194283.78125,688303.875,173332.6875,0.068115234375,0.98876953125,-0.199462890625,-1.8005369901657104,0.3051757514476776,0.6713866591453552,100.0,156220.0,1.0
15:00:35.029084,176947.6875,182574.515625,195845.1875,174420.140625,172240.21875,194314.625,688292.5625,173337.78125,0.068115234375,0.989501953125,-0.19921875,-1.7700194120407104,0.2441406100988388,0.7019042372703552,100.0,156221.0,1.0
15:00:35.029090,176982.1875,182577.90625,195851.625,174415.859375,172241.65625,194350.125,688563.5625,173333.765625,0.067626953125,0.98974609375,-0.19873046875,-1.8005369901657104,0.1831054538488388,0.6103515028953552,100.0,156222.0,1.0
15:00:35.031049,176916.21875,182566.734375,195833.296875,174414.6875,172233.609375,194310.15625,688584.6875,173332.328125,0.06884765625,0.990478515625,-0.19921875,-1.8615721464157104,0.1831054538488388,0.6103515028953552,100.0,156223.0,1.0
15:00:35.048482,176862.03125,182555.734375,195817.390625,174416.390625,172225.828125,194262.859375,688352.75,173331.96875,0.071044921875,0.989501953125,-0.201416015625,-1.8310545682907104,0.1831054538488388,0.6713866591453552,100.0,156224.0,1.0
15:00:35.051624,176921.9375,182564.40625,195832.5,174416.84375,172229.9375,194291.46875,688254.4375,173333.578125,0.069580078125,0.989501953125,-0.2021484375,-1.8310545682907104,0.0,0.5187987685203552,100.0,156225.0,1.0
15:00:35.051635,176976.734375,182571.109375,195841.53125,174407.90625,172232.265625,194335.828125,688508.625,173329.203125,0.0693359375,0.98828125,-0.19873046875,-1.8920897245407104,0.1220703050494194,0.5798339247703552,100.0,156226.0,1.0
15:00:35.053603,176919.078125,182561.09375,195826.328125,174408.609375,172229.5,194310.34375,688591.8125,173327.859375,0.06787109375,0.99072265625,-0.201416015625,-1.8310545682907104,0.03051757626235485,0.5798339247703552,100.0,156227.0,1.0
15:00:35.056237,176856.578125,182540.890625,195804.515625,174407.0,172217.0625,194247.125,688383.0,173322.40625,0.06884765625,0.9912109375,-0.201416015625,-1.8920897245407104,0.0915527269244194,0.4577636420726776,100.0,156228.0,1.0
15:00:35.060444,176900.46875,182562.359375,195821.234375,174410.765625,172224.3125,194275.65625,688229.3125,173327.421875,0.068603515625,0.989501953125,-0.20068359375,-1.9226073026657104,0.03051757626235485,0.3967284858226776,100.0,156229.0,1.0
15:00:35.060513,176993.734375,182591.671875,195851.0,174418.1875,172241.921875,194344.9375,688491.0,173336.0,0.06787109375,0.989990234375,-0.198974609375,-1.9531248807907104,0.0610351525247097,0.3662109076976776,100.0,156230.0,1.0
15:00:35.069839,176959.3125,182593.015625,195852.078125,174429.0,172249.96875,194346.015625,688636.0625,173341.0,0.06884765625,0.99072265625,-0.19921875,-1.9836424589157104,-0.03051757626235485,0.4272460639476776,100.0,156231.0,1.0
15:00:35.076628,176893.140625,182579.34375,195832.046875,174427.65625,172237.28125,194289.234375,688453.9375,173334.5625,0.06689453125,0.98974609375,-0.202880859375,-2.105712652206421,0.03051757626235485,0.3967284858226776,100.0,156232.0,1.0
15:00:35.076639,176907.890625,182582.828125,195836.421875,174426.40625,172236.375,194287.984375,688253.0625,173333.40625,0.06689453125,0.98974609375,-0.200439453125,-1.8920897245407104,0.0,0.4272460639476776,100.0,156233.0,1.0
15:00:35.085970,176998.375,182586.671875,195851.1875,174417.546875,172237.71875,194341.625,688444.0625,173328.3125,0.06689453125,0.99072265625,-0.2001953125,-1.9836424589157104,-0.03051757626235485,0.3967284858226776,100.0,156234.0,1.0
15:00:35.085983,176975.21875,182592.390625,195851.1875,174421.671875,172246.03125,194366.21875,688633.25,173328.578125,0.067138671875,0.98828125,-0.200439453125,-2.075195074081421,-0.0610351525247097,0.4882812201976776,100.0,156235.0,1.0
15:00:35.115344,176900.03125,182561.09375,195822.75,174420.328125,172230.125,194277.703125,688489.0,173322.3125,0.067626953125,0.98779296875,-0.198974609375,-1.9226073026657104,-0.1525878757238388,0.5187987685203552,100.0,156236.0,1.0
15:00:35.115355,176885.984375,182565.296875,195820.421875,174419.34375,172227.890625,194270.640625,688238.5625,173319.453125,0.067626953125,0.98876953125,-0.200927734375,-1.9836424589157104,-0.0915527269244194,0.4272460639476776,100.0,156237.0,1.0
15:00:35.118961,176973.078125,182576.5625,195836.34375,174403.703125,172229.671875,194327.140625,688363.6875,173315.34375,0.0673828125,0.98779296875,-0.200927734375,-1.9226073026657104,-0.0915527269244194,0.4577636420726776,100.0,156238.0,1.0
15:00:35.118969,176960.5625,182569.421875,195836.78125,174405.390625,172234.859375,194339.3125,688583.3125,173320.171875,0.067626953125,0.988037109375,-0.200439453125,-1.9226073026657104,-0.1831054538488388,0.4577636420726776,100.0,156239.0,1.0
15:00:35.118970,176887.78125,182556.8125,195816.3125,174406.375,172225.03125,194285.578125,688503.6875,173319.90625,0.069091796875,0.98779296875,-0.198486328125,-1.8310545682907104,-0.1525878757238388,0.5187987685203552,100.0,156240.0,1.0
15:00:35.118971,176862.828125,182570.125,195816.3125,174413.359375,172226.71875,194268.046875,688257.25,173324.90625,0.068359375,0.988525390625,-0.197265625,-1.7700194120407104,-0.1525878757238388,0.6103515028953552,100.0,156241.0,1.0
15:00:35.121649,176948.125,182556.09375,195829.359375,174406.375,172224.765625,194304.265625,688317.1875,173324.375,0.06787109375,0.989013671875,-0.19775390625,-1.8005369901657104,-0.1220703050494194,0.4882812201976776,100.0,156242.0,1.0
15:00:35.121657,176969.40625,182577.90625,195842.0625,174411.125,172235.484375,194344.21875,688566.5625,173328.484375,0.068603515625,0.989990234375,-0.200927734375,-1.7395018339157104,-0.1831054538488388,0.6408690810203552,100.0,156243.0,1.0
15:00:35.121659,176901.546875,182561.375,195823.015625,174414.0625,172229.5,194301.75,688540.0,173329.203125,0.068603515625,0.990478515625,-0.20068359375,-1.7089842557907104,-0.1525878757238388,0.5187987685203552,100.0,156244.0,1.0
15:00:35.124187,176849.78125,182541.703125,195802.546875,174410.140625,172213.84375,194250.078125,688302.6875,173323.390625,0.067626953125,0.989501953125,-0.200439453125,-1.6479490995407104,-0.1220703050494194,0.5187987685203552,100.0,156245.0,1.0
15:00:35.124195,176932.75,182561.375,195824.890625,174411.5625,172221.265625,194298.0,688282.5,173327.59375,0.068359375,0.988525390625,-0.2001953125,-1.6479490995407104,-0.1525878757238388,0.6408690810203552,100.0,156246.0,1.0
15:00:35.129821,176980.140625,182579.96875,195843.671875,174415.671875,172234.765625,194350.03125,688553.5,173330.546875,0.06640625,0.9873046875,-0.197509765625,-1.6174315214157104,-0.0915527269244194,0.6103515028953552,100.0,156247.0,1.0
15:00:35.162301,176916.5625,182564.046875,195828.203125,174418.8125,172230.578125,194313.640625,688576.625,173328.484375,0.06787109375,0.98876953125,-0.197265625,-1.6479490995407104,-0.0915527269244194,0.6103515028953552,100.0,156248.0,1.0
15:00:35.162314,176865.78125,182556.359375,195817.109375,174421.671875,172227.796875,194266.078125,688357.75,173330.015625,0.0673828125,0.98779296875,-0.197021484375,-1.6479490995407104,-0.0915527269244194,0.6713866591453552,100.0,156249.0,1.0
15:00:35.182264,176923.453125,182563.328125,195829.90625,174416.921875,172228.421875,194289.515625,688252.25,173329.109375,0.068359375,0.98779296875,-0.198974609375,-1.5869139432907104,-0.0610351525247097,0.5187987685203552,100.0,156250.0,1.0
15:00:35.184988,176985.59375,182571.109375,195846.984375,174415.671875,172235.9375,194341.09375,688517.5625,173330.984375,0.069580078125,0.9873046875,-0.198486328125,-1.5869139432907104,0.0,0.4577636420726776,100.0,156251.0,1.0
15:00:35.187308,176928.640625,182561.90625,195832.671875,174416.578125,172232.359375,194316.328125,688603.25,173328.671875,0.069091796875,0.98779296875,-0.199462890625,-1.5258787870407104,0.0610351525247097,0.5493163466453552,100.0,156252.0,1.0
15:00:35.189799,176870.25,182551.09375,195815.421875,174416.65625,172221.890625,194257.328125,688397.9375,173328.40625,0.06884765625,0.985107421875,-0.200927734375,-1.4038084745407104,0.1220703050494194,0.5493163466453552,100.0,156253.0,1.0
15:00:35.192197,176902.171875,182560.390625,195822.125,174410.578125,172217.421875,194277.796875,688227.25,173322.9375,0.066650390625,0.985595703125,-0.199462890625,-1.3732908964157104,0.03051757626235485,0.5493163466453552,100.0,156254.0,1.0
15:00:35.194848,176972.71875,182560.03125,195829.1875,174397.796875,172212.515625,194322.953125,688463.625,173311.765625,0.068603515625,0.985595703125,-0.199462890625,-1.3427733182907104,-0.03051757626235485,0.5493163466453552,100.0,156255.0,1.0
15:00:35.197200,176926.21875,182555.28125,195821.234375,174402.4375,172213.3125,194318.828125,688600.4375,173312.84375,0.067138671875,0.98583984375,-0.19775390625,-1.2817381620407104,-0.0610351525247097,0.5493163466453552,100.0,156256.0,1.0
15:00:35.199731,176861.578125,182539.46875,195802.90625,174406.015625,172206.609375,194259.921875,688436.625,173314.09375,0.067626953125,0.984619140625,-0.19921875,-1.1901854276657104,0.0610351525247097,0.5493163466453552,100.0,156257.0,1.0
15:00:35.202222,176875.703125,182547.515625,195810.765625,174408.25,172211.609375,194267.328125,688228.8125,173315.53125,0.06591796875,0.985107421875,-0.200927734375,-1.1901854276657104,0.1525878757238388,0.6408690810203552,100.0,156258.0,1.0
15:00:35.205435,176967.4375,182559.578125,195830.609375,174401.1875,172218.765625,194321.78125,688441.4375,173315.34375,0.06591796875,0.98486328125,-0.198486328125,-1.0375975370407104,0.1220703050494194,0.5798339247703552,100.0,156259.0,1.0
15:00:35.205470,176941.421875,182562.625,195829.546875,174404.234375,172226.375,194333.859375,688620.0,173316.234375,0.06787109375,0.984130859375,-0.202392578125,-0.9765624403953552,0.1831054538488388,0.4577636420726776,100.0,156260.0,1.0
15:00:35.207291,176875.890625,182549.484375,195812.109375,174407.0,172220.375,194277.890625,688478.375,173314.890625,0.06591796875,0.9853515625,-0.201171875,-0.9460448622703552,0.1831054538488388,0.4577636420726776,100.0,156261.0,1.0
15:00:35.212831,176868.640625,182557.25,195814.96875,174407.1875,172222.4375,194273.859375,688237.4375,173313.28125,0.067626953125,0.98583984375,-0.20263671875,-0.8850097060203552,0.2136230319738388,0.4272460639476776,100.0,156262.0,1.0
15:00:35.212843,176967.625,182582.921875,195840.1875,174404.234375,172230.390625,194336.890625,688364.5625,173315.703125,0.068115234375,0.98583984375,-0.19970703125,-0.8239745497703552,0.2441406100988388,0.4882812201976776,100.0,156263.0,1.0
15:00:35.212846,176962.34375,182580.234375,195841.4375,174405.65625,172234.59375,194348.25,688586.125,173317.671875,0.06884765625,0.988525390625,-0.201904296875,-0.7629393935203552,0.2136230319738388,0.6103515028953552,100.0,156264.0,1.0
15:00:35.214769,176898.78125,182576.296875,195825.078125,174412.015625,172230.390625,194295.859375,688509.375,173323.03125,0.069091796875,0.9921875,-0.203369140625,-0.8239745497703552,0.2746581733226776,0.6103515028953552,100.0,156265.0,1.0
15:00:35.219839,176867.65625,182549.484375,195816.125,174416.75,172224.578125,194261.796875,688266.6875,173325.890625,0.067626953125,0.990966796875,-0.2021484375,-0.7629393935203552,0.3051757514476776,0.6103515028953552,100.0,156266.0,1.0
15:00:35.222796,176959.84375,182563.25,195837.671875,174415.9375,172232.0,194312.84375,688321.375,173331.4375,0.06884765625,0.992919921875,-0.203857421875,-0.7934569716453552,0.3051757514476776,0.5187987685203552,100.0,156267.0,1.0
15:00:35.222807,176981.921875,182582.46875,195852.875,174424.078125,172245.5,194354.78125,688579.875,173338.5,0.06884765625,0.9912109375,-0.204345703125,-0.8544921278953552,0.3662109076976776,0.5493163466453552,100.0,156268.0,1.0
15:00:35.224801,176916.390625,182567.625,195835.09375,174429.71875,172240.5,194309.265625,688550.625,173340.5625,0.068115234375,0.98876953125,-0.204833984375,-0.7629393935203552,0.3967284858226776,0.4272460639476776,100.0,156269.0,1.0
15:00:35.227215,176872.84375,182560.03125,195823.28125,174428.28125,172233.703125,194272.25,688308.4375,173336.53125,0.066650390625,0.988525390625,-0.2041015625,-0.7019042372703552,0.4272460639476776,0.5798339247703552,100.0,156270.0,1.0
15:00:35.230305,176951.078125,182573.890625,195841.875,174424.796875,172237.453125,194308.109375,688278.0,173337.34375,0.066162109375,0.9892578125,-0.201171875,-0.7324218153953552,0.3051757514476776,0.5798339247703552,100.0,156271.0,1.0
15:00:35.230323,176991.9375,182586.484375,195853.421875,174421.9375,172243.625,194354.15625,688542.9375,173336.0,0.064208984375,0.98974609375,-0.2021484375,-0.7324218153953552,0.1525878757238388,0.3967284858226776,100.0,156272.0,1.0
15:00:35.238665,176918.984375,182562.890625,195828.203125,174415.765625,172230.65625,194309.53125,688572.875,173328.125,0.062255859375,0.98974609375,-0.200439453125,-0.8239745497703552,0.0610351525247097,0.2441406100988388,100.0,156273.0,1.0
15:00:35.249145,176859.609375,182549.921875,195809.515625,174415.3125,172220.28125,194260.453125,688351.875,173323.75,0.062744140625,0.9931640625,-0.200927734375,-0.9460448622703552,0.0610351525247097,0.1831054538488388,100.0,156274.0,1.0
15:00:35.249152,176917.546875,182563.0625,195821.40625,174414.15625,172221.359375,194292.1875,688245.5625,173326.4375,0.06298828125,0.994873046875,-0.1982421875,-1.0070799589157104,0.0,0.0610351525247097,100.0,156275.0,1.0
15:00:35.251587,176983.890625,182580.59375,195839.375,174417.109375,172228.328125,194346.640625,688509.3125,173328.3125,0.062744140625,0.996826171875,-0.19873046875,-1.1596678495407104,0.03051757626235485,0.0,100.0,156276.0,1.0
15:00:35.251592,176929.890625,182572.8125,195826.421875,174419.609375,172225.203125,194324.203125,688605.0,173325.984375,0.064208984375,0.9970703125,-0.202392578125,-1.3122557401657104,-0.1220703050494194,-0.1525878757238388,100.0,156277.0,1.0
15:00:35.251595,176861.9375,182550.546875,195801.921875,174414.609375,172210.28125,194262.59375,688395.4375,173318.03125,0.063720703125,0.99853515625,-0.199462890625,-1.4648436307907104,-0.2746581733226776,-0.2136230319738388,100.0,156278.0,1.0
15:00:35.257270,176896.90625,182557.796875,195813.71875,174418.8125,172214.296875,194276.71875,688227.125,173323.75,0.06640625,0.999755859375,-0.198974609375,-1.5258787870407104,-0.3356933295726776,-0.0610351525247097,100.0,156279.0,1.0
15:00:35.267324,176981.484375,182575.9375,195836.78125,174418.53125,172225.46875,194337.34375,688469.25,173328.40625,0.0693359375,0.99853515625,-0.200927734375,-1.7089842557907104,-0.2441406100988388,-0.0915527269244194,100.0,156280.0,1.0
15:00:35.271644,176938.734375,182572.71875,195830.171875,174419.703125,172228.328125,194335.109375,688610.0,173326.34375,0.069580078125,0.99755859375,-0.199951171875,-1.8615721464157104,-0.1831054538488388,0.0915527269244194,100.0,156281.0,1.0
15:00:35.271661,176874.90625,182558.859375,195811.75,174419.25,172219.84375,194276.09375,688446.75,173323.578125,0.07080078125,0.9970703125,-0.200927734375,-1.9531248807907104,-0.1525878757238388,0.3051757514476776,100.0,156282.0,1.0
15:00:35.273663,176888.140625,182566.46875,195819.625,174418.984375,172221.453125,194280.75,688238.3125,173325.0,0.070068359375,0.9970703125,-0.199951171875,-2.075195074081421,-0.2136230319738388,0.2746581733226776,100.0,156283.0,1.0
15:00:35.279764,176983.09375,182579.609375,195842.0625,174416.84375,172228.15625,194335.640625,688442.625,173326.96875,0.068115234375,0.9951171875,-0.19921875,-2.136230230331421,-0.1220703050494194,0.4577636420726776,100.0,156284.0,1.0
15:00:35.287834,176960.015625,182586.484375,195845.375,174423.71875,172237.546875,194353.609375,688625.375,173330.09375,0.068603515625,0.99365234375,-0.197021484375,-2.197265386581421,-0.0915527269244194,0.4882812201976776,100.0,156285.0,1.0
15:00:35.287846,176895.5625,182577.015625,195830.53125,174425.78125,172234.140625,194299.609375,688497.625,173333.046875,0.06640625,0.991943359375,-0.197509765625,-2.258300542831421,-0.0610351525247097,0.7324218153953552,100.0,156286.0,1.0
15:00:35.294144,176882.6875,182574.421875,195830.4375,174425.6875,172234.328125,194284.765625,688265.875,173334.84375,0.0654296875,0.99072265625,-0.198486328125,-2.288818120956421,-0.03051757626235485,0.7019042372703552,100.0,156287.0,1.0
15:00:35.294156,176971.828125,182576.125,195847.421875,174419.25,172237.28125,194334.03125,688389.4375,173334.84375,0.064208984375,0.990234375,-0.19921875,-2.288818120956421,-0.0915527269244194,0.7019042372703552,100.0,156288.0,1.0
15:00:35.301225,176972.984375,182589.0,195857.265625,174427.75,172249.796875,194363.890625,688622.75,173342.609375,0.06396484375,0.989990234375,-0.199951171875,-2.349853277206421,-0.0915527269244194,0.8239745497703552,100.0,156289.0,1.0
15:00:35.307813,176911.390625,182572.8125,195844.75,174437.9375,172248.1875,194312.578125,688547.3125,173351.5625,0.065185546875,0.988037109375,-0.1962890625,-2.410888433456421,-0.1525878757238388,0.7934569716453552,100.0,156290.0,1.0
15:00:35.307825,176883.3125,182572.984375,195838.75,174441.15625,172245.40625,194289.234375,688297.9375,173352.1875,0.064208984375,0.9873046875,-0.1982421875,-2.410888433456421,-0.1525878757238388,0.8239745497703552,100.0,156291.0,1.0
15:00:35.321632,176968.875,182584.53125,195854.75,174435.171875,172245.765625,194333.5,688352.75,173349.953125,0.064697265625,0.988037109375,-0.1982421875,-2.319335699081421,-0.2136230319738388,0.7019042372703552,100.0,156292.0,1.0
15:00:35.321642,176982.46875,182588.640625,195856.8125,174430.15625,172248.8125,194365.6875,688608.125,173343.859375,0.06640625,0.986083984375,-0.1962890625,-2.288818120956421,-0.2746581733226776,0.6713866591453552,100.0,156293.0,1.0
15:00:35.324149,176913.53125,182568.34375,195836.34375,174428.8125,172237.71875,194312.03125,688576.25,173337.96875,0.067626953125,0.9873046875,-0.197265625,-2.227782964706421,-0.2746581733226776,0.6103515028953552,100.0,156294.0,1.0
15:00:35.324152,176873.390625,182565.75,195830.703125,174431.0625,172235.21875,194275.5625,688321.3125,173339.84375,0.067138671875,0.98583984375,-0.197021484375,-2.166747808456421,-0.2136230319738388,0.4882812201976776,100.0,156295.0,1.0
15:00:35.326056,176948.046875,182574.515625,195845.375,174425.421875,172235.484375,194313.015625,688307.625,173337.78125,0.06787109375,0.98583984375,-0.1943359375,-2.197265386581421,-0.2746581733226776,0.4272460639476776,100.0,156296.0,1.0
15:00:35.329814,176991.046875,182585.6875,195859.140625,174425.875,172244.609375,194362.109375,688579.125,173339.21875,0.06884765625,0.9853515625,-0.1962890625,-2.044677495956421,-0.2136230319738388,0.4577636420726776,100.0,156297.0,1.0
15:00:35.340347,176932.21875,182578.796875,195846.359375,174433.296875,172244.25,194331.53125,688616.5,173343.953125,0.06884765625,0.98388671875,-0.199462890625,-2.075195074081421,-0.1525878757238388,0.5187987685203552,100.0,156298.0,1.0
15:00:35.340362,176876.421875,182569.328125,195829.625,174432.9375,172235.125,194281.734375,688389.3125,173339.03125,0.071044921875,0.986572265625,-0.197021484375,-2.014159917831421,-0.1525878757238388,0.4577636420726776,100.0,156299.0,1.0
15:00:35.342196,176938.390625,182586.40625,195848.234375,174432.671875,172243.171875,194317.9375,688282.5,173341.265625,0.072021484375,0.985595703125,-0.19775390625,-1.9836424589157104,-0.03051757626235485,0.4882812201976776,100.0,156300.0,1.0
15:00:35.346223,177002.21875,182598.390625,195864.140625,174428.46875,172252.03125,194371.671875,688542.9375,173340.109375,0.071533203125,0.983154296875,-0.1982421875,-1.8615721464157104,0.0610351525247097,0.4272460639476776,100.0,156301.0,1.0
15:00:35.352921,176945.625,182586.40625,195851.71875,174431.40625,172252.203125,194349.953125,688637.25,173341.1875,0.07275390625,0.985107421875,-0.196533203125,-1.6784666776657104,0.0915527269244194,0.4272460639476776,100.0,156302.0,1.0
15:00:35.353002,176876.875,182564.9375,195827.578125,174430.421875,172238.078125,194284.859375,688426.0625,173337.15625,0.072021484375,0.984375,-0.19873046875,-1.5563963651657104,0.2136230319738388,0.3967284858226776,100.0,156303.0,1.0
15:00:35.358537,176905.125,182565.578125,195831.234375,174426.859375,172233.703125,194293.4375,688253.0625,173332.25,0.071533203125,0.985107421875,-0.199462890625,-1.4038084745407104,0.2746581733226776,0.3356933295726776,100.0,156304.0,1.0
15:00:35.362218,176986.390625,182576.65625,195846.796875,174421.9375,172235.3125,194345.484375,688494.9375,173330.71875,0.069580078125,0.98583984375,-0.198974609375,-1.3732908964157104,0.2746581733226776,0.3356933295726776,100.0,156305.0,1.0
15:00:35.372848,176947.234375,182578.984375,195841.796875,174427.03125,172239.25,194345.03125,688633.5625,173332.59375,0.069091796875,0.98583984375,-0.201416015625,-1.2512205839157104,0.3051757514476776,0.3356933295726776,100.0,156306.0,1.0
15:00:35.372921,176883.9375,182561.71875,195822.84375,174428.46875,172230.65625,194281.8125,688457.75,173331.703125,0.068603515625,0.98486328125,-0.198974609375,-1.1901854276657104,0.3967284858226776,0.4577636420726776,100.0,156307.0,1.0
15:00:35.374836,176891.359375,182565.84375,195826.140625,174423.984375,172228.78125,194282.171875,688242.1875,173329.46875,0.0693359375,0.9833984375,-0.198974609375,-1.0070799589157104,0.4882812201976776,0.4272460639476776,100.0,156308.0,1.0
15:00:35.378474,176984.609375,182575.9375,195847.609375,174421.3125,172233.34375,194334.65625,688442.0625,173331.703125,0.067138671875,0.98681640625,-0.19970703125,-0.8850097060203552,0.4272460639476776,0.4882812201976776,100.0,156309.0,1.0
15:00:35.389036,176958.234375,182575.671875,195845.453125,174425.328125,172239.25,194345.65625,688622.5,173333.234375,0.065185546875,0.9873046875,-0.2001953125,-0.8239745497703552,0.4272460639476776,0.4577636420726776,100.0,156310.0,1.0
15:00:35.389044,176891.265625,182555.109375,195824.984375,174429.265625,172231.828125,194284.140625,688486.6875,173335.375,0.06396484375,0.988525390625,-0.2001953125,-0.8544921278953552,0.5798339247703552,0.3356933295726776,100.0,156311.0,1.0
15:00:35.391567,176881.078125,182557.25,195826.953125,174431.5,172232.984375,194271.8125,688241.4375,173337.703125,0.063720703125,0.987548828125,-0.201416015625,-0.6408690810203552,0.5493163466453552,0.3967284858226776,100.0,156312.0,1.0
15:00:35.391575,176972.625,182569.234375,195845.015625,174423.015625,172233.96875,194321.0625,688363.25,173334.921875,0.064208984375,0.989013671875,-0.203857421875,-0.6408690810203552,0.3967284858226776,0.2746581733226776,100.0,156313.0,1.0
15:00:35.403571,176975.40625,182591.046875,195856.0,174428.640625,172245.046875,194359.0625,688590.375,173338.765625,0.062255859375,0.989990234375,-0.20166015625,-0.6408690810203552,0.3051757514476776,0.3356933295726776,100.0,156314.0,1.0
15:00:35.406723,176909.6875,182571.65625,195836.25,174432.578125,172235.3125,194300.6875,688510.75,173338.140625,0.063720703125,0.98876953125,-0.201416015625,-0.5798339247703552,0.1220703050494194,0.3356933295726776,100.0,156315.0,1.0
15:00:35.406749,176880.625,182558.5,195829.71875,174436.953125,172231.734375,194262.59375,688263.8125,173338.59375,0.063232421875,0.989013671875,-0.20458984375,-0.4882812201976776,0.1831054538488388,0.3662109076976776,100.0,156316.0,1.0
15:00:35.412278,176971.640625,182576.921875,195851.0,174433.921875,172235.84375,194313.640625,688314.0625,173341.71875,0.06396484375,0.990478515625,-0.205078125,-0.5187987685203552,0.1831054538488388,0.3051757514476776,100.0,156317.0,1.0
15:00:35.419078,176985.765625,182583.1875,195856.546875,174429.625,172239.328125,194349.140625,688568.25,173337.25,0.0615234375,0.991455078125,-0.2041015625,-0.4577636420726776,0.1220703050494194,0.3967284858226776,100.0,156318.0,1.0
15:00:35.419101,176914.609375,182564.5,195835.171875,174431.5,172230.390625,194300.953125,688542.8125,173335.109375,0.062744140625,0.9921875,-0.20263671875,-0.5187987685203552,0.03051757626235485,0.3356933295726776,100.0,156319.0,1.0
15:00:35.425350,176869.90625,182559.3125,195823.90625,174432.484375,172224.765625,194265.375,688295.625,173334.921875,0.064208984375,0.993408203125,-0.200927734375,-0.5493163466453552,0.0915527269244194,0.3967284858226776,100.0,156320.0,1.0
15:00:35.425376,176938.296875,182568.515625,195834.28125,174421.3125,172222.875,194299.515625,688268.0,173330.546875,0.06298828125,0.99267578125,-0.199951171875,-0.6103515028953552,0.0,0.4272460639476776,100.0,156321.0,1.0
15:00:35.427273,176977.359375,182581.21875,195842.328125,174416.390625,172226.28125,194343.59375,688540.0625,173325.625,0.064697265625,0.99365234375,-0.203125,-0.6103515028953552,-0.0610351525247097,0.5493163466453552,100.0,156322.0,1.0
15:00:35.437319,176908.703125,182561.375,195821.671875,174413.53125,172218.40625,194307.5625,688566.4375,173320.703125,0.0654296875,0.99462890625,-0.202392578125,-0.7019042372703552,-0.1525878757238388,0.5187987685203552,100.0,156323.0,1.0
15:00:35.440499,176852.28125,182544.109375,195804.78125,174413.4375,172210.8125,194255.890625,688359.1875,173316.78125,0.065185546875,0.9970703125,-0.20458984375,-0.8544921278953552,-0.1525878757238388,0.6103515028953552,100.0,156324.0,1.0
15:00:35.440520,176906.28125,182557.796875,195819.4375,174408.796875,172215.546875,194287.71875,688244.375,173315.96875,0.063720703125,0.995361328125,-0.206787109375,-1.0681151151657104,-0.1220703050494194,0.6713866591453552,100.0,156325.0,1.0
15:00:35.446058,176967.359375,182571.03125,195833.203125,174401.28125,172220.015625,194341.1875,688505.625,173311.046875,0.063720703125,0.99560546875,-0.204345703125,-1.0375975370407104,-0.1220703050494194,0.7019042372703552,100.0,156326.0,1.0
15:00:35.456854,176913.0,182570.125,195821.5,174402.71875,172219.578125,194323.65625,688593.0625,173310.78125,0.064453125,0.994384765625,-0.203369140625,-1.1596678495407104,-0.1220703050494194,0.7019042372703552,100.0,156327.0,1.0
15:00:35.456930,176855.6875,182575.40625,195809.15625,174409.15625,172217.25,194281.1875,688392.875,173317.140625,0.0654296875,0.993896484375,-0.20166015625,-1.2817381620407104,-0.0915527269244194,0.7324218153953552,100.0,156328.0,1.0
15:00:35.459186,176890.90625,182562.796875,195819.078125,174414.25,172219.84375,194283.609375,688221.3125,173324.203125,0.064697265625,0.98974609375,-0.2041015625,-1.4648436307907104,-0.1525878757238388,0.7629393935203552,100.0,156329.0,1.0
15:00:35.459209,176968.25,182552.34375,195832.3125,174408.53125,172218.953125,194321.421875,688450.1875,173322.046875,0.065185546875,0.990478515625,-0.20458984375,-1.5563963651657104,-0.1525878757238388,0.7934569716453552,100.0,156330.0,1.0
15:00:35.464798,176929.890625,182563.609375,195829.625,174415.234375,172224.84375,194328.484375,688594.8125,173325.1875,0.066162109375,0.990234375,-0.203857421875,-1.5563963651657104,-0.1220703050494194,0.8850097060203552,100.0,156331.0,1.0
15:00:35.473605,176868.109375,182549.5625,195812.375,174421.578125,172217.421875,194266.078125,688443.9375,173327.765625,0.0693359375,0.9921875,-0.202880859375,-1.5869139432907104,-0.0915527269244194,0.7934569716453552,100.0,156332.0,1.0
15:00:35.476648,176874.90625,182547.421875,195813.71875,174419.609375,172213.84375,194257.953125,688223.9375,173326.4375,0.071044921875,0.992431640625,-0.203857421875,-1.6479490995407104,-0.1525878757238388,0.8850097060203552,100.0,156333.0,1.0
15:00:35.476719,176969.859375,182568.34375,195835.09375,174411.65625,172221.8125,194330.1875,688414.4375,173325.359375,0.07080078125,0.990234375,-0.203857421875,-1.7700194120407104,0.0,0.8850097060203552,100.0,156334.0,1.0
15:00:35.483536,176945.265625,182561.28125,195833.296875,174417.015625,172225.921875,194324.640625,688608.8125,173328.046875,0.071044921875,0.9892578125,-0.20361328125,-1.7700194120407104,-0.03051757626235485,1.0681151151657104,100.0,156335.0,1.0
15:00:35.487906,176871.421875,182534.546875,195806.828125,174414.25,172210.28125,194251.78125,688488.75,173323.125,0.069091796875,0.987548828125,-0.201416015625,-1.7700194120407104,0.03051757626235485,1.0986326932907104,100.0,156336.0,1.0
15:00:35.487969,176861.578125,182546.96875,195809.96875,174420.234375,172213.671875,194251.78125,688246.1875,173326.796875,0.067626953125,0.984619140625,-0.204833984375,-1.7089842557907104,0.0610351525247097,1.0375975370407104,100.0,156337.0,1.0
15:00:35.493570,176960.203125,182563.6875,195833.390625,174419.703125,172220.5625,194308.375,688361.1875,173330.09375,0.06640625,0.98681640625,-0.204833984375,-1.8920897245407104,0.1831054538488388,1.0375975370407104,100.0,156338.0,1.0
15:00:35.535459,176961.8125,182573.703125,195841.875,174425.328125,172231.109375,194338.953125,688600.0,173332.421875,0.065673828125,0.988037109375,-0.203857421875,-1.8920897245407104,0.1525878757238388,0.8850097060203552,100.0,156339.0,1.0
15:00:35.535537,176896.453125,182559.671875,195823.203125,174427.484375,172225.46875,194287.0,688527.3125,173329.65625,0.065673828125,0.990234375,-0.202880859375,-1.8310545682907104,0.1525878757238388,0.8239745497703552,100.0,156340.0,1.0
15:00:35.548570,176869.1875,182580.046875,195822.21875,174428.28125,172229.234375,194276.984375,688280.5,173330.546875,0.066650390625,0.98974609375,-0.200439453125,-1.8615721464157104,0.2136230319738388,0.7934569716453552,100.0,156341.0,1.0
15:00:35.551044,176951.265625,182579.96875,195836.703125,174420.328125,172228.328125,194317.671875,688331.8125,173327.0625,0.066162109375,0.98876953125,-0.200927734375,-1.9226073026657104,0.1831054538488388,0.6103515028953552,100.0,156342.0,1.0
15:00:35.553501,176972.1875,182560.46875,195842.234375,174421.671875,172232.8125,194337.15625,688594.0,173328.578125,0.0654296875,0.98876953125,-0.202392578125,-2.044677495956421,0.1220703050494194,0.4577636420726776,100.0,156343.0,1.0
15:00:35.555954,176913.53125,182566.734375,195830.34375,174426.9375,172230.75,194304.703125,688569.75,173330.546875,0.0673828125,0.988525390625,-0.2060546875,-2.166747808456421,0.0915527269244194,0.3967284858226776,100.0,156344.0,1.0
15:00:35.558530,176870.53125,182565.578125,195819.703125,174427.75,172224.140625,194268.3125,688322.0625,173325.984375,0.068603515625,0.989990234375,-0.2041015625,-2.197265386581421,0.2441406100988388,0.4272460639476776,100.0,156345.0,1.0
15:00:35.561056,176941.953125,182567.453125,195834.28125,174423.09375,172225.296875,194307.84375,688288.9375,173324.640625,0.0673828125,0.98974609375,-0.204345703125,-2.105712652206421,0.1525878757238388,0.4577636420726776,100.0,156346.0,1.0
