Timestamp,Fz,FC3,FCz,FC4,Cz,C3,C4
14:57:18.038025,176782.28125,184293.1875,198293.328125,175708.0625,176752.328125,196516.375,688173.9375,171767.890625,0.06787109375,0.9775390625,-0.25048828125,-2.685546636581421,0.3356933295726776,0.5187987685203552,100.0,106922.0,1.0
14:57:18.048062,176782.375,184299.078125,198300.484375,175712.4375,176761.984375,196543.28125,688361.0625,171770.484375,0.068603515625,0.97216796875,-0.252685546875,-2.593993902206421,0.4577636420726776,0.3662109076976776,100.0,106923.0,1.0
14:57:18.050585,176713.25,184278.15625,198279.296875,175712.25,176753.40625,196487.125,688296.3125,171767.265625,0.066650390625,0.97216796875,-0.25634765625,-2.563476324081421,0.5187987685203552,0.3967284858226776,100.0,106924.0,1.0
14:57:18.053028,176676.953125,184269.9375,198270.078125,175710.828125,176748.484375,196457.625,688095.875,171765.390625,0.065673828125,0.97021484375,-0.255859375,-2.563476324081421,0.5187987685203552,0.4577636420726776,100.0,106925.0,1.0
14:57:18.055510,176760.546875,184282.359375,198288.953125,175702.421875,176751.796875,196504.03125,688126.3125,171764.765625,0.0654296875,0.970458984375,-0.25537109375,-2.471923589706421,0.6103515028953552,0.4272460639476776,100.0,106926.0,1.0
14:57:18.057991,176783.359375,184292.640625,198298.78125,175700.09375,176759.84375,196543.1875,688347.125,171762.875,0.066650390625,0.97119140625,-0.25341796875,-2.349853277206421,0.7019042372703552,0.2746581733226776,100.0,106927.0,1.0
14:57:18.060493,176713.703125,184281.46875,198277.59375,175699.5625,176751.609375,196500.984375,688323.0625,171762.25,0.06494140625,0.973388671875,-0.254150390625,-2.288818120956421,0.7934569716453552,0.1525878757238388,100.0,106928.0,1.0
14:57:18.062999,176664.890625,184270.828125,198262.84375,175698.046875,176741.0625,196460.3125,688119.125,171759.125,0.065673828125,0.974853515625,-0.25537109375,-2.288818120956421,0.7019042372703552,0.2746581733226776,100.0,106929.0,1.0
14:57:18.066567,176731.3125,184273.421875,198274.90625,175691.515625,176739.1875,196489.1875,688095.4375,171757.34375,0.0634765625,0.976318359375,-0.256103515625,-2.258300542831421,0.7019042372703552,0.2746581733226776,100.0,106930.0,1.0
14:57:18.068156,176777.546875,184289.34375,198290.65625,175696.96875,176747.859375,196540.5,688319.4375,171761.359375,0.065185546875,0.97705078125,-0.255126953125,-2.197265386581421,0.7934569716453552,0.1831054538488388,100.0,106931.0,1.0
14:57:18.070604,176714.328125,184271.28125,198271.875,175698.21875,176740.078125,196506.4375,688341.875,171760.828125,0.06396484375,0.97509765625,-0.25390625,-2.136230230331421,0.8544921278953552,0.2746581733226776,100.0,106932.0,1.0
14:57:18.073020,176665.15625,184272.53125,198266.15625,175705.28125,176742.9375,196474.796875,688163.375,171766.375,0.063720703125,0.973876953125,-0.252685546875,-2.044677495956421,0.7934569716453552,0.2746581733226776,100.0,106933.0,1.0
14:57:18.075513,176715.3125,184274.578125,198277.859375,175696.4375,176744.90625,196492.140625,688073.25,171761.359375,0.06298828125,0.9716796875,-0.25146484375,-2.014159917831421,0.7934569716453552,0.2746581733226776,100.0,106934.0,1.0
14:57:18.078018,176784.0625,184287.453125,198293.953125,175694.734375,176749.828125,196537.109375,688298.125,171759.390625,0.060546875,0.972412109375,-0.251953125,-1.8615721464157104,0.8239745497703552,0.1831054538488388,100.0,106935.0,1.0
14:57:18.080586,176739.28125,184289.875,198288.953125,175696.25,176756.625,196533.796875,688362.5,171762.53125,0.056884765625,0.97412109375,-0.251220703125,-1.8920897245407104,0.7324218153953552,0.0610351525247097,100.0,106936.0,1.0
14:57:18.083072,176677.3125,184276.109375,198271.875,175701.53125,176750.09375,196480.15625,688210.125,171765.46875,0.055419921875,0.974609375,-0.2509765625,-1.7089842557907104,0.5493163466453552,0.03051757626235485,100.0,106937.0,1.0
14:57:18.085587,176705.84375,184287.1875,198281.078125,175707.78125,176754.828125,196495.796875,688064.6875,171771.734375,0.053466796875,0.975341796875,-0.25048828125,-1.6479490995407104,0.5798339247703552,-0.1831054538488388,100.0,106938.0,1.0
14:57:18.087993,176791.75,184305.703125,198301.640625,175702.6875,176761.53125,196555.171875,688260.125,171770.578125,0.05224609375,0.97607421875,-0.251953125,-1.7089842557907104,0.2746581733226776,-0.1831054538488388,100.0,106939.0,1.0
14:57:18.090585,176755.1875,184303.90625,198296.90625,175706.09375,176763.328125,196554.640625,688373.6875,171770.296875,0.05419921875,0.978271484375,-0.25048828125,-1.6784666776657104,0.2136230319738388,-0.2746581733226776,100.0,106940.0,1.0
14:57:18.093026,176681.078125,184271.984375,198267.046875,175700.90625,176743.75,196479.359375,688236.6875,171762.25,0.054931640625,0.982421875,-0.247314453125,-1.6479490995407104,0.1220703050494194,-0.3967284858226776,100.0,106941.0,1.0
14:57:18.095525,176691.359375,184289.6875,198277.328125,175708.6875,176750.1875,196489.640625,688061.625,171770.65625,0.056640625,0.977783203125,-0.248779296875,-1.7700194120407104,0.0610351525247097,-0.3356933295726776,100.0,106942.0,1.0
14:57:18.098162,176782.546875,184292.640625,198296.90625,175705.546875,176753.046875,196530.5,688205.25,171770.484375,0.0576171875,0.977783203125,-0.25048828125,-1.7089842557907104,-0.0915527269244194,-0.3356933295726776,100.0,106943.0,1.0
14:57:18.100506,176764.671875,184301.140625,198298.34375,175702.953125,176759.75,196548.90625,688363.25,171767.703125,0.057861328125,0.98193359375,-0.251953125,-1.4953612089157104,-0.1525878757238388,-0.1831054538488388,100.0,106944.0,1.0
14:57:18.103042,176692.78125,184280.21875,198273.21875,175700.546875,176748.125,196488.46875,688267.125,171765.390625,0.06201171875,0.990234375,-0.2529296875,-1.5563963651657104,-0.3051757514476776,0.0610351525247097,100.0,106945.0,1.0
14:57:18.108640,176673.203125,184279.5,198269.1875,175701.265625,176745.359375,196472.109375,688076.0625,171766.09375,0.0625,0.99267578125,-0.248779296875,-1.7395018339157104,-0.3967284858226776,0.2441406100988388,100.0,106946.0,1.0
14:57:18.108711,176763.59375,184289.515625,198285.734375,175692.59375,176745.796875,196517.34375,688162.75,171763.6875,0.06298828125,0.992919921875,-0.244873046875,-1.8615721464157104,-0.3662109076976776,0.3662109076976776,100.0,106947.0,1.0
14:57:18.111696,176771.109375,184297.390625,198294.84375,175698.84375,176756.265625,196547.84375,688355.4375,171769.234375,0.062255859375,0.990234375,-0.243896484375,-2.044677495956421,-0.2746581733226776,0.6103515028953552,100.0,106948.0,1.0
14:57:18.111761,176707.71875,184284.859375,198278.3125,175701.4375,176751.53125,196499.65625,688294.9375,171771.203125,0.060546875,0.98779296875,-0.2470703125,-2.319335699081421,-0.3051757514476776,0.7934569716453552,100.0,106949.0,1.0
14:57:18.111795,176670.96875,184278.78125,198269.015625,175703.765625,176745.4375,196465.9375,688098.8125,171769.40625,0.059814453125,0.982421875,-0.246337890625,-2.349853277206421,-0.3356933295726776,0.9460448622703552,100.0,106950.0,1.0
14:57:18.115524,176761.265625,184294.703125,198294.046875,175706.796875,176755.546875,196513.5,688139.6875,171776.734375,0.05810546875,0.980224609375,-0.247802734375,-2.380370855331421,-0.3051757514476776,0.9765624403953552,100.0,106951.0,1.0
14:57:18.115591,176792.296875,184301.40625,198308.171875,175714.21875,176766.90625,196551.953125,688364.0,171783.796875,0.05859375,0.977783203125,-0.2470703125,-2.502441167831421,-0.3051757514476776,1.0681151151657104,100.0,106952.0,1.0
14:57:18.115617,176718.796875,184277.984375,198280.1875,175702.25,176752.5,196500.28125,688339.1875,171773.078125,0.058837890625,0.977783203125,-0.24365234375,-2.532958745956421,-0.2746581733226776,1.1291502714157104,100.0,106953.0,1.0
14:57:18.119209,176666.046875,184269.84375,198260.25,175695.265625,176740.265625,196460.75,688143.25,171763.15625,0.05908203125,0.979736328125,-0.24267578125,-2.502441167831421,-0.3967284858226776,1.2512205839157104,100.0,106954.0,1.0
14:57:18.119332,176732.03125,184280.75,198275.0,175692.671875,176741.328125,196500.984375,688107.1875,171762.34375,0.060546875,0.978515625,-0.244873046875,-2.502441167831421,-0.4272460639476776,1.2512205839157104,100.0,106955.0,1.0
14:57:18.119357,176779.78125,184294.703125,198283.046875,175682.125,176743.125,196548.546875,688328.1875,171753.671875,0.0634765625,0.980224609375,-0.24609375,-2.532958745956421,-0.4272460639476776,1.1596678495407104,100.0,106956.0,1.0
14:57:18.122410,176713.34375,184277.0,198260.875,175678.28125,176736.0625,196521.375,688358.6875,171747.0625,0.0634765625,0.977294921875,-0.241455078125,-2.593993902206421,-0.4272460639476776,1.2207030057907104,100.0,106957.0,1.0
14:57:18.122471,176651.296875,184247.5,198238.609375,175675.6875,176722.015625,196448.0625,688172.5,171741.15625,0.064208984375,0.976806640625,-0.24267578125,-2.624511480331421,-0.5187987685203552,1.2512205839157104,100.0,106958.0,1.0
14:57:18.124366,176699.75,184261.359375,198255.78125,175676.578125,176728.90625,196477.5625,688076.75,171745.625,0.06494140625,0.978271484375,-0.244384765625,-2.685546636581421,-0.3967284858226776,1.2207030057907104,100.0,106959.0,1.0
14:57:18.133620,176775.125,184280.75,198280.8125,175680.515625,176741.421875,196535.671875,688300.0,171752.953125,0.064697265625,0.97705078125,-0.242431640625,-2.624511480331421,-0.4272460639476776,1.0681151151657104,100.0,106960.0,1.0
14:57:18.133679,176736.5,184290.328125,198282.6875,175696.4375,176755.09375,196537.640625,688381.375,171765.65625,0.06640625,0.978271484375,-0.245849609375,-2.563476324081421,-0.3356933295726776,0.9765624403953552,100.0,106961.0,1.0
14:57:18.135520,176686.171875,184286.125,198275.71875,175710.46875,176760.46875,196492.671875,688234.3125,171777.09375,0.06640625,0.974365234375,-0.24609375,-2.563476324081421,-0.3051757514476776,0.7629393935203552,100.0,106962.0,1.0
14:57:18.138046,176706.015625,184287.546875,198283.3125,175708.953125,176762.96875,196506.09375,688085.1875,171776.921875,0.067626953125,0.973876953125,-0.24560546875,-2.410888433456421,-0.2746581733226776,0.7019042372703552,100.0,106963.0,1.0
14:57:18.147364,176790.6875,184303.546875,198303.078125,175706.0,176768.421875,196557.3125,688273.8125,171776.734375,0.068359375,0.975341796875,-0.245849609375,-2.380370855331421,-0.1525878757238388,0.7324218153953552,100.0,106964.0,1.0
14:57:18.147434,176758.046875,184304.265625,198298.515625,175710.640625,176771.109375,196563.125,688405.25,171780.234375,0.070068359375,0.974609375,-0.244873046875,-2.319335699081421,-0.2136230319738388,0.6408690810203552,100.0,106965.0,1.0
14:57:18.149267,176686.34375,184282.0,198270.625,175700.640625,176753.40625,196500.71875,688269.25,171768.515625,0.0712890625,0.974853515625,-0.24462890625,-2.288818120956421,0.03051757626235485,0.4882812201976776,100.0,106966.0,1.0
14:57:18.151841,176687.78125,184286.46875,198272.328125,175700.71875,176751.875,196496.078125,688087.9375,171767.890625,0.0712890625,0.974853515625,-0.2431640625,-2.197265386581421,0.2441406100988388,0.4577636420726776,100.0,106967.0,1.0
14:57:18.154379,176778.796875,184296.765625,198292.171875,175694.28125,176755.71875,196544.0,688229.125,171766.8125,0.07275390625,0.974853515625,-0.24365234375,-2.014159917831421,0.3662109076976776,0.4272460639476776,100.0,106968.0,1.0
14:57:18.157541,176766.359375,184293.265625,198293.953125,175700.1875,176761.09375,196555.078125,688393.625,171770.578125,0.073486328125,0.97607421875,-0.24560546875,-2.014159917831421,0.4577636420726776,0.2746581733226776,100.0,106969.0,1.0
14:57:18.157609,176702.703125,184273.6875,198275.265625,175705.8125,176753.3125,196492.5,688300.1875,171773.34375,0.07275390625,0.975341796875,-0.2431640625,-1.9531248807907104,0.7019042372703552,0.2746581733226776,100.0,106970.0,1.0
14:57:18.164289,176680.0,184267.515625,198269.734375,175704.5625,176750.0,196469.421875,688100.1875,171770.484375,0.070556640625,0.974609375,-0.2431640625,-1.7395018339157104,0.7629393935203552,0.2746581733226776,100.0,106971.0,1.0
14:57:18.171144,176769.9375,184280.84375,198289.125,175703.765625,176752.328125,196515.65625,688171.8125,171772.53125,0.0693359375,0.972900390625,-0.24755859375,-1.6479490995407104,0.8850097060203552,0.3967284858226776,100.0,106972.0,1.0
14:57:18.171220,176783.0,184295.78125,198296.8125,175705.640625,176759.75,196551.59375,688369.6875,171773.078125,0.070068359375,0.97314453125,-0.24365234375,-1.4648436307907104,1.0070799589157104,0.4272460639476776,100.0,106973.0,1.0
14:57:18.177034,176709.328125,184274.140625,198268.296875,175694.109375,176745.4375,196496.4375,688316.9375,171763.6875,0.0693359375,0.97314453125,-0.244873046875,-1.3732908964157104,1.0070799589157104,0.4272460639476776,100.0,106974.0,1.0
14:57:18.179893,176668.828125,184262.78125,198254.703125,175695.53125,176738.109375,196457.453125,688109.5,171764.140625,0.0673828125,0.973388671875,-0.2451171875,-1.1596678495407104,1.0681151151657104,0.3356933295726776,100.0,106975.0,1.0
14:57:18.179948,176744.453125,184267.875,198267.765625,175690.0,176735.703125,196490.078125,688120.3125,171762.078125,0.064453125,0.972900390625,-0.2451171875,-0.9765624403953552,1.1596678495407104,0.2746581733226776,100.0,106976.0,1.0
14:57:18.181775,176778.96875,184281.640625,198282.609375,175694.90625,176745.625,196534.515625,688341.3125,171764.765625,0.06396484375,0.97216796875,-0.246337890625,-0.8544921278953552,1.1291502714157104,0.1831054538488388,100.0,106977.0,1.0
14:57:18.189300,176712.984375,184264.75,198262.125,175696.34375,176738.203125,196493.65625,688335.5625,171763.59375,0.06298828125,0.97314453125,-0.2421875,-0.6103515028953552,1.1596678495407104,0.3356933295726776,100.0,106978.0,1.0
14:57:18.196100,176655.140625,184245.171875,198241.5625,175692.671875,176724.96875,196441.71875,688149.25,171758.328125,0.060546875,0.9736328125,-0.245361328125,-0.4577636420726776,1.1596678495407104,0.3356933295726776,100.0,106979.0,1.0
14:57:18.196174,176719.421875,184263.859375,198259.984375,175689.640625,176728.640625,196479.796875,688090.1875,171759.9375,0.061279296875,0.973388671875,-0.2451171875,-0.3051757514476776,1.0986326932907104,0.4272460639476776,100.0,106980.0,1.0
14:57:18.211102,176772.53125,184270.828125,198274.5625,175681.234375,176733.46875,196528.53125,688317.1875,171755.375,0.05810546875,0.9755859375,-0.244384765625,-0.1525878757238388,0.9765624403953552,0.3967284858226776,100.0,106981.0,1.0
14:57:18.211125,176711.5625,184256.796875,198260.34375,175678.015625,176732.21875,196504.125,688359.0,171755.015625,0.0576171875,0.97509765625,-0.245849609375,-0.0610351525247097,1.0375975370407104,0.3967284858226776,100.0,106982.0,1.0
14:57:18.213607,176659.53125,184248.484375,198248.1875,175690.625,176732.125,196457.359375,688180.5625,171765.125,0.057861328125,0.975830078125,-0.245849609375,0.0915527269244194,0.8544921278953552,0.3662109076976776,100.0,106983.0,1.0
14:57:18.213633,176699.578125,184257.6875,198258.90625,175687.578125,176734.0,196479.265625,688059.5,171762.875,0.05810546875,0.9765625,-0.245361328125,0.2136230319738388,0.6408690810203552,0.4272460639476776,100.0,106984.0,1.0
14:57:18.216076,176771.734375,184269.9375,198277.5,175682.9375,176740.078125,196532.109375,688267.9375,171761.453125,0.057373046875,0.979248046875,-0.245849609375,0.2136230319738388,0.5798339247703552,0.5493163466453552,100.0,106985.0,1.0
14:57:18.216114,176726.125,184272.625,198270.796875,175687.21875,176744.109375,196531.203125,688350.375,171763.234375,0.056396484375,0.97998046875,-0.245361328125,0.3967284858226776,0.5187987685203552,0.4882812201976776,100.0,106986.0,1.0
14:57:18.220556,176665.78125,184257.78125,198255.6875,175695.625,176740.4375,196474.4375,688199.9375,171768.609375,0.05712890625,0.982666015625,-0.244384765625,0.3356933295726776,0.2746581733226776,0.6408690810203552,100.0,106987.0,1.0
14:57:18.230564,176678.125,184252.5,198258.015625,175691.25,176735.78125,196467.46875,688044.1875,171765.46875,0.057861328125,0.982177734375,-0.2451171875,0.3662109076976776,0.2441406100988388,0.6408690810203552,100.0,106988.0,1.0
14:57:18.235025,176769.3125,184277.265625,198281.171875,175683.640625,176743.5625,196532.734375,688232.125,171763.59375,0.05810546875,0.981201171875,-0.249267578125,0.3356933295726776,0.1525878757238388,0.5798339247703552,100.0,106989.0,1.0
14:57:18.235477,176740.265625,184275.03125,198276.34375,175685.875,176746.703125,196536.03125,688357.25,171762.703125,0.0576171875,0.98046875,-0.246337890625,0.3051757514476776,0.03051757626235485,0.6713866591453552,100.0,106990.0,1.0
14:57:18.244850,176670.875,184248.65625,198248.359375,175683.734375,176730.515625,196466.296875,688245.1875,171756.53125,0.058837890625,0.979736328125,-0.24560546875,0.3356933295726776,-0.1220703050494194,0.6713866591453552,100.0,106991.0,1.0
14:57:18.244870,176668.28125,184253.125,198251.40625,175682.3125,176730.6875,196461.203125,688058.5,171754.390625,0.060546875,0.981201171875,-0.247314453125,0.3662109076976776,-0.2136230319738388,0.7629393935203552,100.0,106992.0,1.0
14:57:18.247308,176766.0,184273.0625,198277.859375,175682.84375,176740.265625,196517.703125,688180.3125,171759.578125,0.06298828125,0.980712890625,-0.250244140625,0.3051757514476776,-0.1220703050494194,0.8544921278953552,100.0,106993.0,1.0
14:57:18.247339,176759.75,184280.125,198282.6875,175689.28125,176748.9375,196540.328125,688346.875,171761.1875,0.064208984375,0.982421875,-0.254150390625,0.2441406100988388,-0.2441406100988388,0.9765624403953552,100.0,106994.0,1.0
14:57:18.256794,176688.84375,184258.140625,198257.5625,175689.09375,176738.109375,196480.25,688270.25,171759.75,0.06591796875,0.982666015625,-0.253662109375,0.1525878757238388,-0.2441406100988388,0.9460448622703552,100.0,106995.0,1.0
14:57:18.272322,176659.875,184261.171875,198250.859375,175688.65625,176735.15625,196462.71875,688072.375,171759.84375,0.067626953125,0.981201171875,-0.25439453125,0.1831054538488388,-0.2136230319738388,1.0375975370407104,100.0,106996.0,1.0
14:57:18.272333,176751.53125,184279.953125,198273.484375,175684.09375,176741.328125,196512.4375,688125.75,171761.453125,0.066162109375,0.98095703125,-0.251708984375,0.0915527269244194,-0.2746581733226776,1.1291502714157104,100.0,106997.0,1.0
14:57:18.280490,176767.796875,184280.484375,198283.3125,175687.484375,176750.359375,196539.96875,688333.0625,171766.1875,0.065673828125,0.9794921875,-0.251953125,0.0610351525247097,-0.1831054538488388,1.1596678495407104,100.0,106998.0,1.0
14:57:18.280496,176707.0,184272.34375,198269.453125,175698.9375,176747.59375,196495.71875,688308.4375,171773.4375,0.067138671875,0.977783203125,-0.2529296875,-0.03051757626235485,-0.1831054538488388,1.2512205839157104,100.0,106999.0,1.0
14:57:18.280499,176656.390625,184258.40625,198246.921875,175685.4375,176729.796875,196448.59375,688124.6875,171757.703125,0.066162109375,0.97705078125,-0.2529296875,-0.0915527269244194,-0.0610351525247097,1.2207030057907104,100.0,107000.0,1.0
14:57:18.283035,176737.84375,184275.921875,198268.390625,175686.421875,176735.703125,196491.6875,688113.6875,171761.8125,0.06591796875,0.9765625,-0.253173828125,-0.1220703050494194,-0.0610351525247097,1.1596678495407104,100.0,107001.0,1.0
14:57:18.285510,176777.625,184284.59375,198282.328125,175690.078125,176743.921875,196534.15625,688329.4375,171764.9375,0.066162109375,0.978515625,-0.2548828125,-0.1525878757238388,0.0,1.1596678495407104,100.0,107002.0,1.0
14:57:18.293026,176714.515625,184267.703125,198262.671875,175690.4375,176736.0625,196493.84375,688331.5,171762.875,0.064697265625,0.980224609375,-0.2529296875,-0.2136230319738388,-0.1525878757238388,1.0681151151657104,100.0,107003.0,1.0
14:57:18.296111,176662.921875,184256.875,198250.859375,175694.734375,176730.953125,196446.90625,688136.8125,171767.53125,0.06201171875,0.978515625,-0.25244140625,-0.2746581733226776,-0.1525878757238388,0.8544921278953552,100.0,107004.0,1.0
14:57:18.296121,176724.171875,184269.40625,198269.109375,175695.09375,176736.421875,196481.234375,688071.9375,171771.28125,0.060546875,0.979736328125,-0.252685546875,-0.5493163466453552,0.0,0.6103515028953552,100.0,107005.0,1.0
14:57:18.297966,176786.75,184286.65625,198287.609375,175696.609375,176746.0625,196533.0,688291.6875,171774.140625,0.06298828125,0.98046875,-0.25537109375,-0.5493163466453552,0.0610351525247097,0.5187987685203552,100.0,107006.0,1.0
14:57:18.305479,176734.09375,184280.390625,198275.71875,175695.53125,176747.40625,196513.15625,688345.5,171771.734375,0.062744140625,0.977294921875,-0.254638671875,-0.7324218153953552,-0.1220703050494194,0.3967284858226776,100.0,107007.0,1.0
14:57:18.312301,176675.078125,184271.359375,198259.984375,175699.203125,176742.40625,196468.453125,688173.9375,171771.734375,0.064208984375,0.978271484375,-0.253173828125,-0.7629393935203552,-0.03051757626235485,0.3662109076976776,100.0,107008.0,1.0
14:57:18.312310,176708.34375,184281.296875,198270.359375,175700.71875,176744.640625,196488.5625,688049.875,171775.75,0.06396484375,0.97998046875,-0.25244140625,-0.8239745497703552,-0.2136230319738388,0.2441406100988388,100.0,107009.0,1.0
14:57:18.314982,176780.140625,184287.375,198281.703125,175690.078125,176744.28125,196526.828125,688270.4375,171768.0625,0.06640625,0.980712890625,-0.255859375,-0.8239745497703552,-0.1831054538488388,0.1525878757238388,100.0,107010.0,1.0
14:57:18.314995,176733.46875,184271.015625,198269.8125,175689.015625,176742.671875,196520.21875,688355.5,171764.578125,0.066650390625,0.9794921875,-0.25537109375,-0.8544921278953552,-0.0610351525247097,0.0915527269244194,100.0,107011.0,1.0
14:57:18.324229,176668.546875,184254.46875,198248.359375,175688.65625,176732.125,196463.265625,688213.75,171766.1875,0.06787109375,0.98046875,-0.255859375,-0.9155272841453552,-0.03051757626235485,0.1220703050494194,100.0,107012.0,1.0
14:57:18.332314,176682.140625,184263.40625,198253.8125,175689.546875,176731.140625,196469.875,688049.5,171765.390625,0.06494140625,0.984619140625,-0.25244140625,-1.0986326932907104,0.03051757626235485,0.1831054538488388,100.0,107013.0,1.0
14:57:18.332325,176775.21875,184282.71875,198276.34375,175686.859375,176735.78125,196523.515625,688229.625,171766.28125,0.066650390625,0.98193359375,-0.254150390625,-1.1291502714157104,0.03051757626235485,0.1831054538488388,100.0,107014.0,1.0
14:57:18.334879,176751.875,184284.859375,198275.890625,175689.8125,176739.8125,196536.03125,688369.1875,171765.65625,0.066162109375,0.980224609375,-0.251220703125,-1.2512205839157104,0.1525878757238388,0.2746581733226776,100.0,107015.0,1.0
14:57:18.334893,176686.96875,184264.578125,198255.421875,175694.109375,176731.3125,196474.890625,688257.4375,171767.890625,0.06494140625,0.979248046875,-0.25,-1.1901854276657104,0.1831054538488388,0.3356933295726776,100.0,107016.0,1.0
14:57:18.344220,176680.453125,184267.515625,198256.9375,175698.578125,176733.109375,196464.328125,688074.875,171772.1875,0.06494140625,0.978759765625,-0.25390625,-1.3122557401657104,0.2136230319738388,0.4577636420726776,100.0,107017.0,1.0
14:57:18.348902,176764.578125,184272.4375,198270.171875,175686.859375,176730.15625,196506.796875,688182.0,171764.046875,0.0654296875,0.978515625,-0.25439453125,-1.2817381620407104,0.1831054538488388,0.5798339247703552,100.0,107018.0,1.0
14:57:18.348922,176763.328125,184285.140625,198276.703125,175691.0625,176739.546875,196537.828125,688361.625,171765.390625,0.064208984375,0.97900390625,-0.254638671875,-1.2817381620407104,0.3051757514476776,0.4882812201976776,100.0,107019.0,1.0
14:57:18.390550,176691.890625,184261.171875,198251.046875,175687.671875,176729.265625,196478.28125,688291.6875,171762.53125,0.062744140625,0.980224609375,-0.254638671875,-1.1596678495407104,0.2746581733226776,0.6408690810203552,100.0,107020.0,1.0
14:57:18.406099,176657.375,184251.078125,198238.703125,175684.1875,176720.5,196446.90625,688091.25,171756.0,0.060791015625,0.978759765625,-0.251708984375,-1.2512205839157104,0.2441406100988388,0.5798339247703552,100.0,107021.0,1.0
14:57:18.406117,176748.9375,184269.9375,198261.5,175682.3125,176727.734375,196500.546875,688150.25,171758.5,0.059814453125,0.97998046875,-0.252685546875,-1.3732908964157104,0.1831054538488388,0.6408690810203552,100.0,107022.0,1.0
14:57:18.409393,176770.484375,184279.328125,198274.203125,175687.40625,176739.359375,196537.921875,688364.375,171763.59375,0.05908203125,0.97802734375,-0.253173828125,-1.3427733182907104,0.2441406100988388,0.7019042372703552,100.0,107023.0,1.0
14:57:18.409420,176695.5625,184258.84375,198247.46875,175680.34375,176725.15625,196485.34375,688324.0,171755.375,0.06005859375,0.98046875,-0.25439453125,-1.4343260526657104,0.1525878757238388,0.7629393935203552,100.0,107024.0,1.0
14:57:18.409425,176655.328125,184251.078125,198238.875,175684.1875,176720.859375,196449.84375,688134.625,171757.609375,0.06005859375,0.9794921875,-0.2548828125,-1.5258787870407104,0.0610351525247097,0.6713866591453552,100.0,107025.0,1.0
14:57:18.411749,176731.59375,184261.4375,198257.125,175683.296875,176723.71875,196484.1875,688119.5,171760.015625,0.060791015625,0.97998046875,-0.253662109375,-1.5563963651657104,0.0610351525247097,0.6713866591453552,100.0,107026.0,1.0
14:57:18.418023,176778.53125,184283.25,198274.203125,175685.796875,176733.828125,196534.515625,688338.8125,171763.234375,0.06103515625,0.98046875,-0.253173828125,-1.5258787870407104,-0.0610351525247097,0.6713866591453552,100.0,107027.0,1.0
14:57:18.420477,176715.9375,184272.171875,198261.140625,175692.046875,176732.390625,196499.65625,688350.375,171769.671875,0.062255859375,0.979248046875,-0.253173828125,-1.5869139432907104,-0.1525878757238388,0.7019042372703552,100.0,107028.0,1.0
14:57:18.422963,176660.0625,184256.875,198246.125,175692.140625,176727.203125,196453.421875,688161.9375,171769.5,0.062255859375,0.980224609375,-0.250732421875,-1.5869139432907104,-0.0915527269244194,0.6713866591453552,100.0,107029.0,1.0
14:57:18.425467,176723.0,184278.421875,198269.8125,175696.96875,176740.609375,196493.84375,688091.25,171777.015625,0.0634765625,0.979736328125,-0.252685546875,-1.7089842557907104,-0.1220703050494194,0.5493163466453552,100.0,107030.0,1.0
14:57:18.428029,176796.3125,184315.265625,198296.28125,175702.515625,176757.609375,196565.09375,688316.5625,171785.859375,0.0625,0.98095703125,-0.25146484375,-1.8005369901657104,-0.1525878757238388,0.5493163466453552,100.0,107031.0,1.0
14:57:18.430464,176742.21875,184302.21875,198282.6875,175697.953125,176754.5625,196544.359375,688380.5,171780.3125,0.064453125,0.98193359375,-0.252197265625,-1.8615721464157104,-0.0610351525247097,0.3967284858226776,100.0,107032.0,1.0
14:57:18.433006,176682.140625,184301.765625,198264.8125,175699.375,176744.375,196480.609375,688214.6875,171777.09375,0.065673828125,0.9833984375,-0.252197265625,-1.9836424589157104,-0.0610351525247097,0.4577636420726776,100.0,107033.0,1.0
14:57:18.435472,176705.390625,184303.1875,198267.9375,175691.6875,176739.8125,196505.640625,688063.5,171770.296875,0.067138671875,0.980712890625,-0.2568359375,-2.105712652206421,0.03051757626235485,0.4272460639476776,100.0,107034.0,1.0
14:57:18.443010,176773.34375,184301.046875,198275.984375,175673.8125,176735.609375,196543.90625,688259.9375,171761.359375,0.0673828125,0.9794921875,-0.25341796875,-2.136230230331421,0.0610351525247097,0.4577636420726776,100.0,107035.0,1.0
14:57:18.445503,176759.65625,184351.125,198294.765625,175695.453125,176761.984375,196608.09375,688373.0625,171778.34375,0.067138671875,0.978759765625,-0.253662109375,-2.166747808456421,0.1525878757238388,0.4882812201976776,100.0,107036.0,1.0
14:57:18.448077,176695.28125,184312.40625,198271.609375,175696.796875,176747.953125,196510.90625,688229.5625,171775.21875,0.068115234375,0.978759765625,-0.25048828125,-2.166747808456421,0.03051757626235485,0.5798339247703552,100.0,107037.0,1.0
14:57:18.451154,176683.484375,184269.21875,198254.0,175689.8125,176725.5,196439.75,688063.4375,171767.171875,0.069091796875,0.97705078125,-0.25244140625,-2.258300542831421,0.0610351525247097,0.6103515028953552,100.0,107038.0,1.0
14:57:18.451160,176786.921875,184338.25,198287.875,175693.03125,176742.9375,196547.390625,688215.4375,171771.828125,0.06640625,0.976806640625,-0.253662109375,-2.258300542831421,0.0915527269244194,0.6408690810203552,100.0,107039.0,1.0
14:57:18.453558,176760.109375,184331.53125,198283.59375,175694.828125,176745.4375,196571.890625,688370.1875,171766.734375,0.065185546875,0.9765625,-0.251708984375,-2.197265386581421,0.1525878757238388,0.6713866591453552,100.0,107040.0,1.0
14:57:18.453564,176664.078125,184235.875,198235.21875,175673.09375,176713.078125,196452.703125,688257.75,171749.03125,0.06494140625,0.977783203125,-0.25244140625,-2.227782964706421,0.1831054538488388,0.5187987685203552,100.0,107041.0,1.0
14:57:18.455487,176657.828125,184253.390625,198242.1875,175679.4375,176718.625,196452.890625,688063.5,171756.265625,0.062744140625,0.9775390625,-0.252197265625,-2.288818120956421,0.2441406100988388,0.5493163466453552,100.0,107042.0,1.0
14:57:18.457967,176744.015625,184249.546875,198257.390625,175668.0,176717.640625,196491.15625,688174.375,171754.203125,0.064697265625,0.9755859375,-0.25439453125,-2.380370855331421,0.2746581733226776,0.5493163466453552,100.0,107043.0,1.0
14:57:18.463075,176749.015625,184272.53125,198266.78125,175673.71875,176727.109375,196529.421875,688357.3125,171756.71875,0.0634765625,0.97607421875,-0.25244140625,-2.349853277206421,0.1525878757238388,0.3662109076976776,100.0,107044.0,1.0
14:57:18.466088,176680.625,184255.359375,198246.125,175677.828125,176717.375,196478.640625,688293.5625,171758.5,0.062744140625,0.9755859375,-0.252197265625,-2.288818120956421,0.2746581733226776,0.3967284858226776,100.0,107045.0,1.0
14:57:18.466104,176663.640625,184289.25,198254.53125,175688.125,176728.8125,196482.65625,688098.5625,171765.5625,0.06396484375,0.974609375,-0.25390625,-2.136230230331421,0.2746581733226776,0.3356933295726776,100.0,107046.0,1.0
14:57:18.467970,176749.203125,184287.015625,198273.484375,175684.8125,176727.5625,196513.78125,688134.3125,171764.40625,0.062744140625,0.97412109375,-0.25146484375,-2.044677495956421,0.2136230319738388,0.2746581733226776,100.0,107047.0,1.0
14:57:18.471085,176792.828125,184357.28125,198300.65625,175693.921875,176746.609375,196578.59375,688338.4375,171768.34375,0.063232421875,0.97216796875,-0.24951171875,-1.8920897245407104,0.2441406100988388,0.3967284858226776,100.0,107048.0,1.0
14:57:18.471095,176754.75,184447.234375,198309.6875,175711.453125,176766.984375,196624.1875,688309.375,171782.375,0.062255859375,0.972412109375,-0.248779296875,-1.8615721464157104,0.1831054538488388,0.3967284858226776,100.0,107049.0,1.0
14:57:18.479261,176652.015625,184227.828125,198243.078125,175690.0,176717.8125,196442.609375,688131.125,171763.15625,0.0615234375,0.970703125,-0.25,-1.8005369901657104,0.1831054538488388,0.4882812201976776,100.0,107050.0,1.0
14:57:18.482309,176722.5625,184249.8125,198257.125,175677.921875,176716.5625,196466.484375,688091.3125,171754.203125,0.061279296875,0.97265625,-0.251953125,-1.7089842557907104,0.2136230319738388,0.5187987685203552,100.0,107051.0,1.0
14:57:18.482320,176772.890625,184262.34375,198271.0625,175676.3125,176726.125,196526.734375,688306.25,171751.96875,0.0615234375,0.97314453125,-0.251953125,-1.6174315214157104,0.1525878757238388,0.3967284858226776,100.0,107052.0,1.0
14:57:18.488021,176717.015625,184267.703125,198260.703125,175678.109375,176726.84375,196499.203125,688335.9375,171751.34375,0.063720703125,0.978515625,-0.25,-1.5869139432907104,0.0915527269244194,0.3967284858226776,100.0,107053.0,1.0
14:57:18.496059,176657.109375,184245.34375,198239.953125,175676.859375,176714.953125,196442.15625,688159.5625,171747.6875,0.065673828125,0.9794921875,-0.248779296875,-1.6174315214157104,0.03051757626235485,0.3967284858226776,100.0,107054.0,1.0
14:57:18.496070,176707.890625,184265.46875,198253.8125,175674.53125,176717.375,196473.984375,688064.0,171748.84375,0.0625,0.982177734375,-0.24853515625,-1.5258787870407104,0.1220703050494194,0.4577636420726776,100.0,107055.0,1.0
14:57:18.497962,176778.078125,184283.703125,198273.03125,175675.15625,176727.109375,196529.421875,688288.75,171752.421875,0.06005859375,0.982177734375,-0.24755859375,-1.5869139432907104,0.0915527269244194,0.4882812201976776,100.0,107056.0,1.0
14:57:18.509914,176726.3125,184277.0,198264.453125,175677.75,176729.265625,196517.34375,688353.5625,171753.046875,0.05908203125,0.979736328125,-0.247802734375,-1.6174315214157104,0.0,0.5187987685203552,100.0,107057.0,1.0
14:57:18.509925,176672.40625,184267.171875,198254.265625,175689.640625,176729.984375,196465.671875,688202.75,171764.484375,0.060546875,0.979736328125,-0.246826171875,-1.7089842557907104,0.0,0.5187987685203552,100.0,107058.0,1.0
14:57:18.512316,176704.9375,184278.34375,198266.953125,175694.46875,176739.625,196483.734375,688058.8125,171774.0625,0.06103515625,0.979248046875,-0.24755859375,-1.6784666776657104,-0.0610351525247097,0.4882812201976776,100.0,107059.0,1.0
14:57:18.512319,176783.265625,184283.890625,198280.375,175683.296875,176739.8125,196528.96875,688259.9375,171767.4375,0.0615234375,0.975341796875,-0.24853515625,-1.7089842557907104,-0.03051757626235485,0.6103515028953552,100.0,107060.0,1.0
14:57:18.521843,176746.34375,184281.5625,198273.9375,175685.078125,176740.171875,196528.890625,688363.9375,171765.203125,0.064208984375,0.9755859375,-0.25048828125,-1.6784666776657104,-0.0610351525247097,0.5798339247703552,100.0,107061.0,1.0
14:57:18.527323,176677.671875,184264.484375,198251.578125,175683.015625,176727.46875,196467.28125,688241.8125,171759.125,0.064208984375,0.978271484375,-0.2490234375,-1.6479490995407104,-0.1220703050494194,0.5187987685203552,100.0,107062.0,1.0
14:57:18.527337,176678.390625,184262.34375,198252.03125,175683.015625,176723.890625,196462.09375,688060.3125,171756.4375,0.064208984375,0.98046875,-0.2490234375,-1.6784666776657104,-0.1525878757238388,0.4577636420726776,100.0,107063.0,1.0
14:57:18.529234,176777.0,184282.359375,198277.15625,175683.203125,176730.421875,196517.171875,688208.375,171758.859375,0.064453125,0.97802734375,-0.25048828125,-1.6784666776657104,-0.2136230319738388,0.5187987685203552,100.0,107064.0,1.0
14:57:18.539234,176761.0,184288.890625,198278.125,175687.484375,176736.5,196534.515625,688371.1875,171760.296875,0.06396484375,0.979736328125,-0.25146484375,-1.6784666776657104,-0.1525878757238388,0.5798339247703552,100.0,107065.0,1.0
14:57:18.547848,176691.078125,184273.0625,198254.703125,175685.078125,176727.203125,196479.265625,688272.125,171757.609375,0.062744140625,0.98193359375,-0.25,-1.6174315214157104,-0.0915527269244194,0.5187987685203552,100.0,107066.0,1.0
14:57:18.547858,176669.359375,184269.484375,198248.984375,175684.8125,176723.625,196461.375,688075.5,171758.765625,0.064208984375,0.978759765625,-0.25048828125,-1.6174315214157104,-0.0915527269244194,0.6408690810203552,100.0,107067.0,1.0
14:57:18.549836,176761.09375,184281.921875,198269.90625,175683.109375,176727.296875,196510.109375,688152.6875,171760.015625,0.06396484375,0.9794921875,-0.25048828125,-1.6479490995407104,-0.1525878757238388,0.6713866591453552,100.0,107068.0,1.0
14:57:18.549860,176770.390625,184293.0,198280.1875,175686.78125,176739.09375,196546.234375,688352.5,171762.34375,0.063720703125,0.97998046875,-0.2529296875,-1.6479490995407104,-0.1831054538488388,0.7019042372703552,100.0,107069.0,1.0
14:57:18.559289,176696.453125,184270.734375,198252.921875,175679.71875,176725.953125,196488.5625,688291.0625,171756.71875,0.062255859375,0.98095703125,-0.2509765625,-1.6174315214157104,-0.1220703050494194,0.7629393935203552,100.0,107070.0,1.0
14:57:18.564898,176664.0,184273.515625,198247.5625,175684.546875,176725.0625,196462.8125,688092.875,171760.46875,0.063232421875,0.978759765625,-0.246826171875,-1.6479490995407104,-0.0915527269244194,0.7019042372703552,100.0,107071.0,1.0
14:57:18.564912,176749.5625,184286.46875,198270.171875,175686.59375,176732.125,196504.203125,688126.0,171767.0,0.06396484375,0.97705078125,-0.250732421875,-1.5258787870407104,-0.03051757626235485,0.7019042372703552,100.0,107072.0,1.0
14:57:18.571105,176782.28125,184292.734375,198281.265625,175688.203125,176739.1875,196541.21875,688345.5,171766.734375,0.063720703125,0.976318359375,-0.2509765625,-1.5258787870407104,-0.0610351525247097,0.7019042372703552,100.0,107073.0,1.0
14:57:18.571113,176723.0,184281.296875,198265.25,175689.546875,176734.8125,196503.40625,688333.25,171764.484375,0.06591796875,0.976806640625,-0.250244140625,-1.5563963651657104,-0.03051757626235485,0.5493163466453552,100.0,107074.0,1.0
14:57:18.581061,176673.5625,184271.453125,198250.0625,175690.4375,176725.234375,196459.6875,688138.1875,171761.265625,0.065185546875,0.9736328125,-0.248291015625,-1.4343260526657104,0.1220703050494194,0.6713866591453552,100.0,107075.0,1.0
14:57:18.581067,176734.53125,184278.703125,198261.234375,175680.875,176722.828125,196489.8125,688084.5625,171756.53125,0.064208984375,0.9755859375,-0.24755859375,-1.4648436307907104,0.1525878757238388,0.6408690810203552,100.0,107076.0,1.0
14:57:18.587373,176788.1875,184294.796875,198276.703125,175680.34375,176730.25,196537.203125,688306.5625,171756.4375,0.0654296875,0.974853515625,-0.247314453125,-1.4648436307907104,0.1525878757238388,0.7629393935203552,100.0,107077.0,1.0
14:57:18.587386,176727.46875,184287.734375,198262.046875,175678.375,176729.0,196512.34375,688347.125,171754.484375,0.0654296875,0.9794921875,-0.2470703125,-1.4038084745407104,0.2441406100988388,0.7019042372703552,100.0,107078.0,1.0
14:57:18.593582,176665.609375,184260.453125,198240.765625,175676.9375,176718.171875,196453.0625,688175.4375,171751.265625,0.0654296875,0.9775390625,-0.247802734375,-1.4343260526657104,0.2746581733226776,0.7019042372703552,100.0,107079.0,1.0
14:57:18.593596,176715.578125,184280.3125,198259.265625,175682.03125,176727.03125,196482.390625,688077.75,171757.34375,0.064697265625,0.975830078125,-0.249755859375,-1.3732908964157104,0.2136230319738388,0.6408690810203552,100.0,107080.0,1.0
14:57:18.599405,176791.75,184300.515625,198283.046875,175682.03125,176738.65625,196540.15625,688308.875,171762.4375,0.06640625,0.977783203125,-0.24560546875,-1.3427733182907104,0.3662109076976776,0.6713866591453552,100.0,107081.0,1.0
14:57:18.604808,176744.640625,184296.21875,198275.0,175688.125,176740.078125,196528.890625,688386.9375,171765.828125,0.0654296875,0.978515625,-0.248291015625,-1.3732908964157104,0.3662109076976776,0.5798339247703552,100.0,107082.0,1.0
14:57:18.604819,176673.65625,184271.90625,198246.84375,175684.359375,176722.5625,196463.796875,688216.75,171758.234375,0.064208984375,0.978515625,-0.2529296875,-1.3732908964157104,0.3356933295726776,0.4882812201976776,100.0,107083.0,1.0
14:57:18.631815,176698.6875,184280.84375,198255.609375,175685.96875,176725.5,196476.9375,688068.375,171761.453125,0.066162109375,0.980712890625,-0.25146484375,-1.3732908964157104,0.4577636420726776,0.6103515028953552,100.0,107084.0,1.0
14:57:18.634891,176783.890625,184290.671875,198274.90625,175684.71875,176731.140625,196528.265625,688259.4375,171764.40625,0.06689453125,0.981201171875,-0.2490234375,-1.2512205839157104,0.4577636420726776,0.5187987685203552,100.0,107085.0,1.0
14:57:18.634897,176750.71875,184291.84375,198269.453125,175678.546875,176730.6875,196533.359375,688379.125,171756.890625,0.0654296875,0.98046875,-0.24853515625,-1.3427733182907104,0.4577636420726776,0.7019042372703552,100.0,107086.0,1.0
14:57:18.638111,176681.34375,184274.5,198244.609375,175676.046875,176716.75,196468.09375,688245.1875,171752.421875,0.064697265625,0.97998046875,-0.248291015625,-1.4343260526657104,0.4577636420726776,0.4882812201976776,100.0,107087.0,1.0
14:57:18.638116,176680.984375,184275.03125,198249.515625,175679.0,176719.78125,196467.109375,688071.75,171755.546875,0.06494140625,0.978759765625,-0.247802734375,-1.4343260526657104,0.4272460639476776,0.5187987685203552,100.0,107088.0,1.0
14:57:18.638117,176772.171875,184286.828125,198269.1875,175674.4375,176723.984375,196518.609375,688208.375,171756.359375,0.06298828125,0.978759765625,-0.247802734375,-1.3427733182907104,0.3967284858226776,0.5187987685203552,100.0,107089.0,1.0
14:57:18.640510,176763.140625,184297.921875,198274.5625,175681.765625,176731.5,196540.953125,688376.125,171760.296875,0.0625,0.978759765625,-0.251708984375,-1.4038084745407104,0.3356933295726776,0.5187987685203552,100.0,107090.0,1.0
14:57:18.643545,176694.484375,184272.4375,198252.921875,175686.78125,176722.828125,196478.453125,688290.625,171763.6875,0.0615234375,0.978271484375,-0.25146484375,-1.3427733182907104,0.3967284858226776,0.5493163466453552,100.0,107091.0,1.0
14:57:18.643553,176668.109375,184264.65625,198245.59375,175687.21875,176719.25,196457.1875,688089.625,171763.859375,0.062744140625,0.97802734375,-0.250732421875,-1.3427733182907104,0.4577636420726776,0.4882812201976776,100.0,107092.0,1.0
14:57:18.645463,176757.328125,184276.640625,198264.8125,175682.484375,176721.484375,196504.828125,688154.25,171764.3125,0.06201171875,0.97900390625,-0.250732421875,-1.3122557401657104,0.3662109076976776,0.5493163466453552,100.0,107093.0,1.0
14:57:18.651815,176771.734375,184289.96875,198274.109375,175683.828125,176729.0,196539.703125,688352.125,171764.40625,0.0615234375,0.980712890625,-0.24755859375,-1.4038084745407104,0.2746581733226776,0.4272460639476776,100.0,107094.0,1.0
14:57:18.656150,176705.5625,184277.0,198254.171875,175679.265625,176721.03125,196493.84375,688305.375,171759.21875,0.060791015625,0.97998046875,-0.251220703125,-1.3732908964157104,0.1525878757238388,0.6408690810203552,100.0,107095.0,1.0
14:57:18.656159,176665.78125,184268.78125,198242.8125,175679.890625,176714.953125,196458.703125,688109.75,171758.328125,0.06201171875,0.97998046875,-0.25048828125,-1.4953612089157104,0.03051757626235485,0.6713866591453552,100.0,107096.0,1.0
14:57:18.671761,176744.640625,184276.90625,198260.609375,175675.6875,176716.828125,196496.4375,688118.0,171758.328125,0.0625,0.97998046875,-0.2490234375,-1.5258787870407104,0.1220703050494194,0.6713866591453552,100.0,107097.0,1.0
14:57:18.674817,176779.515625,184287.28125,198274.5625,175676.578125,176728.8125,196541.21875,688337.5625,171760.921875,0.060546875,0.98046875,-0.2470703125,-1.5563963651657104,-0.0610351525247097,0.5798339247703552,100.0,107098.0,1.0
14:57:18.674820,176712.546875,184271.546875,198252.5625,175673.09375,176721.21875,196501.890625,688326.375,171755.90625,0.061767578125,0.97998046875,-0.24853515625,-1.5869139432907104,0.0,0.6713866591453552,100.0,107099.0,1.0
14:57:18.677291,176656.390625,184255.546875,198233.078125,175668.453125,176708.25,196451.015625,688141.25,171748.671875,0.062744140625,0.978759765625,-0.24755859375,-1.4953612089157104,0.0915527269244194,0.6408690810203552,100.0,107100.0,1.0
14:57:18.679232,176721.9375,184269.21875,198252.03125,175672.296875,176715.40625,196485.078125,688080.5,171754.03125,0.065185546875,0.978515625,-0.24755859375,-1.4648436307907104,-0.0610351525247097,0.6713866591453552,100.0,107101.0,1.0
14:57:18.687015,176791.75,184296.046875,198280.375,175684.625,176734.625,196548.015625,688314.5,171765.390625,0.063232421875,0.978271484375,-0.249267578125,-1.5869139432907104,-0.0915527269244194,0.4882812201976776,100.0,107102.0,1.0
14:57:18.691207,176730.25,184283.890625,198262.046875,175679.71875,176726.84375,196521.109375,688353.625,171758.40625,0.06494140625,0.9794921875,-0.251220703125,-1.5869139432907104,-0.1220703050494194,0.5798339247703552,100.0,107103.0,1.0
14:57:18.691218,176666.140625,184261.0,198237.90625,175677.75,176711.640625,196454.3125,688173.875,171754.03125,0.06298828125,0.979736328125,-0.2490234375,-1.5563963651657104,-0.2136230319738388,0.4882812201976776,100.0,107104.0,1.0
14:57:18.698622,176700.65625,184271.1875,198244.515625,175671.390625,176709.765625,196470.40625,688042.5,171750.453125,0.063232421875,0.979248046875,-0.2490234375,-1.5258787870407104,-0.2136230319738388,0.5187987685203552,100.0,107105.0,1.0
14:57:18.698692,176780.40625,184283.890625,198268.390625,175671.578125,176722.203125,196526.203125,688260.125,171754.5625,0.065673828125,0.9794921875,-0.250244140625,-1.5563963651657104,-0.2136230319738388,0.6103515028953552,100.0,107106.0,1.0
14:57:18.706938,176738.296875,184285.5,198266.328125,175678.90625,176731.859375,196527.09375,688361.625,171758.6875,0.0654296875,0.97998046875,-0.248291015625,-1.5869139432907104,-0.1831054538488388,0.5493163466453552,100.0,107107.0,1.0
14:57:18.711210,176665.609375,184261.171875,198238.4375,175675.0625,176714.953125,196458.078125,688208.125,171752.515625,0.062744140625,0.98095703125,-0.25146484375,-1.6479490995407104,-0.3356933295726776,0.5187987685203552,100.0,107108.0,1.0
14:57:18.711274,176681.421875,184261.0,198242.546875,175673.71875,176714.859375,196461.921875,688050.8125,171752.59375,0.064697265625,0.979736328125,-0.248779296875,-1.6174315214157104,-0.2441406100988388,0.6103515028953552,100.0,107109.0,1.0
14:57:18.713075,176770.390625,184274.859375,198263.015625,175669.34375,176721.578125,196515.5625,688245.3125,171753.578125,0.063720703125,0.980712890625,-0.25,-1.7089842557907104,-0.2136230319738388,0.4882812201976776,100.0,107110.0,1.0
14:57:18.723100,176748.484375,184282.90625,198266.515625,175679.984375,176730.875,196529.953125,688377.8125,171761.265625,0.065185546875,0.98095703125,-0.25,-1.7395018339157104,-0.2441406100988388,0.6408690810203552,100.0,107111.0,1.0
14:57:18.748558,176686.875,184270.734375,198249.25,175687.046875,176724.4375,196474.171875,688253.9375,171765.828125,0.065185546875,0.980224609375,-0.25048828125,-1.7395018339157104,-0.2746581733226776,0.5798339247703552,100.0,107112.0,1.0
14:57:18.748572,176679.734375,184273.15625,198248.890625,175686.953125,176722.28125,196465.671875,688061.5,171765.5625,0.065673828125,0.981201171875,-0.251220703125,-1.8310545682907104,-0.1831054538488388,0.5187987685203552,100.0,107113.0,1.0
14:57:18.773132,176767.96875,184282.1875,198264.359375,175675.25,176720.5,196512.171875,688185.5625,171759.21875,0.064453125,0.98095703125,-0.25146484375,-1.8615721464157104,-0.1525878757238388,0.5493163466453552,100.0,107114.0,1.0
14:57:18.779299,176763.234375,184290.328125,198270.0,175680.078125,176728.71875,196538.09375,688366.5,171763.515625,0.064697265625,0.981689453125,-0.251708984375,-1.8005369901657104,-0.3356933295726776,0.5798339247703552,100.0,107115.0,1.0
14:57:18.781771,176685.0,184261.625,198238.4375,175672.03125,176708.875,196473.1875,688278.4375,171753.671875,0.063720703125,0.97998046875,-0.250732421875,-1.8920897245407104,-0.3356933295726776,0.4882812201976776,100.0,107116.0,1.0
14:57:18.784310,176656.03125,184253.484375,198229.40625,175671.3125,176703.515625,196445.921875,688085.0,171751.171875,0.0654296875,0.9794921875,-0.250244140625,-1.9226073026657104,-0.3662109076976776,0.4272460639476776,100.0,107117.0,1.0
14:57:18.787391,176738.015625,184257.6875,198241.5625,175661.109375,176701.90625,196484.1875,688134.5,171747.59375,0.064208984375,0.9794921875,-0.25244140625,-2.014159917831421,-0.3051757514476776,0.2746581733226776,100.0,107118.0,1.0
14:57:18.790001,176747.859375,184260.734375,198243.53125,175655.65625,176703.6875,196513.421875,688339.625,171743.03125,0.067626953125,0.9814453125,-0.252685546875,-2.105712652206421,-0.2746581733226776,0.1525878757238388,100.0,107119.0,1.0
14:57:18.790075,176691.0,184256.4375,198235.03125,175666.65625,176707.171875,196480.34375,688313.6875,171751.625,0.0693359375,0.983154296875,-0.25244140625,-2.044677495956421,-0.2136230319738388,0.0915527269244194,100.0,107120.0,1.0
14:57:18.791771,176653.625,184254.203125,198230.5625,175671.3125,176706.546875,196448.0625,688127.875,171754.5625,0.070068359375,0.982666015625,-0.2529296875,-2.075195074081421,-0.1220703050494194,0.1525878757238388,100.0,107121.0,1.0
14:57:18.794519,176735.78125,184275.5625,198254.890625,175674.703125,176715.046875,196494.546875,688125.0625,171760.46875,0.070556640625,0.981689453125,-0.2548828125,-2.136230230331421,0.0,0.1220703050494194,100.0,107122.0,1.0
14:57:18.796747,176780.3125,184290.765625,198271.6875,175676.9375,176727.46875,196543.1875,688356.4375,171762.609375,0.068359375,0.97998046875,-0.252685546875,-2.105712652206421,0.0610351525247097,0.2746581733226776,100.0,107123.0,1.0
14:57:18.799250,176712.984375,184268.859375,198252.734375,175677.5625,176722.375,196506.796875,688377.5,171762.96875,0.0673828125,0.97900390625,-0.250732421875,-2.166747808456421,0.2441406100988388,0.1525878757238388,100.0,107124.0,1.0
14:57:18.801897,176656.125,184254.5625,198234.859375,175676.3125,176712.546875,196456.015625,688181.5625,171759.84375,0.06640625,0.979248046875,-0.250732421875,-2.166747808456421,0.2136230319738388,0.2136230319738388,100.0,107125.0,1.0
14:57:18.804350,176711.203125,184264.125,198248.1875,175673.546875,176713.4375,196481.953125,688107.0625,171758.59375,0.06494140625,0.97998046875,-0.25146484375,-2.227782964706421,0.3356933295726776,0.2136230319738388,100.0,107126.0,1.0
14:57:18.806810,176772.0,184274.671875,198266.0625,175668.71875,176718.078125,196526.921875,688320.3125,171755.015625,0.06494140625,0.978759765625,-0.25048828125,-2.258300542831421,0.4882812201976776,0.3051757514476776,100.0,107127.0,1.0
14:57:18.810109,176712.28125,184259.75,198248.453125,175662.28125,176709.953125,196498.75,688362.125,171748.9375,0.0654296875,0.977294921875,-0.25048828125,-2.166747808456421,0.4882812201976776,0.3051757514476776,100.0,107128.0,1.0
14:57:18.812513,176655.140625,184248.390625,198231.015625,175666.21875,176702.0,196444.65625,688191.9375,171752.0625,0.06396484375,0.975830078125,-0.250244140625,-2.105712652206421,0.5187987685203552,0.3051757514476776,100.0,107129.0,1.0
14:57:18.812571,176696.359375,184265.015625,198247.015625,175672.375,176708.4375,196467.734375,688063.25,171758.234375,0.064453125,0.975341796875,-0.24951171875,-2.075195074081421,0.4577636420726776,0.3356933295726776,100.0,107130.0,1.0
14:57:18.814863,176767.609375,184265.203125,198258.828125,175666.921875,176708.15625,196511.1875,688259.3125,171755.109375,0.064208984375,0.976806640625,-0.25146484375,-2.044677495956421,0.3967284858226776,0.4272460639476776,100.0,107131.0,1.0
14:57:18.814933,176717.546875,184254.921875,198242.8125,175663.703125,176702.0,196498.75,688352.875,171749.109375,0.06396484375,0.977783203125,-0.249267578125,-2.014159917831421,0.3662109076976776,0.4577636420726776,100.0,107132.0,1.0
14:57:18.817572,176651.296875,184237.296875,198220.015625,175662.453125,176690.375,196436.796875,688213.1875,171748.125,0.063720703125,0.977294921875,-0.249755859375,-1.9531248807907104,0.3662109076976776,0.4882812201976776,100.0,107133.0,1.0
14:57:18.817629,176669.265625,184248.75,198231.28125,175669.34375,176696.53125,196444.578125,688054.75,171755.90625,0.0654296875,0.981201171875,-0.252197265625,-1.8920897245407104,0.3967284858226776,0.3662109076976776,100.0,107134.0,1.0
14:57:18.819572,176759.65625,184261.984375,198252.46875,175664.328125,176700.921875,196496.703125,688233.5625,171754.296875,0.063232421875,0.980712890625,-0.24853515625,-1.9836424589157104,0.4272460639476776,0.3662109076976776,100.0,107135.0,1.0
14:57:18.821891,176736.421875,184263.40625,198252.921875,175666.65625,176707.890625,196510.203125,688375.125,171754.296875,0.065185546875,0.97900390625,-0.24462890625,-1.8920897245407104,0.4577636420726776,0.3967284858226776,100.0,107136.0,1.0
14:57:18.824340,176668.203125,184247.140625,198230.5625,175665.40625,176698.0625,196450.46875,688257.375,171749.921875,0.064453125,0.978271484375,-0.247314453125,-1.9531248807907104,0.3356933295726776,0.4577636420726776,100.0,107137.0,1.0
14:57:18.832350,176657.375,184246.59375,198230.390625,175666.75,176696.53125,196438.9375,688066.75,171747.59375,0.06591796875,0.978759765625,-0.24853515625,-2.014159917831421,0.3662109076976776,0.4577636420726776,100.0,107138.0,1.0
14:57:18.832394,176752.328125,184256.796875,198254.4375,175665.3125,176704.9375,196488.921875,688185.3125,171752.59375,0.0654296875,0.98046875,-0.248779296875,-2.044677495956421,0.3967284858226776,0.4882812201976776,100.0,107139.0,1.0
14:57:18.842510,176753.9375,184271.015625,198262.9375,175669.34375,176715.9375,196520.21875,688367.9375,171756.53125,0.06494140625,0.9814453125,-0.25,-1.9531248807907104,0.2746581733226776,0.4882812201976776,100.0,107140.0,1.0
14:57:18.842528,176682.328125,184250.4375,198236.921875,175667.546875,176702.078125,196460.484375,688288.125,171750.640625,0.06396484375,0.979248046875,-0.251220703125,-1.8310545682907104,0.2136230319738388,0.5493163466453552,100.0,107141.0,1.0
14:57:18.844929,176657.5625,184251.078125,198233.703125,175673.8125,176702.0,196438.40625,688096.5,171753.9375,0.064697265625,0.9775390625,-0.252197265625,-1.8920897245407104,0.3051757514476776,0.5798339247703552,100.0,107142.0,1.0
14:57:18.844949,176749.46875,184265.90625,198259.453125,175675.0625,176710.390625,196486.0625,688135.5625,171759.578125,0.063720703125,0.97705078125,-0.248291015625,-1.8310545682907104,0.3051757514476776,0.5187987685203552,100.0,107143.0,1.0
14:57:18.854631,176767.703125,184273.78125,198266.234375,175670.765625,176715.40625,196521.28125,688340.75,171754.390625,0.065673828125,0.976806640625,-0.247314453125,-1.8005369901657104,0.2441406100988388,0.4882812201976776,100.0,107144.0,1.0
14:57:18.858590,176702.078125,184262.34375,198247.375,175670.6875,176709.859375,196479.0,688316.125,171751.96875,0.06298828125,0.976318359375,-0.247802734375,-1.8615721464157104,0.3051757514476776,0.4882812201976776,100.0,107145.0,1.0
14:57:18.858614,176661.3125,184255.0,198238.34375,175672.921875,176705.296875,196435.8125,688119.125,171750.90625,0.0625,0.97509765625,-0.2490234375,-1.7700194120407104,0.2136230319738388,0.5798339247703552,100.0,107146.0,1.0
14:57:18.865025,176742.40625,184273.59375,198262.9375,175674.4375,176715.40625,196477.296875,688099.75,171757.15625,0.060791015625,0.97265625,-0.249267578125,-1.7395018339157104,0.1220703050494194,0.6408690810203552,100.0,107147.0,1.0
14:57:18.865095,176789.796875,184292.734375,198280.90625,175677.75,176727.5625,196531.125,688323.6875,171762.796875,0.058837890625,0.972412109375,-0.24853515625,-1.5869139432907104,0.1525878757238388,0.6103515028953552,100.0,107148.0,1.0
14:57:18.871794,176721.9375,184275.921875,198260.078125,175673.453125,176719.421875,196494.90625,688337.3125,171757.34375,0.0595703125,0.972900390625,-0.248046875,-1.5869139432907104,0.0610351525247097,0.5187987685203552,100.0,107149.0,1.0
14:57:18.876118,176668.015625,184265.640625,198243.625,175674.703125,176710.9375,196444.84375,688164.0,171756.53125,0.060546875,0.97314453125,-0.250244140625,-1.4648436307907104,0.0,0.5798339247703552,100.0,107150.0,1.0
14:57:18.876185,176723.0,184273.421875,198257.65625,175677.828125,176712.546875,196469.421875,688077.375,171759.75,0.059814453125,0.974609375,-0.25146484375,-1.4648436307907104,-0.03051757626235485,0.4882812201976776,100.0,107151.0,1.0
14:57:18.885595,176789.34375,184286.921875,198276.609375,175677.390625,176720.953125,196522.265625,688299.375,171760.734375,0.061279296875,0.974853515625,-0.24951171875,-1.3122557401657104,-0.0610351525247097,0.3967284858226776,100.0,107152.0,1.0
14:57:18.893553,176731.5,184275.203125,198260.15625,175672.46875,176716.203125,196501.34375,688362.4375,171754.203125,0.060791015625,0.975830078125,-0.25048828125,-1.2512205839157104,-0.1220703050494194,0.3051757514476776,100.0,107153.0,1.0
14:57:18.893568,176663.375,184253.3125,198233.703125,175667.109375,176700.828125,196438.046875,688187.25,171747.140625,0.0625,0.97412109375,-0.24853515625,-1.1596678495407104,-0.2136230319738388,0.3662109076976776,100.0,107154.0,1.0
14:57:18.896136,176701.90625,184270.828125,198250.0625,175671.578125,176709.140625,196462.71875,688055.5625,171754.390625,0.06298828125,0.9755859375,-0.250244140625,-1.0986326932907104,-0.3051757514476776,0.3967284858226776,100.0,107155.0,1.0
14:57:18.896146,176782.28125,184282.625,198268.125,175667.28125,176712.28125,196516.375,688269.9375,171753.140625,0.06494140625,0.97607421875,-0.2509765625,-1.0070799589157104,-0.2441406100988388,0.4882812201976776,100.0,107156.0,1.0
14:57:18.908067,176740.703125,184279.765625,198258.546875,175664.875,176711.640625,196514.40625,688367.4375,171749.03125,0.063720703125,0.974609375,-0.251953125,-0.9460448622703552,-0.3051757514476776,0.4272460639476776,100.0,107157.0,1.0
14:57:18.915564,176674.71875,184263.234375,198237.71875,175666.921875,176703.0625,196454.3125,688228.6875,171749.734375,0.06201171875,0.975830078125,-0.253173828125,-0.8239745497703552,-0.3967284858226776,0.3662109076976776,100.0,107158.0,1.0
14:57:18.915582,176683.3125,184274.046875,198244.875,175670.953125,176706.546875,196458.609375,688054.3125,171754.75,0.0615234375,0.9755859375,-0.250244140625,-0.6713866591453552,-0.4577636420726776,0.3356933295726776,100.0,107159.0,1.0
14:57:18.915586,176765.734375,184274.3125,198259.890625,175662.8125,176706.109375,196504.296875,688207.8125,171753.140625,0.056884765625,0.975830078125,-0.24755859375,-0.7324218153953552,-0.4882812201976776,0.1525878757238388,100.0,107160.0,1.0
14:57:18.918644,176741.59375,184276.1875,198256.5,175662.546875,176708.703125,196516.90625,688358.5625,171753.3125,0.054931640625,0.978271484375,-0.246337890625,-0.6408690810203552,-0.6103515028953552,0.1525878757238388,100.0,107161.0,1.0
14:57:18.918658,176671.59375,184250.890625,198231.1875,175658.703125,176694.484375,196451.453125,688262.875,171747.328125,0.056396484375,0.98095703125,-0.2431640625,-0.6408690810203552,-0.7324218153953552,0.0915527269244194,100.0,107162.0,1.0
14:57:18.928006,176662.296875,184254.46875,198231.90625,175662.453125,176694.921875,196439.03125,688073.5625,171749.203125,0.056396484375,0.984130859375,-0.24560546875,-0.7019042372703552,-0.8239745497703552,-0.0610351525247097,100.0,107163.0,1.0
14:57:18.938586,176758.671875,184272.53125,198257.125,175663.078125,176702.625,196492.765625,688171.875,171753.3125,0.0576171875,0.986572265625,-0.24560546875,-0.7934569716453552,-0.8239745497703552,-0.1220703050494194,100.0,107164.0,1.0
14:57:18.938601,176762.875,184277.890625,198263.46875,175667.640625,176711.375,196521.828125,688357.25,171754.75,0.057373046875,0.989501953125,-0.2470703125,-0.8850097060203552,-0.9460448622703552,-0.1220703050494194,100.0,107165.0,1.0
14:57:18.941130,176692.96875,184256.4375,198243.359375,175667.828125,176703.0625,196468.53125,688289.25,171753.046875,0.060791015625,0.990234375,-0.248046875,-1.1291502714157104,-0.9460448622703552,-0.1525878757238388,100.0,107166.0,1.0
14:57:18.941138,176663.1875,184259.125,198240.84375,175672.734375,176705.21875,196448.0625,688089.125,171755.734375,0.062744140625,0.992431640625,-0.248779296875,-1.2207030057907104,-0.8850097060203552,-0.1831054538488388,100.0,107167.0,1.0
14:57:18.948127,176748.578125,184275.390625,198260.515625,175668.171875,176709.859375,196495.265625,688141.25,171756.265625,0.063720703125,0.992431640625,-0.25,-1.3732908964157104,-0.8850097060203552,-0.1220703050494194,100.0,107168.0,1.0
14:57:18.956170,176777.71875,184290.328125,198274.734375,175673.359375,176721.296875,196539.171875,688358.375,171759.65625,0.063720703125,0.9951171875,-0.250244140625,-1.5258787870407104,-0.8544921278953552,0.0,100.0,107169.0,1.0
14:57:18.956175,176715.21875,184274.578125,198259.0,175681.765625,176717.734375,196495.71875,688331.9375,171761.90625,0.067138671875,0.992431640625,-0.25,-1.7089842557907104,-0.9155272841453552,0.1831054538488388,100.0,107170.0,1.0
14:57:18.958583,176671.859375,184268.59375,198246.921875,175681.046875,176711.921875,196456.46875,688142.75,171759.65625,0.0673828125,0.98974609375,-0.25048828125,-1.9226073026657104,-0.8239745497703552,0.2136230319738388,100.0,107171.0,1.0
14:57:18.958592,176743.65625,184285.5,198265.609375,175678.640625,176717.453125,196498.3125,688110.9375,171764.671875,0.06689453125,0.990234375,-0.25048828125,-2.166747808456421,-0.7019042372703552,0.5493163466453552,100.0,107172.0,1.0
14:57:18.969231,176792.03125,184295.421875,198279.109375,175678.90625,176724.703125,196541.9375,688330.6875,171765.65625,0.065185546875,0.986572265625,-0.24609375,-2.197265386581421,-0.6408690810203552,0.7629393935203552,100.0,107173.0,1.0
14:57:18.977424,176731.765625,184282.453125,198263.640625,175684.984375,176722.375,196510.5625,688359.8125,171766.375,0.062255859375,0.98681640625,-0.244873046875,-2.258300542831421,-0.5798339247703552,0.8850097060203552,100.0,107174.0,1.0
14:57:18.977444,176674.90625,184271.1875,198247.46875,175683.109375,176714.15625,196461.109375,688175.5625,171765.203125,0.06201171875,0.983642578125,-0.245849609375,-2.288818120956421,-0.4882812201976776,0.8850097060203552,100.0,107175.0,1.0
14:57:18.979927,176721.03125,184276.546875,198257.21875,175676.40625,176713.890625,196482.296875,688082.5625,171761.90625,0.060302734375,0.98095703125,-0.244384765625,-2.410888433456421,-0.5187987685203552,0.9765624403953552,100.0,107176.0,1.0
14:57:18.979949,176790.953125,184289.25,198275.546875,175675.25,176721.21875,196531.75,688301.6875,171761.90625,0.06103515625,0.98095703125,-0.24365234375,-2.502441167831421,-0.5493163466453552,0.8850097060203552,100.0,107177.0,1.0
14:57:18.994255,176739.359375,184284.59375,198264.09375,175678.546875,176720.671875,196519.765625,688379.5625,171762.53125,0.0615234375,0.98046875,-0.244873046875,-2.563476324081421,-0.4577636420726776,1.0375975370407104,100.0,107178.0,1.0
14:57:18.999668,176671.859375,184263.40625,198239.328125,175675.15625,176708.34375,196460.3125,688214.0625,171758.859375,0.061767578125,0.9794921875,-0.2451171875,-2.563476324081421,-0.4882812201976776,0.9460448622703552,100.0,107179.0,1.0
14:57:18.999679,176692.15625,184266.8125,198244.34375,175671.21875,176707.625,196469.875,688065.0625,171757.421875,0.060791015625,0.978515625,-0.244140625,-2.655029058456421,-0.4272460639476776,0.8544921278953552,100.0,107180.0,1.0
14:57:18.999681,176777.09375,184278.875,198264.984375,175665.40625,176714.78125,196523.515625,688267.8125,171756.53125,0.06201171875,0.978759765625,-0.2431640625,-2.716064214706421,-0.3356933295726776,0.8850097060203552,100.0,107181.0,1.0
14:57:19.002328,176740.96875,184276.8125,198259.171875,175668.265625,176717.453125,196523.96875,688391.1875,171756.53125,0.063232421875,0.9765625,-0.24462890625,-2.655029058456421,-0.3356933295726776,0.7934569716453552,100.0,107182.0,1.0
14:57:19.002340,176674.359375,184260.90625,198237.71875,175670.5,176708.78125,196463.96875,688258.5,171756.4375,0.064697265625,0.97314453125,-0.24462890625,-2.593993902206421,-0.1831054538488388,0.7934569716453552,100.0,107183.0,1.0
14:57:19.011749,176676.953125,184263.765625,198242.453125,175672.5625,176712.28125,196461.734375,688081.5625,171761.265625,0.065185546875,0.971923828125,-0.244384765625,-2.471923589706421,-0.0610351525247097,0.5187987685203552,100.0,107184.0,1.0
14:57:19.016100,176769.578125,184274.578125,198263.828125,175668.453125,176719.25,196512.96875,688216.25,171763.6875,0.068359375,0.974365234375,-0.246826171875,-2.319335699081421,0.03051757626235485,0.3967284858226776,100.0,107185.0,1.0
14:57:19.016111,176746.25,184276.015625,198258.546875,175661.5625,176719.0625,196527.1875,688376.8125,171754.5625,0.069580078125,0.9755859375,-0.24462890625,-2.227782964706421,0.1831054538488388,0.3967284858226776,100.0,107186.0,1.0
14:57:19.025496,176680.171875,184257.78125,198240.40625,175664.421875,176714.0625,196472.015625,688282.5,171756.265625,0.0732421875,0.977783203125,-0.2431640625,-2.166747808456421,0.3356933295726776,0.5187987685203552,100.0,107187.0,1.0
14:57:19.032352,176662.296875,184261.171875,198240.671875,175668.625,176717.90625,196458.796875,688090.8125,171761.359375,0.072998046875,0.97802734375,-0.24169921875,-2.227782964706421,0.4882812201976776,0.3967284858226776,100.0,107188.0,1.0
14:57:19.032360,176753.21875,184273.953125,198260.703125,175664.328125,176720.953125,196508.046875,688184.6875,171760.921875,0.072021484375,0.974365234375,-0.240234375,-2.166747808456421,0.5798339247703552,0.4272460639476776,100.0,107189.0,1.0
14:57:19.034822,176762.515625,184283.96875,198268.296875,175667.828125,176727.296875,196539.171875,688385.125,171761.8125,0.0703125,0.9736328125,-0.24072265625,-2.136230230331421,0.7324218153953552,0.4577636420726776,100.0,107190.0,1.0
14:57:19.034826,176693.234375,184263.671875,198245.3125,175670.953125,176716.296875,196482.296875,688324.625,171760.921875,0.06884765625,0.970947265625,-0.243896484375,-2.044677495956421,0.8544921278953552,0.4577636420726776,100.0,107191.0,1.0
14:57:19.046849,176654.609375,184256.703125,198234.0625,175670.234375,176709.328125,196446.453125,688114.75,171756.71875,0.070068359375,0.97119140625,-0.246826171875,-1.8920897245407104,0.9460448622703552,0.5493163466453552,100.0,107192.0,1.0
14:57:19.058034,176742.140625,184273.6875,198257.75,175672.921875,176717.453125,196492.859375,688131.625,171762.078125,0.06689453125,0.968017578125,-0.24755859375,-1.7395018339157104,0.9155272841453552,0.5187987685203552,100.0,107193.0,1.0
14:57:19.058052,176770.390625,184280.671875,198266.421875,175670.59375,176721.9375,196531.390625,688345.1875,171760.015625,0.06396484375,0.968017578125,-0.245361328125,-1.6174315214157104,1.0070799589157104,0.4577636420726776,100.0,107194.0,1.0
14:57:19.058053,176706.640625,184268.0625,198249.609375,175672.296875,176715.5,196490.53125,688341.5625,171759.65625,0.06298828125,0.970458984375,-0.245849609375,-1.3427733182907104,1.0375975370407104,0.4882812201976776,100.0,107195.0,1.0
14:57:19.061163,176661.21875,184260.640625,198240.484375,175676.9375,176712.359375,196447.4375,688148.0,171762.171875,0.062744140625,0.973876953125,-0.24365234375,-1.0375975370407104,1.0681151151657104,0.4272460639476776,100.0,107196.0,1.0
14:57:19.061173,176732.296875,184275.75,198261.0625,175678.109375,176719.0625,196482.390625,688106.0625,171766.8125,0.06201171875,0.974609375,-0.246337890625,-0.9460448622703552,0.9765624403953552,0.5798339247703552,100.0,107197.0,1.0
14:57:19.066819,176793.015625,184295.6875,198282.609375,175681.40625,176733.109375,196536.75,688332.8125,171772.625,0.058837890625,0.9755859375,-0.24658203125,-0.8239745497703552,0.9460448622703552,0.5187987685203552,100.0,107198.0,1.0
14:57:19.071153,176732.75,184279.5,198266.59375,175682.65625,176728.375,196504.03125,688358.8125,171770.125,0.05859375,0.9736328125,-0.244873046875,-0.7019042372703552,0.8850097060203552,0.4882812201976776,100.0,107199.0,1.0
14:57:19.071162,176668.46875,184257.859375,198241.125,175674.609375,176712.8125,196443.140625,688167.0,171761.90625,0.056396484375,0.97314453125,-0.2470703125,-0.5187987685203552,0.7324218153953552,0.4577636420726776,100.0,107200.0,1.0
14:57:19.085641,176711.015625,184267.34375,198250.5,175672.296875,176714.15625,196467.46875,688060.875,171761.71875,0.056640625,0.9716796875,-0.244384765625,-0.4577636420726776,0.6408690810203552,0.4272460639476776,100.0,107201.0,1.0
14:57:19.088702,176779.59375,184279.6875,198265.703125,175666.921875,176718.796875,196521.28125,688286.875,171759.3125,0.055908203125,0.972412109375,-0.24609375,-0.2136230319738388,0.5187987685203552,0.4272460639476776,100.0,107202.0,1.0
14:57:19.088726,176737.84375,184281.734375,198263.203125,175675.6875,176726.484375,196516.375,688363.375,171765.125,0.056640625,0.971923828125,-0.248291015625,-0.0915527269244194,0.4272460639476776,0.3356933295726776,100.0,107203.0,1.0
14:57:19.091218,176672.9375,184260.640625,198241.921875,175678.734375,176714.859375,196456.109375,688216.875,171764.3125,0.05810546875,0.97412109375,-0.248779296875,0.1220703050494194,0.3356933295726776,0.2746581733226776,100.0,107204.0,1.0
14:57:19.091243,176686.4375,184258.765625,198240.484375,175673.546875,176708.34375,196460.21875,688052.1875,171758.765625,0.058837890625,0.976806640625,-0.2490234375,0.2136230319738388,0.2136230319738388,0.2746581733226776,100.0,107205.0,1.0
14:57:19.096870,176775.390625,184274.3125,198264.0,175671.9375,176719.0625,196516.453125,688243.4375,171764.21875,0.056396484375,0.97607421875,-0.25146484375,0.2441406100988388,0.1525878757238388,0.3967284858226776,100.0,107206.0,1.0
14:57:19.132382,176748.390625,184280.125,198265.609375,175678.46875,176729.078125,196527.453125,688364.9375,171770.75,0.05615234375,0.9775390625,-0.2509765625,0.2746581733226776,0.0915527269244194,0.3967284858226776,100.0,107207.0,1.0
14:57:19.132395,176679.28125,184256.703125,198240.578125,175675.328125,176715.5,196463.171875,688244.5,171764.578125,0.058349609375,0.982177734375,-0.251953125,0.3356933295726776,-0.0915527269244194,0.3967284858226776,100.0,107208.0,1.0
14:57:19.143028,176670.96875,184252.40625,198235.484375,175669.34375,176708.34375,196450.65625,688057.5625,171758.140625,0.05908203125,0.983642578125,-0.251953125,0.3967284858226776,-0.2136230319738388,0.3356933295726776,100.0,107209.0,1.0
14:57:19.145567,176766.359375,184268.78125,198258.28125,175666.84375,176715.140625,196504.828125,688191.75,171760.828125,0.05712890625,0.983642578125,-0.25,0.2746581733226776,-0.2136230319738388,0.3967284858226776,100.0,107210.0,1.0
14:57:19.148026,176758.40625,184277.171875,198263.375,175675.15625,176724.4375,196527.8125,688358.5,171764.9375,0.056396484375,0.98388671875,-0.24951171875,0.3356933295726776,-0.3051757514476776,0.4272460639476776,100.0,107211.0,1.0
14:57:19.150566,176688.84375,184257.78125,198241.03125,175680.515625,176715.671875,196469.25,688270.0625,171765.65625,0.058349609375,0.981201171875,-0.2529296875,0.2441406100988388,-0.3051757514476776,0.4272460639476776,100.0,107212.0,1.0
14:57:19.152987,176668.828125,184256.96875,198241.125,175684.359375,176716.5625,196450.03125,688072.125,171771.28125,0.05908203125,0.977783203125,-0.253662109375,0.2441406100988388,-0.4882812201976776,0.5493163466453552,100.0,107213.0,1.0
14:57:19.159276,176756.359375,184267.4375,198260.96875,175678.375,176718.796875,196496.4375,688140.875,171770.75,0.060791015625,0.9775390625,-0.25390625,0.1831054538488388,-0.5187987685203552,0.6103515028953552,100.0,107214.0,1.0
14:57:19.161765,176771.46875,184282.71875,198272.953125,175683.203125,176732.65625,196536.390625,688340.625,171774.5,0.059814453125,0.97802734375,-0.252685546875,0.2136230319738388,-0.5187987685203552,0.7629393935203552,100.0,107215.0,1.0
14:57:19.164235,176713.171875,184273.59375,198259.796875,175689.546875,176732.65625,196491.953125,688298.875,171781.03125,0.061279296875,0.982666015625,-0.25146484375,0.2441406100988388,-0.6103515028953552,0.8850097060203552,100.0,107216.0,1.0
14:57:19.166721,176673.921875,184266.53125,198250.421875,175690.796875,176726.9375,196452.265625,688102.875,171780.140625,0.0615234375,0.98291015625,-0.253662109375,0.1831054538488388,-0.6713866591453552,1.0070799589157104,100.0,107217.0,1.0
14:57:19.169267,176754.828125,184279.765625,198271.515625,175689.453125,176729.53125,196491.15625,688101.1875,171781.125,0.06591796875,0.984130859375,-0.252197265625,0.1525878757238388,-0.6713866591453552,1.0070799589157104,100.0,107218.0,1.0
14:57:19.171722,176791.21875,184288.71875,198284.390625,175688.828125,176732.921875,196531.65625,688322.0625,171777.71875,0.065185546875,0.985595703125,-0.253662109375,0.03051757626235485,-0.6408690810203552,1.1291502714157104,100.0,107219.0,1.0
14:57:19.174269,176729.703125,184276.8125,198268.5625,175692.3125,176727.65625,196495.890625,688330.3125,171777.453125,0.06591796875,0.9853515625,-0.25244140625,-0.2136230319738388,-0.6713866591453552,1.1596678495407104,100.0,107220.0,1.0
14:57:19.177303,176671.6875,184259.203125,198247.375,175686.59375,176713.078125,196441.71875,688131.125,171769.140625,0.066650390625,0.982666015625,-0.253662109375,-0.3356933295726776,-0.6408690810203552,1.2817381620407104,100.0,107221.0,1.0
14:57:19.177311,176728.640625,184266.1875,198258.109375,175680.515625,176709.859375,196468.265625,688058.8125,171765.5625,0.06640625,0.980224609375,-0.2529296875,-0.3662109076976776,-0.6103515028953552,1.2817381620407104,100.0,107222.0,1.0
14:57:19.179283,176784.515625,184276.546875,198274.203125,175677.828125,176718.078125,196517.984375,688280.8125,171766.015625,0.0634765625,0.9775390625,-0.252197265625,-0.4272460639476776,-0.6103515028953552,1.1901854276657104,100.0,107223.0,1.0
14:57:19.181732,176720.328125,184262.96875,198253.640625,175673.359375,176711.640625,196490.796875,688330.6875,171759.03125,0.0625,0.97900390625,-0.25390625,-0.4577636420726776,-0.6103515028953552,1.3122557401657104,100.0,107224.0,1.0
14:57:19.184831,176657.5625,184247.765625,198234.40625,175676.671875,176702.53125,196436.265625,688171.875,171758.765625,0.062255859375,0.98095703125,-0.25244140625,-0.5187987685203552,-0.6713866591453552,1.2817381620407104,100.0,107225.0,1.0
14:57:19.184839,176695.640625,184253.3125,198245.046875,175674.53125,176706.109375,196456.734375,688046.25,171761.1875,0.062744140625,0.98193359375,-0.25146484375,-0.7019042372703552,-0.7629393935203552,1.0986326932907104,100.0,107226.0,1.0
14:57:19.186762,176770.203125,184262.78125,198260.875,175669.4375,176712.90625,196509.65625,688259.0625,171759.484375,0.0615234375,0.98095703125,-0.250732421875,-0.9460448622703552,-0.7324218153953552,0.8239745497703552,100.0,107227.0,1.0
14:57:19.189224,176730.25,184260.8125,198256.234375,175675.421875,176719.609375,196504.5625,688355.1875,171763.59375,0.064208984375,0.981201171875,-0.25,-1.1291502714157104,-0.7324218153953552,0.6408690810203552,100.0,107228.0,1.0
14:57:19.191793,176663.09375,184243.203125,198235.21875,175675.78125,176710.484375,196445.375,688206.6875,171763.59375,0.066162109375,0.979736328125,-0.251953125,-1.3427733182907104,-0.7019042372703552,0.4272460639476776,100.0,107229.0,1.0
14:57:19.198557,176681.96875,184254.015625,198245.046875,175676.140625,176715.671875,196458.796875,688044.3125,171766.09375,0.06982421875,0.974609375,-0.253662109375,-1.3122557401657104,-0.5493163466453552,0.4272460639476776,100.0,107230.0,1.0
14:57:19.198563,176774.953125,184271.015625,198270.171875,175674.96875,176726.046875,196514.84375,688232.5,171771.90625,0.0693359375,0.974853515625,-0.254150390625,-1.3122557401657104,-0.4577636420726776,0.3356933295726776,100.0,107231.0,1.0
14:57:19.204361,176747.234375,184274.40625,198269.28125,175681.046875,176732.65625,196524.5,688365.0,171774.859375,0.06982421875,0.974365234375,-0.257568359375,-1.2817381620407104,-0.4272460639476776,0.2441406100988388,100.0,107232.0,1.0
14:57:19.208592,176681.703125,184258.3125,198250.234375,175685.078125,176724.796875,196465.765625,688247.0,171779.875,0.06982421875,0.9755859375,-0.257568359375,-1.2207030057907104,-0.3662109076976776,0.2136230319738388,100.0,107233.0,1.0
14:57:19.208611,176677.671875,184265.46875,198253.90625,175686.6875,176724.34375,196459.140625,688061.625,171779.25,0.073974609375,0.979248046875,-0.255615234375,-1.2512205839157104,-0.1831054538488388,0.1831054538488388,100.0,107234.0,1.0
14:57:19.216749,176776.203125,184285.3125,198278.9375,175686.6875,176729.984375,196511.890625,688186.4375,171780.40625,0.072021484375,0.97998046875,-0.25244140625,-1.3427733182907104,-0.0610351525247097,0.1831054538488388,100.0,107235.0,1.0
14:57:19.223971,176773.078125,184291.390625,198281.796875,175693.03125,176735.78125,196530.859375,688373.75,171783.265625,0.0712890625,0.982666015625,-0.253662109375,-1.4343260526657104,-0.0915527269244194,0.2136230319738388,100.0,107236.0,1.0
14:57:19.224225,176702.0,184267.703125,198256.671875,175691.609375,176722.109375,196468.359375,688288.5625,171778.796875,0.072265625,0.982421875,-0.253662109375,-1.4953612089157104,0.0610351525247097,0.1831054538488388,100.0,107237.0,1.0
14:57:19.238586,176679.640625,184266.8125,198254.703125,175697.0625,176721.484375,196448.59375,688089.875,171781.03125,0.06884765625,0.982177734375,-0.25390625,-1.4953612089157104,0.1831054538488388,0.1831054538488388,100.0,107238.0,1.0
14:57:19.238615,176768.15625,184279.5,198273.484375,175690.796875,176725.328125,196493.75,688157.5,171781.921875,0.069580078125,0.979736328125,-0.25341796875,-1.6174315214157104,0.4272460639476776,0.2136230319738388,100.0,107239.0,1.0
14:57:19.240474,176783.984375,184288.984375,198282.15625,175693.03125,176733.109375,196528.078125,688366.5,171779.953125,0.06787109375,0.978515625,-0.256103515625,-1.7395018339157104,0.5493163466453552,0.2746581733226776,100.0,107240.0,1.0
14:57:19.243545,176715.84375,184269.484375,198261.6875,175692.859375,176724.171875,196478.375,688331.3125,171778.53125,0.06591796875,0.976806640625,-0.256591796875,-1.7089842557907104,0.4882812201976776,0.2136230319738388,100.0,107241.0,1.0
14:57:19.243564,176672.578125,184259.203125,198247.90625,175689.546875,176716.390625,196440.1875,688134.8125,171776.203125,0.06591796875,0.97705078125,-0.254638671875,-1.7089842557907104,0.6713866591453552,0.3662109076976776,100.0,107242.0,1.0
14:57:19.271768,176747.234375,184272.625,198264.359375,175685.609375,176718.359375,196480.25,688118.9375,171776.5625,0.066650390625,0.9775390625,-0.2548828125,-1.7089842557907104,0.6408690810203552,0.4577636420726776,100.0,107243.0,1.0
14:57:19.271783,176784.25,184282.546875,198274.5625,175684.09375,176721.21875,196520.5625,688342.125,171774.421875,0.06591796875,0.9775390625,-0.251220703125,-1.6784666776657104,0.6103515028953552,0.4272460639476776,100.0,107244.0,1.0
14:57:19.271786,176717.28125,184266.53125,198254.0,175682.578125,176712.0,196481.765625,688345.25,171770.03125,0.063232421875,0.97705078125,-0.250732421875,-1.6479490995407104,0.6408690810203552,0.4272460639476776,100.0,107245.0,1.0
14:57:19.274252,176664.984375,184253.125,198239.0625,175684.359375,176704.5,196434.203125,688151.9375,171769.40625,0.06005859375,0.9794921875,-0.2509765625,-1.6174315214157104,0.7019042372703552,0.3051757514476776,100.0,107246.0,1.0
14:57:19.276779,176723.265625,184262.25,198252.65625,175682.9375,176707.984375,196464.59375,688084.8125,171769.671875,0.061279296875,0.978515625,-0.252685546875,-1.6479490995407104,0.7324218153953552,0.2441406100988388,100.0,107247.0,1.0
14:57:19.279245,176785.140625,184275.03125,198270.171875,175680.875,176719.515625,196518.25,688315.9375,171770.296875,0.060791015625,0.978759765625,-0.25390625,-1.6784666776657104,0.7629393935203552,0.3662109076976776,100.0,107248.0,1.0
14:57:19.281765,176730.421875,184268.5,198260.078125,175682.3125,176722.109375,196501.890625,688375.75,171772.1875,0.06005859375,0.980224609375,-0.251953125,-1.7395018339157104,0.6713866591453552,0.2746581733226776,100.0,107249.0,1.0
14:57:19.284268,176666.5,184251.34375,198238.25,175682.125,176710.390625,196446.71875,688195.75,171770.21875,0.059814453125,0.981689453125,-0.25244140625,-1.8310545682907104,0.6103515028953552,0.2746581733226776,100.0,107250.0,1.0
14:57:19.286761,176698.953125,184260.90625,198245.40625,175679.984375,176710.390625,196466.65625,688067.375,171770.921875,0.05908203125,0.97900390625,-0.2529296875,-1.7700194120407104,0.4272460639476776,0.3051757514476776,100.0,107251.0,1.0
14:57:19.291961,176779.78125,184277.53125,198265.703125,175679.0,176719.421875,196523.609375,688284.8125,171772.71875,0.05859375,0.980712890625,-0.253173828125,-1.8310545682907104,0.3662109076976776,0.3662109076976776,100.0,107252.0,1.0
14:57:19.294881,176732.21875,184270.203125,198253.640625,175675.25,176718.625,196515.109375,688382.4375,171767.984375,0.058349609375,0.9794921875,-0.252685546875,-1.9226073026657104,0.3662109076976776,0.2746581733226776,100.0,107253.0,1.0
14:57:19.294926,176665.875,184248.828125,198232.09375,175672.921875,176708.515625,196451.375,688242.3125,171767.890625,0.0595703125,0.981689453125,-0.253662109375,-1.8920897245407104,0.2441406100988388,0.3051757514476776,100.0,107254.0,1.0
14:57:19.296745,176679.640625,184258.671875,198240.046875,175676.21875,176712.28125,196457.625,688071.5625,171771.109375,0.060302734375,0.98046875,-0.251220703125,-1.8920897245407104,0.2746581733226776,0.3356933295726776,100.0,107255.0,1.0
14:57:19.301809,176774.953125,184274.140625,198263.921875,175675.515625,176721.65625,196511.546875,688226.4375,171772.984375,0.0595703125,0.980712890625,-0.25341796875,-1.9836424589157104,0.2746581733226776,0.2746581733226776,100.0,107256.0,1.0
14:57:19.308920,176753.671875,184276.8125,198264.28125,175681.5,176728.015625,196523.078125,688381.0,171775.671875,0.0625,0.9794921875,-0.254150390625,-2.014159917831421,0.2441406100988388,0.3662109076976776,100.0,107257.0,1.0
14:57:19.311342,176684.109375,184258.3125,198242.734375,175683.828125,176719.6875,196462.90625,688269.9375,171777.359375,0.06201171875,0.98095703125,-0.253173828125,-2.075195074081421,0.1525878757238388,0.2136230319738388,100.0,107258.0,1.0
14:57:19.311380,176670.96875,184259.203125,198241.125,175683.375,176717.640625,196450.203125,688073.8125,171775.40625,0.06201171875,0.97998046875,-0.2490234375,-2.136230230331421,0.1220703050494194,0.3356933295726776,100.0,107259.0,1.0
14:57:19.313320,176767.4375,184274.5,198265.609375,175681.40625,176722.828125,196501.703125,688174.0625,171778.171875,0.06103515625,0.980224609375,-0.24951171875,-2.044677495956421,0.1525878757238388,0.3662109076976776,100.0,107260.0,1.0
14:57:19.323588,176767.609375,184283.703125,198272.671875,175685.34375,176730.875,196529.328125,688363.125,171779.875,0.061279296875,0.981201171875,-0.249267578125,-2.075195074081421,0.0915527269244194,0.3662109076976776,100.0,107261.0,1.0
14:57:19.323647,176697.171875,184264.390625,198250.234375,175685.25,176721.65625,196473.453125,688293.6875,171777.8125,0.061767578125,0.980224609375,-0.2490234375,-2.166747808456421,0.1525878757238388,0.3051757514476776,100.0,107262.0,1.0
14:57:19.325509,176668.640625,184262.0625,198244.15625,175686.78125,176718.171875,196447.34375,688094.75,171777.09375,0.062744140625,0.980224609375,-0.2470703125,-2.166747808456421,0.1525878757238388,0.4272460639476776,100.0,107263.0,1.0
14:57:19.337370,176761.53125,184278.421875,198267.40625,175688.296875,176724.078125,196494.109375,688138.0625,171782.46875,0.06201171875,0.97802734375,-0.2490234375,-2.227782964706421,0.0610351525247097,0.3662109076976776,100.0,107264.0,1.0
14:57:19.337399,176785.59375,184290.5,198278.9375,175692.234375,176732.484375,196531.125,688350.25,171784.34375,0.06103515625,0.97802734375,-0.25,-2.258300542831421,0.0610351525247097,0.3967284858226776,100.0,107265.0,1.0
14:57:19.339838,176716.65625,184272.265625,198256.234375,175692.765625,176722.5625,196481.953125,688325.5625,171781.203125,0.060791015625,0.97705078125,-0.24951171875,-2.197265386581421,0.0915527269244194,0.3662109076976776,100.0,107266.0,1.0
14:57:19.339874,176664.890625,184254.921875,198235.21875,175682.578125,176705.65625,196433.390625,688122.875,171769.859375,0.06201171875,0.9775390625,-0.25244140625,-2.105712652206421,-0.03051757626235485,0.3662109076976776,100.0,107267.0,1.0
14:57:19.349351,176735.15625,184264.03125,198249.078125,175674.96875,176704.9375,196470.765625,688101.0,171767.796875,0.061279296875,0.97607421875,-0.2509765625,-2.136230230331421,-0.03051757626235485,0.3356933295726776,100.0,107268.0,1.0
14:57:19.352368,176778.53125,184275.125,198260.96875,175672.921875,176712.71875,196521.46875,688327.0,171766.09375,0.060546875,0.97607421875,-0.255126953125,-2.136230230331421,-0.0915527269244194,0.4272460639476776,100.0,107269.0,1.0
14:57:19.352405,176709.859375,184259.296875,198239.515625,175667.109375,176704.234375,196485.609375,688345.3125,171759.125,0.0615234375,0.97509765625,-0.251220703125,-2.105712652206421,-0.1220703050494194,0.4577636420726776,100.0,107270.0,1.0
14:57:19.359296,176646.5625,184239.453125,198215.015625,175659.328125,176689.390625,196429.28125,688158.125,171750.1875,0.060302734375,0.97607421875,-0.250732421875,-2.136230230331421,-0.0915527269244194,0.5187987685203552,100.0,107271.0,1.0
14:57:19.366090,176696.71875,184245.890625,198225.46875,175654.765625,176689.46875,196455.03125,688069.8125,171748.578125,0.061279296875,0.9765625,-0.2490234375,-2.075195074081421,-0.2441406100988388,0.4577636420726776,100.0,107272.0,1.0
14:57:19.366141,176759.390625,184254.734375,198240.671875,175651.734375,176695.5625,196504.296875,688296.0,171747.6875,0.0595703125,0.9755859375,-0.250244140625,-1.9836424589157104,-0.1831054538488388,0.3967284858226776,100.0,107273.0,1.0
14:57:19.375561,176702.53125,184241.765625,198222.96875,175650.390625,176691.171875,196482.65625,688356.25,171743.921875,0.060546875,0.974853515625,-0.248291015625,-1.9226073026657104,-0.2441406100988388,0.3967284858226776,100.0,107274.0,1.0
14:57:19.378605,176638.328125,184225.234375,198203.203125,175650.5625,176683.03125,196427.046875,688196.9375,171743.484375,0.060546875,0.977294921875,-0.249267578125,-1.8615721464157104,-0.2746581733226776,0.5187987685203552,100.0,107275.0,1.0
14:57:19.378663,176676.15625,184241.140625,198221.265625,175657.09375,176694.390625,196449.765625,688062.8125,171752.421875,0.06396484375,0.97705078125,-0.24951171875,-1.8005369901657104,-0.2136230319738388,0.4272460639476776,100.0,107276.0,1.0
14:57:19.380813,176770.828125,184262.96875,198253.09375,175663.171875,176712.71875,196511.0,688275.75,171764.578125,0.0634765625,0.978515625,-0.249755859375,-1.7395018339157104,-0.2746581733226776,0.4577636420726776,100.0,107277.0,1.0
14:57:19.395622,176735.875,184262.515625,198250.0625,175668.453125,176716.75,196510.5625,688380.75,171765.46875,0.062255859375,0.9775390625,-0.24951171875,-1.8310545682907104,-0.2441406100988388,0.4272460639476776,100.0,107278.0,1.0
14:57:19.398608,176671.6875,184246.25,198232.265625,175674.53125,176708.96875,196450.75,688236.5,171768.34375,0.064208984375,0.9755859375,-0.246826171875,-1.7700194120407104,-0.2746581733226776,0.4272460639476776,100.0,107279.0,1.0
14:57:19.398677,176686.53125,184259.203125,198244.25,175684.453125,176715.578125,196456.640625,688063.0625,171777.1875,0.063720703125,0.978271484375,-0.245849609375,-1.8615721464157104,-0.2746581733226776,0.5187987685203552,100.0,107280.0,1.0
14:57:19.401159,176778.4375,184269.84375,198263.640625,175678.734375,176717.640625,196507.25,688218.625,171776.203125,0.06396484375,0.97802734375,-0.246826171875,-1.8615721464157104,-0.2746581733226776,0.5187987685203552,100.0,107281.0,1.0
14:57:19.401225,176759.03125,184274.578125,198263.921875,175679.71875,176722.90625,196522.53125,688382.625,171776.65625,0.0625,0.977294921875,-0.24609375,-1.7700194120407104,-0.2136230319738388,0.5798339247703552,100.0,107282.0,1.0
14:57:19.403017,176679.546875,184244.71875,198230.390625,175668.890625,176702.4375,196450.296875,688271.9375,171764.765625,0.06396484375,0.97900390625,-0.2470703125,-1.7700194120407104,-0.2441406100988388,0.5493163466453552,100.0,107283.0,1.0
14:57:19.410555,176666.765625,184247.046875,198230.390625,175674.078125,176702.53125,196436.171875,688080.875,171767.265625,0.06396484375,0.97802734375,-0.247314453125,-1.8310545682907104,-0.1525878757238388,0.5493163466453552,100.0,107284.0,1.0
14:57:19.417472,176760.546875,184261.984375,198251.84375,175670.140625,176707.796875,196486.234375,688182.875,171768.15625,0.063232421875,0.9794921875,-0.247802734375,-1.8005369901657104,-0.0915527269244194,0.5493163466453552,100.0,107285.0,1.0
14:57:19.417531,176755.71875,184260.28125,198250.5,175665.40625,176707.890625,196508.859375,688369.1875,171761.984375,0.063720703125,0.978515625,-0.24951171875,-1.7089842557907104,-0.1220703050494194,0.4577636420726776,100.0,107286.0,1.0
14:57:19.419849,176683.75,184238.375,198226.28125,175666.484375,176695.90625,196452.53125,688304.8125,171759.84375,0.064208984375,0.9794921875,-0.248046875,-1.7089842557907104,-0.0915527269244194,0.5493163466453552,100.0,107287.0,1.0
14:57:19.436830,176653.265625,184236.140625,198220.546875,175670.328125,176692.0625,196426.0625,688100.375,171759.9375,0.06396484375,0.979248046875,-0.248046875,-1.6784666776657104,-0.0610351525247097,0.5493163466453552,100.0,107288.0,1.0
14:57:19.440555,176741.78125,184253.125,198242.640625,175668.53125,176697.796875,196472.375,688128.0,171763.6875,0.064208984375,0.979248046875,-0.25048828125,-1.6174315214157104,-0.0610351525247097,0.4577636420726776,100.0,107289.0,1.0
14:57:19.440629,176767.609375,184265.28125,198254.078125,175669.609375,176707.796875,196515.03125,688343.75,171766.015625,0.0625,0.98046875,-0.247802734375,-1.6479490995407104,-0.03051757626235485,0.4272460639476776,100.0,107290.0,1.0
14:57:19.440655,176697.796875,184245.796875,198232.53125,175668.71875,176697.96875,196469.15625,688328.0,171762.53125,0.062744140625,0.980224609375,-0.2451171875,-1.7089842557907104,0.03051757626235485,0.5187987685203552,100.0,107291.0,1.0
14:57:19.443204,176647.453125,184235.15625,198218.046875,175666.03125,176691.625,196426.6875,688132.1875,171758.328125,0.0634765625,0.97802734375,-0.24560546875,-1.6784666776657104,0.1220703050494194,0.5187987685203552,100.0,107292.0,1.0
14:57:19.445530,176712.09375,184243.5625,198230.65625,175659.6875,176693.140625,196457.890625,688097.4375,171754.390625,0.06298828125,0.977294921875,-0.24560546875,-1.6479490995407104,0.1525878757238388,0.6408690810203552,100.0,107293.0,1.0
14:57:19.448002,176762.796875,184254.640625,198248.890625,175660.484375,176704.671875,196506.890625,688324.9375,171756.0,0.062255859375,0.978271484375,-0.246337890625,-1.6784666776657104,0.1525878757238388,0.6408690810203552,100.0,107294.0,1.0
14:57:19.455510,176704.046875,184246.59375,198237.1875,175664.328125,176706.28125,196482.484375,688356.3125,171758.328125,0.0625,0.97802734375,-0.2490234375,-1.6174315214157104,0.1831054538488388,0.5798339247703552,100.0,107295.0,1.0
14:57:19.459899,176647.0,184233.71875,198218.140625,175661.46875,176696.1875,196429.46875,688173.5,171752.78125,0.064453125,0.979248046875,-0.247314453125,-1.5258787870407104,0.2441406100988388,0.5798339247703552,100.0,107296.0,1.0
14:57:19.459925,176694.65625,184243.296875,198229.765625,175656.203125,176696.09375,196452.890625,688068.1875,171748.84375,0.062255859375,0.981201171875,-0.246337890625,-1.4953612089157104,0.2441406100988388,0.7019042372703552,100.0,107297.0,1.0
14:57:19.486830,176763.140625,184254.375,198244.6875,175649.84375,176699.3125,196503.3125,688284.625,171745.53125,0.063720703125,0.981201171875,-0.24853515625,-1.5258787870407104,0.1831054538488388,0.5798339247703552,100.0,107298.0,1.0
14:57:19.505554,176713.609375,184245.171875,198232.359375,175654.140625,176698.0625,196486.0625,688370.375,171747.421875,0.064697265625,0.981201171875,-0.246826171875,-1.5258787870407104,0.3051757514476776,0.6103515028953552,100.0,107299.0,1.0
14:57:19.508068,176647.90625,184226.578125,198210.359375,175657.265625,176686.609375,196425.265625,688214.375,171748.3125,0.0654296875,0.978515625,-0.247314453125,-1.4648436307907104,0.3051757514476776,0.6103515028953552,100.0,107300.0,1.0
14:57:19.510566,176679.375,184243.46875,198226.71875,175668.265625,176696.1875,196444.03125,688066.125,171759.75,0.06396484375,0.975341796875,-0.24755859375,-1.4343260526657104,0.3356933295726776,0.6713866591453552,100.0,107301.0,1.0
14:57:19.516832,176766.359375,184256.703125,198247.90625,175665.765625,176704.046875,196496.96875,688263.1875,171761.453125,0.064453125,0.978271484375,-0.2470703125,-1.3122557401657104,0.3051757514476776,0.7629393935203552,100.0,107302.0,1.0
14:57:19.523061,176739.09375,184261.890625,198250.5,175674.265625,176714.328125,196503.578125,688384.5,171769.046875,0.063232421875,0.978271484375,-0.24853515625,-1.2817381620407104,0.3356933295726776,0.7324218153953552,100.0,107303.0,1.0
14:57:19.525578,176672.125,184242.671875,198227.625,175673.09375,176702.890625,196439.5625,688259.4375,171767.0,0.0625,0.979736328125,-0.247314453125,-1.2512205839157104,0.3356933295726776,0.7324218153953552,100.0,107304.0,1.0
14:57:19.528040,176672.671875,184248.203125,198229.9375,175672.5625,176700.921875,196435.28125,688070.9375,171762.96875,0.063232421875,0.979248046875,-0.248291015625,-1.1291502714157104,0.3051757514476776,0.7934569716453552,100.0,107305.0,1.0
14:57:19.530526,176770.03125,184263.234375,198255.78125,175672.375,176709.234375,196490.703125,688216.9375,171767.265625,0.06396484375,0.9794921875,-0.247314453125,-1.1291502714157104,0.4272460639476776,0.7934569716453552,100.0,107306.0,1.0
14:57:19.533033,176759.921875,184269.9375,198261.765625,175682.3125,176718.359375,196512.171875,688379.0625,171773.4375,0.06494140625,0.978515625,-0.247802734375,-1.1596678495407104,0.4272460639476776,0.7934569716453552,100.0,107307.0,1.0
14:57:19.535530,176692.6875,184251.078125,198241.203125,175682.75,176706.90625,196454.046875,688285.0,171769.953125,0.065185546875,0.97705078125,-0.248046875,-1.1901854276657104,0.3356933295726776,0.8239745497703552,100.0,107308.0,1.0
14:57:19.538023,176671.421875,184246.78125,198236.109375,175682.3125,176703.328125,196432.5,688090.25,171768.0625,0.064697265625,0.97607421875,-0.2490234375,-1.1291502714157104,0.4272460639476776,0.7934569716453552,100.0,107309.0,1.0
14:57:19.541189,176762.34375,184261.53125,198257.84375,175676.140625,176708.25,196483.375,688179.375,171767.625,0.065185546875,0.977294921875,-0.248779296875,-1.0375975370407104,0.3967284858226776,0.7324218153953552,100.0,107310.0,1.0
14:57:19.541241,176767.796875,184266.53125,198262.21875,175675.25,176714.78125,196513.234375,688372.875,171766.734375,0.065185546875,0.977783203125,-0.250244140625,-1.0375975370407104,0.3662109076976776,0.8544921278953552,100.0,107311.0,1.0
14:57:19.543481,176698.328125,184245.078125,198239.0625,175677.03125,176705.65625,196461.109375,688314.6875,171767.4375,0.064697265625,0.979248046875,-0.248291015625,-1.0070799589157104,0.3967284858226776,0.7019042372703552,100.0,107312.0,1.0
14:57:19.545472,176661.140625,184238.203125,198228.25,175678.90625,176701.28125,196428.390625,688108.5625,171767.265625,0.0654296875,0.977783203125,-0.25146484375,-0.9765624403953552,0.5798339247703552,0.7629393935203552,100.0,107313.0,1.0
14:57:19.548529,176740.796875,184252.40625,198245.765625,175672.46875,176704.9375,196470.765625,688119.5,171768.6875,0.063720703125,0.9765625,-0.250732421875,-1.0375975370407104,0.4882812201976776,0.8239745497703552,100.0,107314.0,1.0
14:57:19.548541,176773.703125,184268.6875,198259.53125,175675.328125,176717.375,196518.15625,688344.625,171773.25,0.063720703125,0.9755859375,-0.25244140625,-1.0070799589157104,0.5493163466453552,0.7019042372703552,100.0,107315.0,1.0
14:57:19.550459,176707.984375,184252.5,198239.234375,175677.125,176711.46875,196475.0625,688339.1875,171772.890625,0.0615234375,0.9755859375,-0.25048828125,-0.9155272841453552,0.5798339247703552,0.7629393935203552,100.0,107316.0,1.0
14:57:19.552969,176655.328125,184239.890625,198222.609375,175675.25,176703.515625,196426.78125,688142.375,171768.421875,0.0625,0.976806640625,-0.250732421875,-0.9765624403953552,0.5798339247703552,0.7934569716453552,100.0,107317.0,1.0
14:57:19.555465,176722.375,184251.703125,198240.9375,175672.203125,176709.234375,196458.96875,688089.375,171769.40625,0.063232421875,0.97900390625,-0.251220703125,-0.9460448622703552,0.5493163466453552,0.7934569716453552,100.0,107318.0,1.0
14:57:19.558585,176777.8125,184265.109375,198257.75,175668.09375,176716.390625,196505.90625,688318.0625,171767.0,0.06494140625,0.978515625,-0.250732421875,-0.9460448622703552,0.4882812201976776,0.7324218153953552,100.0,107319.0,1.0
14:57:19.558610,176720.859375,184258.765625,198245.953125,175669.78125,176714.859375,196482.03125,688356.9375,171765.828125,0.06396484375,0.975830078125,-0.252197265625,-0.8850097060203552,0.3662109076976776,0.7019042372703552,100.0,107320.0,1.0
14:57:19.560495,176657.109375,184241.140625,198222.25,175664.953125,176699.75,196423.828125,688185.6875,171756.890625,0.061279296875,0.9775390625,-0.248779296875,-0.9155272841453552,0.4272460639476776,0.6713866591453552,100.0,107321.0,1.0
14:57:19.564830,176700.734375,184255.546875,198235.3125,175666.484375,176700.921875,196450.5625,688068.1875,171756.71875,0.0634765625,0.9794921875,-0.250244140625,-0.9460448622703552,0.4272460639476776,0.6408690810203552,100.0,107322.0,1.0
14:57:19.564874,176777.09375,184276.46875,198255.953125,175665.59375,176707.453125,196508.40625,688285.625,171758.046875,0.06298828125,0.97900390625,-0.251220703125,-0.9155272841453552,0.4272460639476776,0.6408690810203552,100.0,107323.0,1.0
14:57:19.574243,176719.6875,184260.1875,198235.3125,175655.484375,176695.734375,196486.234375,688364.8125,171747.328125,0.061279296875,0.981201171875,-0.2490234375,-1.0070799589157104,0.4577636420726776,0.6713866591453552,100.0,107324.0,1.0
14:57:19.578572,176657.375,184242.9375,198216.265625,175660.046875,176687.953125,196427.046875,688211.0625,171751.078125,0.063232421875,0.981201171875,-0.251953125,-1.0375975370407104,0.3662109076976776,0.6408690810203552,100.0,107325.0,1.0
14:57:19.578596,176686.34375,184259.65625,198232.796875,175669.875,176699.21875,196445.5625,688056.0,171763.78125,0.063232421875,0.9794921875,-0.250732421875,-1.1291502714157104,0.3967284858226776,0.5493163466453552,100.0,107326.0,1.0
14:57:19.588569,176783.890625,184280.75,198262.9375,175676.046875,176712.71875,196506.171875,688237.625,171773.171875,0.06494140625,0.978759765625,-0.25048828125,-1.0070799589157104,0.4882812201976776,0.5187987685203552,100.0,107327.0,1.0
14:57:19.588595,176759.296875,184283.171875,198264.71875,175685.078125,176719.25,196511.71875,688372.4375,171777.71875,0.063232421875,0.97900390625,-0.25,-1.0070799589157104,0.2746581733226776,0.6713866591453552,100.0,107328.0,1.0
14:57:19.596072,176691.703125,184263.140625,198244.0625,175686.328125,176708.609375,196449.40625,688244.3125,171778.890625,0.0615234375,0.97900390625,-0.250244140625,-1.1291502714157104,0.3051757514476776,0.6408690810203552,100.0,107329.0,1.0
14:57:19.596104,176690.375,184267.25,198249.609375,175692.234375,176712.28125,196444.125,688051.4375,171783.265625,0.0634765625,0.979248046875,-0.249755859375,-1.1291502714157104,0.1220703050494194,0.5493163466453552,100.0,107330.0,1.0
14:57:19.598560,176783.890625,184281.015625,198270.984375,175685.609375,176716.03125,196495.0,688173.9375,171780.3125,0.063720703125,0.97900390625,-0.247314453125,-1.1291502714157104,0.1525878757238388,0.5798339247703552,100.0,107331.0,1.0
14:57:19.598589,176768.875,184280.9375,198268.03125,175683.640625,176716.828125,196512.796875,688345.25,171774.140625,0.063232421875,0.979248046875,-0.248046875,-1.0681151151657104,0.1525878757238388,0.5493163466453552,100.0,107332.0,1.0
14:57:19.608045,176692.78125,184255.359375,198238.34375,175676.9375,176700.46875,196451.09375,688269.1875,171766.90625,0.061279296875,0.97998046875,-0.2509765625,-1.1901854276657104,0.0610351525247097,0.6103515028953552,100.0,107333.0,1.0
14:57:19.614926,176661.671875,184249.546875,198227.96875,175673.453125,176695.109375,196428.296875,688080.0,171764.9375,0.06201171875,0.978515625,-0.252197265625,-1.2817381620407104,0.0915527269244194,0.6713866591453552,100.0,107334.0,1.0
14:57:19.614969,176746.34375,184257.78125,198242.453125,175666.484375,176697.609375,196474.96875,688162.125,171764.765625,0.061767578125,0.978271484375,-0.250732421875,-1.2207030057907104,0.03051757626235485,0.6103515028953552,100.0,107335.0,1.0
14:57:19.628582,176765.375,184271.28125,198257.484375,175674.703125,176713.796875,196517.265625,688388.625,171774.328125,0.062255859375,0.97705078125,-0.250244140625,-1.2512205839157104,0.03051757626235485,0.6713866591453552,100.0,107336.0,1.0
14:57:19.628609,176697.25,184258.046875,198239.78125,175678.109375,176711.375,196475.78125,688347.125,171777.1875,0.063720703125,0.979736328125,-0.250732421875,-1.3732908964157104,0.0,0.6408690810203552,100.0,107337.0,1.0
14:57:19.630499,176654.875,184251.15625,198228.515625,175676.40625,176708.96875,196442.703125,688146.9375,171775.125,0.0625,0.980712890625,-0.2529296875,-1.3427733182907104,0.0,0.6408690810203552,100.0,107338.0,1.0
14:57:19.633585,176730.421875,184260.90625,198246.21875,175670.953125,176714.328125,196483.640625,688160.0,171777.1875,0.0634765625,0.98095703125,-0.253173828125,-1.3122557401657104,0.03051757626235485,0.7019042372703552,100.0,107339.0,1.0
14:57:19.633607,176760.109375,184266.8125,198253.546875,175665.234375,176717.453125,196521.28125,688378.5,171772.984375,0.061767578125,0.98046875,-0.253173828125,-1.3122557401657104,-0.0915527269244194,0.6103515028953552,100.0,107340.0,1.0
14:57:19.643564,176689.65625,184251.609375,198228.953125,175660.578125,176705.65625,196479.890625,688375.5625,171765.921875,0.062255859375,0.9794921875,-0.250732421875,-1.3122557401657104,-0.1831054538488388,0.6408690810203552,100.0,107341.0,1.0
14:57:19.643608,176632.609375,184235.515625,198208.9375,175656.828125,176692.34375,196424.8125,688167.3125,171758.59375,0.06005859375,0.980224609375,-0.251220703125,-1.3732908964157104,-0.1525878757238388,0.5798339247703552,100.0,107342.0,1.0
14:57:19.646191,176690.1875,184240.875,198220.46875,175653.25,176691.359375,196448.234375,688077.75,171756.171875,0.062744140625,0.979736328125,-0.2509765625,-1.4648436307907104,-0.2136230319738388,0.6103515028953552,100.0,107343.0,1.0
14:57:19.646215,176752.78125,184252.40625,198238.171875,175653.515625,176699.84375,196498.125,688292.125,171756.796875,0.0625,0.979736328125,-0.25244140625,-1.4648436307907104,-0.2746581733226776,0.6103515028953552,100.0,107344.0,1.0
14:57:19.655510,176707.0,184252.046875,198233.515625,175665.3125,176704.765625,196482.125,688354.25,171764.046875,0.064697265625,0.98095703125,-0.252685546875,-1.4648436307907104,-0.2746581733226776,0.5798339247703552,100.0,107345.0,1.0
14:57:19.659250,176650.40625,184240.4375,198218.3125,175668.984375,176696.71875,196427.9375,688179.5,171763.59375,0.06396484375,0.98095703125,-0.25146484375,-1.4953612089157104,-0.3051757514476776,0.6408690810203552,100.0,107346.0,1.0
14:57:19.666100,176692.609375,184251.15625,198230.125,175670.765625,176698.78125,196447.609375,688048.125,171762.078125,0.064453125,0.979736328125,-0.252197265625,-1.5258787870407104,-0.3356933295726776,0.7019042372703552,100.0,107347.0,1.0
14:57:19.666127,176777.8125,184270.65625,198253.453125,175671.671875,176709.59375,196505.640625,688269.625,171763.59375,0.064697265625,0.977783203125,-0.251220703125,-1.5258787870407104,-0.2746581733226776,0.6408690810203552,100.0,107348.0,1.0
14:57:19.671105,176739.984375,184272.703125,198250.59375,175677.921875,176715.21875,196504.203125,688368.0625,171766.90625,0.0634765625,0.977783203125,-0.252685546875,-1.5563963651657104,-0.2746581733226776,0.6713866591453552,100.0,107349.0,1.0
14:57:19.671133,176680.453125,184258.21875,198234.140625,175684.625,176706.28125,196444.9375,688223.5,171769.234375,0.064697265625,0.97705078125,-0.251953125,-1.5258787870407104,-0.2746581733226776,0.7324218153953552,100.0,107350.0,1.0
14:57:19.678023,176698.328125,184271.359375,198243.265625,175688.125,176708.875,196454.234375,688061.1875,171773.703125,0.064453125,0.97900390625,-0.25244140625,-1.4343260526657104,-0.2136230319738388,0.6408690810203552,100.0,107351.0,1.0
14:57:19.687385,176787.015625,184286.203125,198263.46875,175682.3125,176711.640625,196509.03125,688234.0,171774.953125,0.062744140625,0.97802734375,-0.253173828125,-1.4648436307907104,-0.2136230319738388,0.5798339247703552,100.0,107352.0,1.0
14:57:19.687413,176760.375,184285.046875,198260.78125,175686.421875,176714.859375,196514.578125,688384.9375,171777.640625,0.063720703125,0.976806640625,-0.25341796875,-1.6174315214157104,-0.1525878757238388,0.6408690810203552,100.0,107353.0,1.0
14:57:19.689249,176687.421875,184260.734375,198234.59375,175683.921875,176699.75,196447.078125,688274.875,171773.703125,0.06640625,0.975341796875,-0.25048828125,-1.7395018339157104,-0.1220703050494194,0.4882812201976776,100.0,107354.0,1.0
14:57:19.698603,176675.703125,184260.734375,198232.796875,175683.015625,176696.1875,196436.890625,688086.5,171772.09375,0.06591796875,0.973876953125,-0.252197265625,-1.6174315214157104,-0.1220703050494194,0.3967284858226776,100.0,107355.0,1.0
14:57:19.698627,176765.5625,184268.5,198249.609375,175677.203125,176696.265625,196484.09375,688194.125,171772.359375,0.06640625,0.974853515625,-0.254150390625,-1.5869139432907104,-0.1220703050494194,0.5187987685203552,100.0,107356.0,1.0
14:57:19.708600,176752.953125,184266.984375,198247.46875,175673.71875,176698.78125,196502.515625,688377.0,171767.890625,0.06640625,0.9716796875,-0.251708984375,-1.5258787870407104,-0.1220703050494194,0.6103515028953552,100.0,107357.0,1.0
14:57:19.708624,176678.75,184241.5,198218.59375,175668.09375,176684.640625,196441.0,688302.0,171762.078125,0.064453125,0.973876953125,-0.25244140625,-1.4648436307907104,-0.0610351525247097,0.5798339247703552,100.0,107358.0,1.0
14:57:19.726155,176650.578125,184241.140625,198212.234375,175670.953125,176683.03125,196420.171875,688108.5625,171765.296875,0.0654296875,0.9736328125,-0.254638671875,-1.4038084745407104,0.0,0.5798339247703552,100.0,107359.0,1.0
14:57:19.726192,176736.5,184253.84375,198232.171875,175665.859375,176687.234375,196468.71875,688167.25,171764.9375,0.064208984375,0.9736328125,-0.253662109375,-1.3122557401657104,0.0,0.4577636420726776,100.0,107360.0,1.0
14:57:19.728053,176760.203125,184268.953125,198245.59375,175671.578125,176700.921875,196511.984375,688385.125,171770.21875,0.06640625,0.9755859375,-0.25390625,-1.2207030057907104,0.1220703050494194,0.5493163466453552,100.0,107361.0,1.0
14:57:19.740834,176688.140625,184250.625,198222.96875,175670.421875,176692.15625,196466.84375,688342.0,171767.4375,0.067138671875,0.97509765625,-0.25439453125,-1.2207030057907104,0.2441406100988388,0.4882812201976776,100.0,107362.0,1.0
14:57:19.740894,176643.703125,184244.0,198213.140625,175671.578125,176689.5625,196432.140625,688130.75,171770.75,0.06689453125,0.976318359375,-0.252197265625,-1.2817381620407104,0.2441406100988388,0.5798339247703552,100.0,107363.0,1.0
14:57:19.740919,176723.265625,184256.53125,198235.578125,175672.03125,176697.515625,196473.28125,688120.5,171776.5625,0.065673828125,0.976806640625,-0.251953125,-1.1291502714157104,0.1220703050494194,0.5493163466453552,100.0,107364.0,1.0
14:57:19.743011,176764.484375,184267.796875,198249.171875,175671.671875,176706.46875,196520.296875,688343.125,171775.9375,0.06494140625,0.97509765625,-0.25244140625,-1.1901854276657104,0.0915527269244194,0.6103515028953552,100.0,107365.0,1.0
14:57:19.746731,176699.9375,184255.984375,198232.09375,175672.296875,176702.703125,196486.6875,688358.9375,171774.6875,0.063720703125,0.973876953125,-0.25244140625,-1.1596678495407104,0.2136230319738388,0.6103515028953552,100.0,107366.0,1.0
14:57:19.746783,176647.28125,184245.078125,198218.59375,175676.046875,176696.09375,196437.515625,688165.625,171773.4375,0.064697265625,0.974853515625,-0.2548828125,-1.1596678495407104,0.2441406100988388,0.6408690810203552,100.0,107367.0,1.0
14:57:19.746805,176705.5625,184258.046875,198234.859375,175674.34375,176699.84375,196466.390625,688079.625,171774.78125,0.06640625,0.976806640625,-0.25390625,-1.1596678495407104,0.3356933295726776,0.5493163466453552,100.0,107368.0,1.0
14:57:19.749285,176773.34375,184274.859375,198256.9375,175676.765625,176711.203125,196521.203125,688304.75,171778.96875,0.0654296875,0.97900390625,-0.256103515625,-1.1291502714157104,0.3662109076976776,0.5798339247703552,100.0,107369.0,1.0
14:57:19.751799,176718.890625,184266.53125,198246.578125,175681.859375,176711.015625,196500.359375,688365.4375,171779.25,0.064208984375,0.979736328125,-0.25927734375,-0.9460448622703552,0.3662109076976776,0.6408690810203552,100.0,107370.0,1.0
14:57:19.761855,176660.0625,184251.078125,198230.5625,175685.96875,176705.296875,196445.921875,688193.625,171780.578125,0.065673828125,0.98046875,-0.2578125,-0.9765624403953552,0.4272460639476776,0.6713866591453552,100.0,107371.0,1.0
14:57:19.766124,176693.859375,184260.546875,198241.125,175685.171875,176707.71875,196461.65625,688062.8125,171780.5,0.06689453125,0.98193359375,-0.2568359375,-1.0070799589157104,0.3662109076976776,0.6713866591453552,100.0,107372.0,1.0
14:57:19.766240,176776.015625,184277.09375,198260.609375,175680.078125,176714.15625,196514.40625,688283.5,171777.71875,0.066162109375,0.981689453125,-0.258056640625,-1.0681151151657104,0.3356933295726776,0.6713866591453552,100.0,107373.0,1.0
14:57:19.774905,176739.28125,184277.53125,198256.765625,175682.390625,176718.171875,196512.875,688379.75,171776.390625,0.063720703125,0.97900390625,-0.25634765625,-1.1596678495407104,0.3356933295726776,0.6713866591453552,100.0,107374.0,1.0
14:57:19.774975,176670.078125,184255.1875,198230.75,175677.921875,176701.359375,196445.828125,688240.8125,171768.609375,0.065185546875,0.979736328125,-0.25537109375,-1.3122557401657104,0.3662109076976776,0.6103515028953552,100.0,107375.0,1.0
14:57:19.776807,176679.734375,184261.625,198236.109375,175679.890625,176700.828125,196447.078125,688068.375,171770.03125,0.0615234375,0.97998046875,-0.25244140625,-1.2512205839157104,0.2746581733226776,0.5493163466453552,100.0,107376.0,1.0
14:57:19.787485,176769.40625,184272.796875,198255.25,175675.421875,176703.515625,196500.625,688235.375,171769.140625,0.059814453125,0.979248046875,-0.24853515625,-1.3427733182907104,0.2441406100988388,0.5493163466453552,100.0,107377.0,1.0
14:57:19.787539,176745.890625,184273.421875,198253.1875,175677.203125,176707.359375,196511.71875,688390.3125,171770.390625,0.056884765625,0.980224609375,-0.249267578125,-1.3427733182907104,0.2136230319738388,0.4577636420726776,100.0,107378.0,1.0
14:57:19.790040,176671.328125,184249.015625,198222.796875,175671.125,176689.5625,196446.265625,688277.75,171762.796875,0.056884765625,0.983154296875,-0.247802734375,-1.4953612089157104,0.1831054538488388,0.3967284858226776,100.0,107379.0,1.0
14:57:19.790104,176652.109375,184243.203125,198212.59375,175665.671875,176680.53125,196428.390625,688082.9375,171756.890625,0.058349609375,0.985595703125,-0.25,-1.5869139432907104,0.1831054538488388,0.3051757514476776,100.0,107380.0,1.0
14:57:19.801797,176746.25,184258.671875,198235.21875,175664.0625,176685.984375,196479.984375,688197.8125,171760.109375,0.058349609375,0.986083984375,-0.25146484375,-1.7700194120407104,0.03051757626235485,0.3051757514476776,100.0,107381.0,1.0
14:57:19.808622,176746.96875,184269.046875,198242.453125,175668.71875,176694.21875,196508.046875,688380.625,171762.078125,0.060791015625,0.98681640625,-0.25,-1.9226073026657104,-0.0915527269244194,0.3051757514476776,100.0,107382.0,1.0
14:57:19.808660,176680.625,184252.5,198222.703125,175674.609375,176687.78125,196455.578125,688305.125,171765.75,0.062744140625,0.98828125,-0.251953125,-2.105712652206421,-0.1831054538488388,0.3967284858226776,100.0,107383.0,1.0
14:57:19.814907,176653.359375,184251.34375,198218.671875,175679.625,176685.265625,196430.625,688105.0,171767.53125,0.064453125,0.989013671875,-0.251708984375,-2.227782964706421,-0.0915527269244194,0.3967284858226776,100.0,107384.0,1.0
14:57:19.814938,176737.390625,184262.34375,198237.265625,175673.0,176687.515625,196473.1875,688142.125,171767.171875,0.067138671875,0.9892578125,-0.250732421875,-2.349853277206421,-0.1525878757238388,0.5187987685203552,100.0,107385.0,1.0
14:57:19.821102,176757.609375,184272.171875,198245.5,175670.421875,176694.75,196511.09375,688356.0,171767.0,0.066650390625,0.986572265625,-0.2509765625,-2.441406011581421,-0.0610351525247097,0.5493163466453552,100.0,107386.0,1.0
14:57:19.821126,176692.609375,184257.515625,198228.59375,175675.421875,176691.265625,196469.515625,688335.5625,171769.046875,0.067626953125,0.986083984375,-0.24951171875,-2.563476324081421,-0.03051757626235485,0.6103515028953552,100.0,107387.0,1.0
14:57:19.823070,176649.0625,184250.4375,198218.40625,175678.734375,176688.40625,196433.21875,688143.8125,171772.625,0.068359375,0.98486328125,-0.248046875,-2.593993902206421,0.0915527269244194,0.7019042372703552,100.0,107388.0,1.0
14:57:19.854428,176715.046875,184259.203125,198232.09375,175670.328125,176688.84375,196468.09375,688106.8125,171770.125,0.067138671875,0.982421875,-0.246826171875,-2.624511480331421,0.0915527269244194,0.8239745497703552,100.0,107389.0,1.0
14:57:19.876785,176764.40625,184272.96875,198248.71875,175670.234375,176700.296875,196515.203125,688332.5625,171772.1875,0.064208984375,0.98095703125,-0.247802734375,-2.655029058456421,0.1525878757238388,0.8239745497703552,100.0,107390.0,1.0
14:57:19.879238,176705.296875,184259.46875,198234.40625,175676.578125,176698.5,196482.65625,688363.375,171773.515625,0.0654296875,0.978271484375,-0.244384765625,-2.746581792831421,0.1525878757238388,0.9765624403953552,100.0,107391.0,1.0
14:57:19.881848,176651.390625,184245.890625,198219.390625,175680.421875,176691.796875,196429.640625,688172.875,171773.078125,0.063720703125,0.9755859375,-0.24462890625,-2.777099370956421,0.1831054538488388,0.9765624403953552,100.0,107392.0,1.0
14:57:19.884228,176711.109375,184266.265625,198242.8125,175686.78125,176704.140625,196461.46875,688095.875,171782.546875,0.0634765625,0.9755859375,-0.2451171875,-2.807616949081421,0.1525878757238388,0.9460448622703552,100.0,107393.0,1.0
14:57:19.912955,176786.484375,184286.03125,198267.84375,175690.171875,176717.640625,196516.375,688327.625,171788.71875,0.061279296875,0.976806640625,-0.247314453125,-2.807616949081421,0.2136230319738388,0.9765624403953552,100.0,107394.0,1.0
14:57:19.912990,176735.515625,184273.25,198255.515625,175691.328125,176714.15625,196493.390625,688396.5625,171786.03125,0.0615234375,0.974853515625,-0.247314453125,-2.685546636581421,0.1220703050494194,0.9460448622703552,100.0,107395.0,1.0
14:57:19.913000,176664.4375,184245.890625,198225.828125,175686.953125,176694.03125,196422.046875,688218.1875,171777.640625,0.062255859375,0.974365234375,-0.2470703125,-2.716064214706421,0.1525878757238388,0.9765624403953552,100.0,107396.0,1.0
14:57:19.916772,176686.609375,184253.578125,198229.5,175681.6875,176691.0,196433.9375,688075.25,171771.90625,0.063232421875,0.97314453125,-0.24462890625,-2.624511480331421,0.1220703050494194,0.9155272841453552,100.0,107397.0,1.0
14:57:19.916804,176766.453125,184262.78125,198244.15625,175672.203125,176693.40625,196486.859375,688269.25,171767.265625,0.063232421875,0.97216796875,-0.245849609375,-2.593993902206421,0.1220703050494194,0.6713866591453552,100.0,107398.0,1.0
14:57:19.916813,176728.015625,184260.734375,198235.3125,175671.578125,176694.484375,196487.84375,688401.5,171763.0625,0.0634765625,0.97216796875,-0.24609375,-2.563476324081421,0.0610351525247097,0.6408690810203552,100.0,107399.0,1.0
14:57:19.920515,176660.234375,184241.5,198209.828125,175668.53125,176681.703125,196427.859375,688263.0625,171754.828125,0.064453125,0.97119140625,-0.24853515625,-2.349853277206421,-0.0610351525247097,0.5798339247703552,100.0,107400.0,1.0
14:57:19.920547,176662.296875,184244.71875,198211.53125,175667.375,176681.25,196431.78125,688086.25,171754.390625,0.065673828125,0.971435546875,-0.25,-2.319335699081421,-0.03051757626235485,0.4882812201976776,100.0,107401.0,1.0
14:57:19.920557,176754.109375,184258.765625,198232.984375,175660.9375,176688.84375,196488.109375,688249.75,171756.171875,0.06640625,0.971923828125,-0.2470703125,-2.197265386581421,-0.0610351525247097,0.4882812201976776,100.0,107402.0,1.0
14:57:19.923611,176733.828125,184262.6875,198233.34375,175662.28125,176696.890625,196508.765625,688412.125,171756.890625,0.06689453125,0.970703125,-0.247314453125,-2.197265386581421,0.0915527269244194,0.4882812201976776,100.0,107403.0,1.0
14:57:19.923639,176664.078125,184243.5625,198213.046875,175662.71875,176688.671875,196452.0,688304.5,171758.328125,0.0654296875,0.97119140625,-0.246826171875,-2.014159917831421,0.0610351525247097,0.4577636420726776,100.0,107404.0,1.0
14:57:19.925519,176648.4375,184245.34375,198214.46875,175667.734375,176690.09375,196437.953125,688104.1875,171763.328125,0.0673828125,0.972900390625,-0.248046875,-1.9226073026657104,0.1220703050494194,0.3967284858226776,100.0,107405.0,1.0
14:57:19.928019,176742.671875,184258.765625,198237.359375,175665.140625,176696.265625,196486.5,688188.625,171767.171875,0.067138671875,0.971435546875,-0.2470703125,-1.8310545682907104,0.0915527269244194,0.3356933295726776,100.0,107406.0,1.0
14:57:19.930496,176747.40625,184268.953125,198245.140625,175669.15625,176705.296875,196518.421875,688391.8125,171770.296875,0.068359375,0.9736328125,-0.246337890625,-1.6784666776657104,0.0915527269244194,0.4577636420726776,100.0,107407.0,1.0
14:57:19.932998,176680.0,184251.96875,198224.40625,175672.203125,176698.0625,196462.984375,688333.5625,171772.8125,0.06689453125,0.971923828125,-0.244873046875,-1.4953612089157104,0.2441406100988388,0.4272460639476776,100.0,107408.0,1.0
14:57:19.937989,176653.359375,184254.640625,198222.796875,175681.234375,176701.015625,196438.9375,688131.8125,171779.25,0.06640625,0.97412109375,-0.243408203125,-1.4038084745407104,0.2441406100988388,0.2441406100988388,100.0,107409.0,1.0
14:57:19.940545,176740.796875,184269.9375,198246.65625,175679.796875,176709.5,196486.859375,688162.25,171782.546875,0.0654296875,0.9755859375,-0.24365234375,-1.3732908964157104,0.3051757514476776,0.3051757514476776,100.0,107410.0,1.0
14:57:19.943064,176772.359375,184283.96875,198263.203125,175684.625,176723.8125,196530.5,688381.125,171787.109375,0.065673828125,0.97705078125,-0.246826171875,-1.3732908964157104,0.2746581733226776,0.3967284858226776,100.0,107411.0,1.0
14:57:19.945497,176710.390625,184273.0625,198249.796875,175690.890625,176722.5625,196490.4375,688361.625,171791.3125,0.065673828125,0.97607421875,-0.25,-1.3427733182907104,0.3662109076976776,0.4272460639476776,100.0,107412.0,1.0
14:57:19.948098,176658.984375,184261.625,198232.890625,175687.9375,176711.921875,196443.6875,688154.75,171786.9375,0.064697265625,0.97607421875,-0.25048828125,-1.2207030057907104,0.3356933295726776,0.3967284858226776,100.0,107413.0,1.0
14:57:19.950495,176725.5,184272.96875,198246.125,175681.765625,176711.015625,196475.515625,688097.5,171784.25,0.062255859375,0.9765625,-0.248046875,-1.0986326932907104,0.3356933295726776,0.4882812201976776,100.0,107414.0,1.0
14:57:19.953699,176778.4375,184283.53125,198261.6875,175680.703125,176718.078125,196521.46875,688313.25,171782.8125,0.06201171875,0.976806640625,-0.24853515625,-1.0375975370407104,0.3356933295726776,0.4577636420726776,100.0,107415.0,1.0
14:57:19.953743,176725.6875,184277.359375,198251.75,175688.5625,176718.53125,196495.453125,688354.4375,171785.328125,0.061767578125,0.977294921875,-0.2490234375,-1.1291502714157104,0.3967284858226776,0.4577636420726776,100.0,107416.0,1.0
14:57:19.955535,176670.078125,184263.046875,198233.515625,175688.65625,176707.984375,196438.140625,688185.6875,171783.265625,0.06201171875,0.98046875,-0.25048828125,-0.9155272841453552,0.3662109076976776,0.3662109076976776,100.0,107417.0,1.0
14:57:19.958611,176719.6875,184274.140625,198249.34375,175691.0625,176711.375,196460.046875,688073.625,171785.40625,0.061767578125,0.97998046875,-0.24755859375,-0.8850097060203552,0.2746581733226776,0.4272460639476776,100.0,107418.0,1.0
14:57:19.958657,176788.625,184280.21875,198262.390625,175686.421875,176711.921875,196505.28125,688289.875,171781.921875,0.0615234375,0.981201171875,-0.247802734375,-0.7934569716453552,0.3051757514476776,0.4577636420726776,100.0,107419.0,1.0
14:57:19.960532,176735.34375,184269.578125,198247.203125,175680.15625,176705.921875,196488.46875,688368.5625,171773.703125,0.058837890625,0.9814453125,-0.25146484375,-0.8239745497703552,0.1525878757238388,0.4577636420726776,100.0,107420.0,1.0
14:57:19.963151,176667.03125,184246.421875,198222.34375,175673.90625,176690.453125,196423.390625,688205.9375,171765.296875,0.0595703125,0.982177734375,-0.25,-0.7934569716453552,0.03051757626235485,0.4882812201976776,100.0,107421.0,1.0
14:57:19.966194,176683.3125,184248.03125,198224.125,175667.203125,176686.4375,196430.625,688047.625,171758.328125,0.060791015625,0.982666015625,-0.24951171875,-0.8850097060203552,0.0610351525247097,0.4577636420726776,100.0,107422.0,1.0
14:57:19.966254,176770.03125,184262.34375,198244.6875,175663.4375,176693.59375,196489.71875,688237.875,171760.46875,0.060302734375,0.97998046875,-0.248291015625,-0.8850097060203552,0.0610351525247097,0.4577636420726776,100.0,107423.0,1.0
14:57:19.976176,176740.078125,184267.4375,198243.078125,175670.59375,176699.125,196501.796875,688375.3125,171763.59375,0.05908203125,0.97998046875,-0.24560546875,-0.8544921278953552,-0.0610351525247097,0.3356933295726776,100.0,107424.0,1.0
14:57:19.976245,176667.578125,184245.796875,198214.5625,175667.015625,176683.65625,196441.265625,688252.1875,171758.6875,0.059814453125,0.98193359375,-0.24755859375,-0.9460448622703552,-0.2136230319738388,0.3967284858226776,100.0,107425.0,1.0
