Timestamp,Fz,FC3,FCz,FC4,Cz,C3,C4
14:57:47.682752,176825.015625,184108.109375,198051.578125,175701.703125,176265.0625,196133.265625,688339.375,172230.75,0.056396484375,0.977783203125,-0.2392578125,-0.7019042372703552,-0.5187987685203552,0.5798339247703552,100.0,114355.0,1.0
14:57:47.682763,176806.15625,184104.359375,198043.890625,175695.890625,176257.375,196115.203125,688141.3125,172223.953125,0.056640625,0.9765625,-0.237548828125,-0.6408690810203552,-0.5798339247703552,0.6103515028953552,100.0,114356.0,1.0
14:57:47.683988,176897.171875,184121.25,198064.546875,175690.890625,176260.046875,196169.203125,688242.8125,172222.703125,0.05859375,0.977294921875,-0.24072265625,-0.5187987685203552,-0.7324218153953552,0.5187987685203552,100.0,114357.0,1.0
14:57:47.684004,176901.1875,184141.375,198075.625,175698.40625,176272.390625,196218.28125,688430.4375,172228.515625,0.059814453125,0.977783203125,-0.24267578125,-0.5493163466453552,-0.7324218153953552,0.5798339247703552,100.0,114358.0,1.0
14:57:47.690792,176828.40625,184101.40625,198049.078125,175698.484375,176259.515625,196145.15625,688371.875,172227.703125,0.061767578125,0.980224609375,-0.24267578125,-0.4577636420726776,-0.7324218153953552,0.4882812201976776,100.0,114359.0,1.0
14:57:47.699251,176795.15625,184093.359375,198041.734375,175702.953125,176256.484375,196104.828125,688179.5625,172234.6875,0.065185546875,0.979248046875,-0.2431640625,-0.4577636420726776,-0.6408690810203552,0.4272460639476776,100.0,114360.0,1.0
14:57:47.699261,176876.34375,184108.28125,198058.90625,175695.265625,176257.90625,196152.75,688214.6875,172233.25,0.06494140625,0.98095703125,-0.242431640625,-0.4272460639476776,-0.6103515028953552,0.5798339247703552,100.0,114361.0,1.0
14:57:47.706345,176896.1875,184115.0,198065.609375,175691.15625,176263.09375,196189.671875,688422.875,172225.390625,0.064453125,0.981689453125,-0.24072265625,-0.3967284858226776,-0.5493163466453552,0.4882812201976776,100.0,114362.0,1.0
14:57:47.706359,176832.609375,184101.40625,198048.625,175694.546875,176258.796875,196145.234375,688396.125,172227.890625,0.066650390625,0.98046875,-0.24072265625,-0.4577636420726776,-0.4272460639476776,0.5798339247703552,100.0,114363.0,1.0
14:57:47.712618,176783.078125,184083.4375,198031.28125,175690.625,176248.34375,196094.1875,688200.9375,172222.078125,0.0654296875,0.9833984375,-0.24169921875,-0.4577636420726776,-0.4577636420726776,0.6103515028953552,100.0,114364.0,1.0
14:57:47.712626,176854.15625,184098.90625,198049.96875,175689.09375,176254.0625,196138.4375,688177.0,172223.15625,0.065673828125,0.984619140625,-0.240478515625,-0.4577636420726776,-0.5187987685203552,0.6713866591453552,100.0,114365.0,1.0
14:57:47.727040,176903.25,184111.59375,198065.796875,175688.65625,176263.265625,196179.21875,688411.0625,172223.15625,0.06689453125,0.98291015625,-0.24365234375,-0.4882812201976776,-0.4272460639476776,0.6408690810203552,100.0,114366.0,1.0
14:57:47.731925,176847.90625,184109.1875,198056.21875,175697.765625,176265.234375,196151.9375,688422.75,172229.40625,0.065673828125,0.98095703125,-0.2431640625,-0.4577636420726776,-0.2746581733226776,0.5493163466453552,100.0,114367.0,1.0
14:57:47.731940,176791.40625,184091.5625,198038.4375,175695.71875,176255.3125,196100.625,688237.8125,172225.203125,0.066162109375,0.9814453125,-0.243408203125,-0.4882812201976776,-0.0610351525247097,0.6103515028953552,100.0,114368.0,1.0
14:57:47.731943,176841.734375,184098.359375,198052.921875,175698.21875,176260.140625,196127.890625,688142.375,172232.09375,0.06591796875,0.98388671875,-0.24267578125,-0.5493163466453552,-0.0915527269244194,0.5493163466453552,100.0,114369.0,1.0
14:57:47.734510,176908.25,184112.578125,198070.703125,175692.5,176267.203125,196175.734375,688372.875,172229.40625,0.06591796875,0.982666015625,-0.241943359375,-0.5493163466453552,-0.1525878757238388,0.6103515028953552,100.0,114370.0,1.0
14:57:47.737005,176857.109375,184100.0625,198060.34375,175694.375,176266.9375,196156.953125,688431.625,172229.5,0.065185546875,0.983154296875,-0.244873046875,-0.5493163466453552,0.0,0.5187987685203552,100.0,114371.0,1.0
14:57:47.740772,176797.390625,184086.109375,198043.53125,175699.921875,176259.96875,196105.1875,688279.25,172232.71875,0.065673828125,0.98193359375,-0.2431640625,-0.6103515028953552,0.0915527269244194,0.4577636420726776,100.0,114372.0,1.0
14:57:47.759114,176824.75,184097.203125,198053.625,175699.828125,176263.09375,196121.28125,688131.8125,172234.0625,0.064208984375,0.98095703125,-0.243408203125,-0.6408690810203552,0.2136230319738388,0.5187987685203552,100.0,114373.0,1.0
14:57:47.759212,176907.09375,184112.484375,198073.03125,175694.90625,176269.625,196177.0625,688334.25,172234.328125,0.064208984375,0.98193359375,-0.24267578125,-0.5798339247703552,0.2746581733226776,0.4577636420726776,100.0,114374.0,1.0
14:57:47.761327,176871.859375,184120.625,198068.390625,175692.765625,176273.640625,196186.1875,688442.5,172232.09375,0.063232421875,0.98193359375,-0.243408203125,-0.7019042372703552,0.1831054538488388,0.5493163466453552,100.0,114375.0,1.0
14:57:47.761348,176805.53125,184101.578125,198045.671875,175690.703125,176258.359375,196123.328125,688312.8125,172227.703125,0.06298828125,0.9814453125,-0.240478515625,-0.6713866591453552,0.1525878757238388,0.5187987685203552,100.0,114376.0,1.0
14:57:47.767590,176816.34375,184114.375,198055.328125,175698.21875,176263.0,196126.46875,688142.1875,172235.125,0.064697265625,0.983154296875,-0.2421875,-0.6713866591453552,0.2746581733226776,0.4272460639476776,100.0,114377.0,1.0
14:57:47.767600,176911.46875,184129.921875,198076.96875,175697.328125,176269.984375,196181.8125,688311.1875,172231.46875,0.063720703125,0.983642578125,-0.2421875,-0.6408690810203552,0.3356933295726776,0.5187987685203552,100.0,114378.0,1.0
14:57:47.775089,176891.09375,184130.015625,198075.53125,175698.84375,176274.0,196196.828125,688456.1875,172230.125,0.0625,0.982666015625,-0.2421875,-0.7019042372703552,0.3051757514476776,0.4577636420726776,100.0,114379.0,1.0
14:57:47.775105,176817.234375,184103.375,198047.734375,175691.0625,176260.765625,196131.921875,688351.0625,172225.296875,0.06005859375,0.9833984375,-0.244384765625,-0.8239745497703552,0.3051757514476776,0.4882812201976776,100.0,114380.0,1.0
14:57:47.785092,176805.078125,184114.546875,198049.875,175699.828125,176264.609375,196124.046875,688157.0625,172231.734375,0.060302734375,0.981689453125,-0.24462890625,-0.8544921278953552,0.3356933295726776,0.4882812201976776,100.0,114381.0,1.0
14:57:47.785103,176898.515625,184121.703125,198070.796875,175698.40625,176268.546875,196170.359375,688232.0625,172233.96875,0.05908203125,0.983154296875,-0.24365234375,-0.9765624403953552,0.3356933295726776,0.6103515028953552,100.0,114382.0,1.0
14:57:47.791366,176905.125,184128.140625,198076.96875,175702.515625,176274.0,196194.0625,688428.1875,172236.375,0.06005859375,0.983642578125,-0.242919921875,-0.8850097060203552,0.2746581733226776,0.6103515028953552,100.0,114383.0,1.0
14:57:47.791376,176840.125,184114.90625,198059.625,175704.921875,176268.1875,196148.453125,688370.375,172237.984375,0.05908203125,0.982177734375,-0.240966796875,-0.9460448622703552,0.2746581733226776,0.6408690810203552,100.0,114384.0,1.0
14:57:47.793878,176809.734375,184112.84375,198055.78125,175710.46875,176268.90625,196119.046875,688178.625,172240.9375,0.0615234375,0.98046875,-0.242919921875,-0.9460448622703552,0.3051757514476776,0.6408690810203552,100.0,114385.0,1.0
14:57:47.793886,176893.6875,184128.40625,198074.46875,175706.796875,176273.734375,196161.421875,688212.3125,172242.640625,0.061279296875,0.98291015625,-0.24560546875,-1.0375975370407104,0.2746581733226776,0.7019042372703552,100.0,114386.0,1.0
14:57:47.804597,176926.9375,184149.421875,198090.921875,175713.15625,176288.125,196208.1875,688428.0625,172250.234375,0.0615234375,0.984619140625,-0.240966796875,-1.0986326932907104,0.3051757514476776,0.8239745497703552,100.0,114387.0,1.0
14:57:47.812582,176864.265625,184133.140625,198074.28125,175717.53125,176284.546875,196164.640625,688410.6875,172252.46875,0.0595703125,0.985595703125,-0.24072265625,-1.2207030057907104,0.3051757514476776,0.7324218153953552,100.0,114388.0,1.0
14:57:47.812598,176805.53125,184112.578125,198050.328125,175708.328125,176266.9375,196114.75,688208.625,172238.609375,0.06103515625,0.98291015625,-0.241943359375,-1.2817381620407104,0.2441406100988388,0.7934569716453552,100.0,114389.0,1.0
14:57:47.819276,176870.609375,184122.953125,198064.453125,175705.015625,176267.921875,196147.03125,688169.9375,172238.796875,0.06103515625,0.981689453125,-0.245361328125,-1.3122557401657104,0.1831054538488388,0.8850097060203552,100.0,114390.0,1.0
14:57:47.819299,176925.59375,184138.5,198083.5,175706.0,176279.359375,196197.0,688398.5625,172243.53125,0.06103515625,0.982421875,-0.248046875,-1.3427733182907104,0.1831054538488388,0.9460448622703552,100.0,114391.0,1.0
14:57:47.822708,176867.65625,184125.359375,198068.828125,175709.21875,176274.1875,196164.8125,688428.125,172242.109375,0.060791015625,0.982177734375,-0.24853515625,-1.3732908964157104,0.1831054538488388,1.0070799589157104,100.0,114392.0,1.0
14:57:47.822724,176812.328125,184117.046875,198051.03125,175712.34375,176264.171875,196114.75,688248.75,172242.015625,0.060302734375,0.982666015625,-0.2470703125,-1.4038084745407104,0.1220703050494194,1.0375975370407104,100.0,114393.0,1.0
14:57:47.832088,176859.4375,184122.328125,198060.96875,175710.5625,176264.796875,196137.546875,688136.75,172241.5625,0.060302734375,0.9833984375,-0.244140625,-1.4953612089157104,0.0915527269244194,1.0070799589157104,100.0,114394.0,1.0
14:57:47.838932,176929.09375,184134.484375,198079.46875,175708.140625,176272.484375,196189.046875,688352.6875,172245.59375,0.059814453125,0.982666015625,-0.243896484375,-1.5563963651657104,0.1831054538488388,1.0070799589157104,100.0,114395.0,1.0
14:57:47.838940,176874.015625,184121.875,198064.890625,175707.15625,176269.796875,196171.078125,688432.5,172241.125,0.059814453125,0.982421875,-0.2431640625,-1.7089842557907104,0.03051757626235485,1.0681151151657104,100.0,114396.0,1.0
14:57:47.841386,176810.0,184111.234375,198043.34375,175703.3125,176260.046875,196120.828125,688287.25,172234.140625,0.0634765625,0.98193359375,-0.245849609375,-1.7395018339157104,0.0610351525247097,1.0986326932907104,100.0,114397.0,1.0
14:57:47.841394,176834.21875,184119.46875,198053.359375,175705.734375,176264.34375,196133.890625,688147.75,172238.890625,0.064208984375,0.98193359375,-0.245849609375,-1.8005369901657104,0.1525878757238388,0.9460448622703552,100.0,114398.0,1.0
14:57:47.855875,176914.875,184130.375,198070.96875,175700.8125,176267.203125,196182.703125,688348.375,172238.171875,0.06640625,0.98046875,-0.243896484375,-1.8920897245407104,0.0915527269244194,1.0070799589157104,100.0,114399.0,1.0
14:57:47.858951,176884.46875,184139.3125,198070.0,175707.15625,176274.453125,196195.390625,688462.9375,172242.90625,0.06689453125,0.978759765625,-0.242431640625,-1.8615721464157104,0.1831054538488388,1.0986326932907104,100.0,114400.0,1.0
14:57:47.858957,176818.21875,184117.765625,198044.953125,175703.765625,176258.625,196129.953125,688322.625,172237.359375,0.066162109375,0.980224609375,-0.2421875,-1.8920897245407104,0.1525878757238388,1.0375975370407104,100.0,114401.0,1.0
14:57:47.865258,176815.453125,184115.703125,198044.59375,175702.515625,176255.40625,196121.90625,688138.8125,172236.65625,0.06689453125,0.982666015625,-0.2421875,-1.8920897245407104,0.2441406100988388,1.0070799589157104,100.0,114402.0,1.0
14:57:47.865273,176910.578125,184131.09375,198069.453125,175702.875,176264.171875,196176.984375,688290.25,172242.015625,0.066162109375,0.990478515625,-0.24169921875,-1.8920897245407104,0.3051757514476776,1.0070799589157104,100.0,114403.0,1.0
14:57:47.870787,176900.65625,184138.859375,198076.078125,175711.0,176275.078125,196197.71875,688452.0625,172248.359375,0.066162109375,0.988037109375,-0.238525390625,-2.227782964706421,0.3051757514476776,0.9460448622703552,100.0,114404.0,1.0
14:57:47.877613,176831.625,184117.9375,198053.09375,175709.125,176264.25,196138.09375,688360.8125,172246.484375,0.0673828125,0.976806640625,-0.241455078125,-2.502441167831421,0.3051757514476776,0.8850097060203552,100.0,114405.0,1.0
14:57:47.877631,176815.1875,184123.21875,198050.953125,175710.296875,176263.984375,196126.375,688171.6875,172245.5,0.06494140625,0.971435546875,-0.244384765625,-2.502441167831421,0.5798339247703552,0.7629393935203552,100.0,114406.0,1.0
14:57:47.887600,176908.34375,184131.625,198072.578125,175711.0,176270.15625,196172.6875,688242.875,172249.4375,0.066162109375,0.970703125,-0.2509765625,-2.288818120956421,0.5187987685203552,0.7934569716453552,100.0,114407.0,1.0
14:57:47.887611,176916.390625,184146.109375,198080.8125,175708.5,176278.375,196207.28125,688436.5625,172246.484375,0.065185546875,0.974609375,-0.254638671875,-2.075195074081421,0.4882812201976776,0.8850097060203552,100.0,114408.0,1.0
14:57:47.890072,176848.890625,184125.453125,198060.0625,175704.921875,176269.265625,196153.109375,688384.9375,172243.265625,0.06689453125,0.978271484375,-0.248291015625,-1.9836424589157104,0.4577636420726776,0.8544921278953552,100.0,114409.0,1.0
14:57:47.890079,176815.984375,184128.5,198055.15625,175712.4375,176269.984375,196127.625,688188.4375,172248.625,0.068359375,0.9794921875,-0.242431640625,-2.014159917831421,0.5187987685203552,0.7019042372703552,100.0,114410.0,1.0
14:57:47.897042,176895.640625,184135.46875,198073.21875,175709.21875,176273.734375,196166.78125,688201.0625,172249.34375,0.069091796875,0.979248046875,-0.2412109375,-2.075195074081421,0.5493163466453552,0.8239745497703552,100.0,114411.0,1.0
14:57:47.923931,176929.796875,184150.84375,198091.71875,175712.53125,176287.6875,196213.09375,688421.25,172256.3125,0.067626953125,0.979736328125,-0.24267578125,-2.197265386581421,0.6408690810203552,0.8239745497703552,100.0,114412.0,1.0
14:57:47.923951,176871.515625,184140.65625,198080.359375,175721.90625,176286.96875,196180.640625,688416.125,172262.40625,0.065185546875,0.98046875,-0.244140625,-2.197265386581421,0.6103515028953552,0.7934569716453552,100.0,114413.0,1.0
14:57:47.948327,176826.265625,184133.765625,198067.484375,175727.453125,176279.09375,196137.90625,688233.375,172261.140625,0.067138671875,0.97802734375,-0.24853515625,-2.166747808456421,0.6408690810203552,0.7934569716453552,100.0,114414.0,1.0
14:57:47.953298,176894.21875,184152.09375,198087.0625,175728.171875,176283.84375,196174.125,688187.375,172263.46875,0.065185546875,0.978271484375,-0.24462890625,-2.197265386581421,0.7019042372703552,0.7019042372703552,100.0,114415.0,1.0
14:57:47.955802,176954.125,184170.6875,198107.1875,175728.4375,176296.796875,196226.6875,688421.9375,172267.765625,0.062744140625,0.975341796875,-0.244873046875,-2.166747808456421,0.7019042372703552,0.6713866591453552,100.0,114416.0,1.0
14:57:47.958357,176895.375,184153.625,198092.4375,175730.234375,176295.015625,196196.828125,688455.3125,172267.234375,0.06396484375,0.976806640625,-0.2421875,-2.044677495956421,0.6408690810203552,0.6103515028953552,100.0,114417.0,1.0
14:57:47.960835,176835.75,184144.3125,198073.03125,175727.546875,176283.203125,196145.15625,688269.0625,172261.0625,0.065185546875,0.976318359375,-0.243896484375,-2.044677495956421,0.6713866591453552,0.4272460639476776,100.0,114418.0,1.0
14:57:47.966132,176877.40625,184154.875,198083.40625,175724.859375,176283.921875,196164.734375,688152.125,172260.34375,0.0654296875,0.978759765625,-0.241943359375,-2.075195074081421,0.7324218153953552,0.4272460639476776,100.0,114419.0,1.0
14:57:47.968415,176949.65625,184183.390625,198102.71875,175721.28125,176290.453125,196221.59375,688358.125,172259.09375,0.067138671875,0.9814453125,-0.2412109375,-2.075195074081421,0.7019042372703552,0.3356933295726776,100.0,114420.0,1.0
14:57:47.970800,176911.109375,184191.34375,198103.34375,175729.609375,176300.375,196236.53125,688442.5,172265.078125,0.06884765625,0.98291015625,-0.24267578125,-2.075195074081421,0.7019042372703552,0.3356933295726776,100.0,114421.0,1.0
14:57:47.973294,176837.359375,184119.828125,198072.046875,175731.75,176280.96875,196131.5625,688295.1875,172269.015625,0.06640625,0.98095703125,-0.241943359375,-2.227782964706421,0.8239745497703552,0.2746581733226776,100.0,114422.0,1.0
14:57:47.975742,176854.25,184133.59375,198076.703125,175727.28125,176279.359375,196140.40625,688135.4375,172263.828125,0.0673828125,0.982177734375,-0.242431640625,-2.166747808456421,0.7019042372703552,0.1831054538488388,100.0,114423.0,1.0
14:57:47.978462,176942.765625,184156.921875,198098.515625,175720.21875,176286.515625,196205.5,688318.9375,172256.859375,0.06689453125,0.981201171875,-0.24267578125,-2.166747808456421,0.7324218153953552,0.2441406100988388,100.0,114424.0,1.0
14:57:47.980747,176908.171875,184149.328125,198092.171875,175720.578125,176287.953125,196203.890625,688445.625,172255.515625,0.06640625,0.9833984375,-0.242431640625,-2.349853277206421,0.8239745497703552,0.2136230319738388,100.0,114425.0,1.0
14:57:47.985826,176843.25,184132.15625,198071.15625,175721.640625,176278.734375,196143.09375,688332.375,172255.96875,0.0654296875,0.98486328125,-0.24072265625,-2.380370855331421,0.7934569716453552,0.3356933295726776,100.0,114426.0,1.0
14:57:47.988832,176847.453125,184147.890625,198081.078125,175731.65625,176286.34375,196148.71875,688155.4375,172266.6875,0.064453125,0.985107421875,-0.23876953125,-2.349853277206421,0.7934569716453552,0.4577636420726776,100.0,114427.0,1.0
14:57:47.988855,176940.078125,184160.765625,198101.109375,175726.203125,176289.46875,196201.03125,688286.5,172264.984375,0.06396484375,0.98388671875,-0.2421875,-2.319335699081421,0.7934569716453552,0.3662109076976776,100.0,114428.0,1.0
14:57:47.991533,176928.015625,184160.859375,198100.921875,175728.53125,176295.1875,196218.90625,688453.0625,172266.515625,0.06494140625,0.98291015625,-0.241943359375,-2.349853277206421,0.7324218153953552,0.4577636420726776,100.0,114429.0,1.0
14:57:47.991587,176856.484375,184143.875,198075.453125,175726.65625,176283.921875,196160.703125,688355.875,172264.09375,0.06494140625,0.981689453125,-0.240478515625,-2.441406011581421,0.7019042372703552,0.4272460639476776,100.0,114430.0,1.0
14:57:47.993303,176828.953125,184142.625,198065.34375,175722.8125,176276.0625,196142.109375,688150.6875,172258.46875,0.0634765625,0.9794921875,-0.240966796875,-2.441406011581421,0.5493163466453552,0.4577636420726776,100.0,114431.0,1.0
14:57:47.996466,176909.0625,184138.5,198077.328125,175710.734375,176272.390625,196180.015625,688224.75,172252.65625,0.0634765625,0.978515625,-0.242919921875,-2.410888433456421,0.6103515028953552,0.4577636420726776,100.0,114432.0,1.0
14:57:47.996533,176917.109375,184139.3125,198084.65625,175714.5,176277.40625,196203.359375,688423.1875,172253.546875,0.0634765625,0.978515625,-0.241455078125,-2.380370855331421,0.6103515028953552,0.4577636420726776,100.0,114433.0,1.0
14:57:47.999050,176849.25,184124.921875,198062.484375,175712.4375,176266.9375,196155.078125,688375.4375,172249.609375,0.06298828125,0.979736328125,-0.244384765625,-2.319335699081421,0.5493163466453552,0.4577636420726776,100.0,114434.0,1.0
14:57:47.999117,176816.4375,184147.0,198057.390625,175714.578125,176266.140625,196138.984375,688170.8125,172249.171875,0.06494140625,0.9794921875,-0.239501953125,-2.288818120956421,0.4272460639476776,0.3967284858226776,100.0,114435.0,1.0
14:57:48.000861,176894.671875,184137.96875,198074.015625,175713.421875,176267.46875,196169.734375,688186.0,172253.453125,0.064697265625,0.979736328125,-0.2412109375,-2.319335699081421,0.3967284858226776,0.3967284858226776,100.0,114436.0,1.0
14:57:48.003659,176931.59375,184148.25,198088.859375,175717.984375,176277.484375,196213.375,688410.1875,172257.921875,0.062255859375,0.97900390625,-0.238525390625,-2.380370855331421,0.4882812201976776,0.3967284858226776,100.0,114437.0,1.0
14:57:48.007627,176863.734375,184131.71875,198068.296875,175714.765625,176268.015625,196166.15625,688396.5625,172254.703125,0.06396484375,0.979248046875,-0.240966796875,-2.349853277206421,0.3356933295726776,0.3051757514476776,100.0,114438.0,1.0
14:57:48.007689,176814.28125,184128.21875,198056.671875,175716.734375,176263.453125,196125.65625,688209.625,172255.34375,0.0634765625,0.9765625,-0.2392578125,-2.258300542831421,0.3051757514476776,0.3356933295726776,100.0,114439.0,1.0
14:57:48.022576,176882.5,184137.609375,198078.578125,175720.65625,176271.9375,196157.484375,688158.125,172261.953125,0.063232421875,0.976318359375,-0.235595703125,-2.227782964706421,0.3662109076976776,0.4272460639476776,100.0,114440.0,1.0
14:57:48.022587,176941.6875,184152.984375,198096.546875,175721.734375,176281.15625,196209.96875,688390.0625,172263.03125,0.063720703125,0.976806640625,-0.234375,-2.197265386581421,0.3662109076976776,0.3051757514476776,100.0,114441.0,1.0
14:57:48.029595,176883.046875,184143.78125,198082.234375,175724.5,176278.921875,196191.015625,688426.6875,172261.6875,0.066162109375,0.97900390625,-0.23779296875,-2.166747808456421,0.3662109076976776,0.3051757514476776,100.0,114442.0,1.0
14:57:48.029608,176823.40625,184127.78125,198060.421875,175719.046875,176266.21875,196133.4375,688254.875,172256.3125,0.065185546875,0.978271484375,-0.240478515625,-2.044677495956421,0.1220703050494194,0.3051757514476776,100.0,114443.0,1.0
14:57:48.029610,176863.46875,184141.28125,198070.796875,175716.109375,176265.859375,196154.8125,688136.9375,172254.4375,0.064208984375,0.97802734375,-0.23779296875,-1.9226073026657104,0.0915527269244194,0.3051757514476776,100.0,114444.0,1.0
14:57:48.032180,176942.5,184157.1875,198093.59375,175716.1875,176273.828125,196207.734375,688349.0,172256.046875,0.064208984375,0.976806640625,-0.238525390625,-1.8310545682907104,0.2441406100988388,0.3662109076976776,100.0,114445.0,1.0
14:57:48.035728,176896.90625,184153.625,198085.640625,175717.53125,176274.8125,196200.140625,688439.1875,172253.28125,0.064208984375,0.977783203125,-0.237548828125,-1.8005369901657104,0.1525878757238388,0.3662109076976776,100.0,114446.0,1.0
14:57:48.073956,176828.59375,184131.71875,198063.28125,175715.921875,176263.546875,196134.328125,688290.625,172250.234375,0.06396484375,0.979248046875,-0.23583984375,-1.8005369901657104,0.1525878757238388,0.2746581733226776,100.0,114447.0,1.0
14:57:48.073979,176847.1875,184141.1875,198070.4375,175717.171875,176266.765625,196142.640625,688126.9375,172252.203125,0.065673828125,0.978759765625,-0.23388671875,-1.6784666776657104,0.0610351525247097,0.3356933295726776,100.0,114448.0,1.0
14:57:48.076425,176935.609375,184153.796875,198090.921875,175712.703125,176271.140625,196195.75,688315.9375,172252.46875,0.063232421875,0.9775390625,-0.2392578125,-1.7089842557907104,0.0,0.3967284858226776,100.0,114449.0,1.0
14:57:48.076434,176902.53125,184154.78125,198087.78125,175715.03125,176273.828125,196202.109375,688439.5625,172252.75,0.063720703125,0.97998046875,-0.23779296875,-1.6784666776657104,0.0610351525247097,0.3051757514476776,100.0,114450.0,1.0
14:57:48.080000,176833.78125,184130.1875,198064.359375,175714.578125,176262.109375,196135.671875,688329.125,172248.453125,0.064453125,0.981689453125,-0.2392578125,-1.5563963651657104,-0.03051757626235485,0.2441406100988388,100.0,114451.0,1.0
14:57:48.080019,176837.53125,184139.484375,198073.921875,175723.25,176269.890625,196135.140625,688154.75,172255.34375,0.064208984375,0.98291015625,-0.236328125,-1.4648436307907104,-0.03051757626235485,0.2746581733226776,100.0,114452.0,1.0
14:57:48.080024,176932.3125,184158.53125,198097.171875,175718.421875,176276.859375,196190.296875,688295.6875,172255.78125,0.06396484375,0.982666015625,-0.23486328125,-1.5563963651657104,-0.1220703050494194,0.2441406100988388,100.0,114453.0,1.0
14:57:48.080028,176923.453125,184166.578125,198100.03125,175720.75,176285.265625,196214.890625,688480.1875,172256.3125,0.064208984375,0.982666015625,-0.23486328125,-1.4953612089157104,-0.0610351525247097,0.3051757514476776,100.0,114454.0,1.0
14:57:48.083176,176851.390625,184144.671875,198074.28125,175719.765625,176271.859375,196155.96875,688391.1875,172252.203125,0.063232421875,0.98291015625,-0.2353515625,-1.5563963651657104,-0.0610351525247097,0.3051757514476776,100.0,114455.0,1.0
14:57:48.083195,176825.828125,184140.203125,198067.125,175721.640625,176267.75,196133.609375,688192.75,172252.75,0.064453125,0.98095703125,-0.23779296875,-1.5869139432907104,-0.0610351525247097,0.1831054538488388,100.0,114456.0,1.0
14:57:48.083206,176918.359375,184157.734375,198089.75,175718.609375,176274.453125,196184.671875,688265.5,172258.46875,0.06591796875,0.981689453125,-0.236572265625,-1.4953612089157104,-0.2441406100988388,0.3356933295726776,100.0,114457.0,1.0
14:57:48.095780,176929.171875,184165.515625,198095.390625,175719.234375,176279.453125,196217.65625,688464.1875,172258.5625,0.0654296875,0.97998046875,-0.234619140625,-1.4953612089157104,-0.1525878757238388,0.4272460639476776,100.0,114458.0,1.0
14:57:48.098364,176860.59375,184142.984375,198074.46875,175720.296875,176270.78125,196164.109375,688412.8125,172261.140625,0.063720703125,0.980224609375,-0.237548828125,-1.5258787870407104,-0.1220703050494194,0.3662109076976776,100.0,114459.0,1.0
14:57:48.100724,176820.28125,184135.28125,198063.640625,175719.40625,176263.890625,196127.0,688196.5,172260.078125,0.06298828125,0.97998046875,-0.235595703125,-1.4648436307907104,-0.1831054538488388,0.3051757514476776,100.0,114460.0,1.0
14:57:48.103332,176900.828125,184150.3125,198082.59375,175717.359375,176266.3125,196167.59375,688182.0625,172260.25,0.06396484375,0.980712890625,-0.23681640625,-1.4038084745407104,-0.1831054538488388,0.3051757514476776,100.0,114461.0,1.0
14:57:48.105747,176938.296875,184161.390625,198093.234375,175716.375,176272.03125,196210.234375,688401.5,172259.359375,0.065185546875,0.98046875,-0.237548828125,-1.3732908964157104,-0.2746581733226776,0.1831054538488388,100.0,114462.0,1.0
14:57:48.108325,176869.0,184143.15625,198070.265625,175717.359375,176262.921875,196169.203125,688407.1875,172256.140625,0.0654296875,0.9794921875,-0.236083984375,-1.2512205839157104,-0.2441406100988388,0.3051757514476776,100.0,114463.0,1.0
14:57:48.126236,176813.125,184131.09375,198052.203125,175714.765625,176253.796875,196120.828125,688226.4375,172251.578125,0.06494140625,0.97900390625,-0.239013671875,-1.1291502714157104,-0.2441406100988388,0.3967284858226776,100.0,114464.0,1.0
14:57:48.126252,176872.21875,184135.375,198069.015625,175715.125,176259.96875,196149.0,688152.125,172256.671875,0.066162109375,0.979248046875,-0.2412109375,-1.2207030057907104,-0.2746581733226776,0.4272460639476776,100.0,114465.0,1.0
14:57:48.126256,176932.21875,184152.09375,198088.140625,175716.453125,176269.984375,196203.984375,688375.0,172260.515625,0.06591796875,0.978515625,-0.242431640625,-1.1901854276657104,-0.2136230319738388,0.3356933295726776,100.0,114466.0,1.0
14:57:48.126259,176880.0,184149.59375,198076.25,175718.421875,176268.015625,196186.09375,688425.625,172260.25,0.064453125,0.978759765625,-0.242919921875,-1.0681151151657104,-0.2136230319738388,0.3356933295726776,100.0,114467.0,1.0
14:57:48.126262,176826.171875,184142.625,198061.328125,175723.078125,176261.65625,196136.75,688258.25,172262.125,0.06689453125,0.979248046875,-0.2412109375,-1.0375975370407104,-0.1525878757238388,0.3967284858226776,100.0,114468.0,1.0
14:57:48.127578,176865.15625,184145.390625,198073.84375,175726.390625,176264.796875,196151.671875,688141.375,172265.625,0.065185546875,0.979736328125,-0.237548828125,-1.0681151151657104,-0.0610351525247097,0.4272460639476776,100.0,114469.0,1.0
14:57:48.137097,176948.671875,184162.203125,198097.265625,175729.515625,176273.828125,196207.015625,688354.1875,172269.734375,0.065185546875,0.981201171875,-0.238525390625,-1.0375975370407104,-0.03051757626235485,0.4882812201976776,100.0,114470.0,1.0
14:57:48.140172,176903.0625,184159.609375,198086.71875,175728.96875,176272.65625,196200.3125,688443.25,172268.296875,0.066650390625,0.98046875,-0.24072265625,-0.9765624403953552,0.0,0.4577636420726776,100.0,114471.0,1.0
14:57:48.140241,176839.046875,184140.921875,198066.234375,175728.0,176263.265625,196140.671875,688294.125,172268.125,0.068603515625,0.98193359375,-0.238037109375,-0.9765624403953552,0.0610351525247097,0.5493163466453552,100.0,114472.0,1.0
14:57:48.147056,176853.71875,184148.25,198074.734375,175729.515625,176266.9375,196144.34375,688132.3125,172269.8125,0.0673828125,0.982666015625,-0.237060546875,-0.9460448622703552,0.1525878757238388,0.5493163466453552,100.0,114473.0,1.0
14:57:48.153951,176937.21875,184155.671875,198090.203125,175719.3125,176268.015625,196187.703125,688321.1875,172263.203125,0.06640625,0.9794921875,-0.23876953125,-0.9765624403953552,0.1831054538488388,0.5187987685203552,100.0,114474.0,1.0
14:57:48.154048,176907.625,184155.3125,198084.828125,175719.140625,176271.3125,196198.609375,688452.625,172260.34375,0.067626953125,0.978759765625,-0.240234375,-1.0070799589157104,0.2441406100988388,0.6103515028953552,100.0,114475.0,1.0
14:57:48.160256,176830.109375,184126.171875,198051.484375,175708.5,176252.1875,196130.578125,688325.6875,172248.0,0.068603515625,0.978515625,-0.2431640625,-0.9155272841453552,0.2746581733226776,0.5187987685203552,100.0,114476.0,1.0
14:57:48.160286,176822.0625,184132.515625,198055.15625,175712.34375,176255.84375,196127.53125,688139.0,172250.15625,0.066650390625,0.976318359375,-0.23974609375,-0.9155272841453552,0.3051757514476776,0.5493163466453552,100.0,114477.0,1.0
14:57:48.162025,176915.578125,184149.59375,198079.375,175709.75,176263.546875,196183.78125,688257.25,172251.578125,0.06591796875,0.975341796875,-0.24560546875,-0.8850097060203552,0.2746581733226776,0.5493163466453552,100.0,114478.0,1.0
14:57:48.170808,176906.375,184152.453125,198077.5,175707.421875,176265.5,196203.71875,688431.8125,172250.421875,0.063232421875,0.9755859375,-0.24072265625,-0.7934569716453552,0.3662109076976776,0.4882812201976776,100.0,114479.0,1.0
14:57:48.177614,176846.921875,184153.703125,198062.484375,175713.515625,176261.84375,196157.40625,688362.75,172255.609375,0.061767578125,0.97412109375,-0.242431640625,-0.7629393935203552,0.3356933295726776,0.3662109076976776,100.0,114480.0,1.0
14:57:48.177657,176811.96875,184140.921875,198050.59375,175706.53125,176254.78125,196129.765625,688162.5,172250.859375,0.063720703125,0.976318359375,-0.241943359375,-0.6713866591453552,0.2746581733226776,0.4577636420726776,100.0,114481.0,1.0
14:57:48.179612,176888.40625,184134.578125,198058.640625,175692.765625,176250.125,196161.25,688209.25,172244.875,0.06298828125,0.976806640625,-0.241943359375,-0.5798339247703552,0.3356933295726776,0.3967284858226776,100.0,114482.0,1.0
14:57:48.192023,176911.296875,184153.265625,198073.84375,175697.765625,176263.71875,196204.609375,688415.8125,172249.796875,0.06396484375,0.977783203125,-0.243896484375,-0.6103515028953552,0.3051757514476776,0.2746581733226776,100.0,114483.0,1.0
14:57:48.195127,176844.59375,184137.078125,198053.359375,175699.65625,176254.875,196157.3125,688381.125,172247.296875,0.06396484375,0.9775390625,-0.244140625,-0.5187987685203552,0.3051757514476776,0.3662109076976776,100.0,114484.0,1.0
14:57:48.195162,176803.375,184135.46875,198045.234375,175703.859375,176252.8125,196126.828125,688186.5625,172248.265625,0.0634765625,0.979248046875,-0.244873046875,-0.5187987685203552,0.3356933295726776,0.2136230319738388,100.0,114485.0,1.0
14:57:48.197144,176880.359375,184144.59375,198064.984375,175701.625,176258.71875,196164.375,688174.3125,172252.390625,0.067626953125,0.98095703125,-0.243408203125,-0.4577636420726776,0.3356933295726776,0.2136230319738388,100.0,114486.0,1.0
14:57:48.207963,176925.515625,184161.84375,198080.09375,175701.53125,176268.90625,196214.890625,688395.75,172254.078125,0.067626953125,0.98291015625,-0.241455078125,-0.4272460639476776,0.3662109076976776,0.1220703050494194,100.0,114487.0,1.0
14:57:48.208020,176862.828125,184143.96875,198061.59375,175704.921875,176263.359375,196176.796875,688406.3125,172252.5625,0.067626953125,0.98486328125,-0.24365234375,-0.4272460639476776,0.2746581733226776,0.1220703050494194,100.0,114488.0,1.0
14:57:48.209539,176810.4375,184134.75,198047.1875,175705.90625,176256.296875,196128.609375,688235.25,172250.234375,0.066650390625,0.981689453125,-0.2431640625,-0.4577636420726776,0.2136230319738388,0.1525878757238388,100.0,114489.0,1.0
14:57:48.213302,176869.0,184149.140625,198064.0,175704.75,176261.75,196161.6875,688137.9375,172251.40625,0.0634765625,0.980712890625,-0.244873046875,-0.4882812201976776,0.2746581733226776,0.2136230319738388,100.0,114490.0,1.0
14:57:48.223934,176933.5625,184161.75,198082.328125,175702.421875,176269.796875,196211.484375,688356.0625,172250.515625,0.062255859375,0.983154296875,-0.24560546875,-0.6408690810203552,0.2136230319738388,0.03051757626235485,100.0,114491.0,1.0
14:57:48.223947,176882.234375,184156.296875,198071.421875,175706.53125,176269.359375,196194.953125,688415.5,172252.75,0.059326171875,0.983642578125,-0.244140625,-0.6713866591453552,0.1525878757238388,0.03051757626235485,100.0,114492.0,1.0
14:57:48.226579,176824.75,184141.8125,198055.6875,175710.921875,176262.5625,196140.046875,688271.3125,172256.859375,0.05712890625,0.98388671875,-0.24267578125,-0.7324218153953552,0.0610351525247097,-0.1220703050494194,100.0,114493.0,1.0
14:57:48.226588,176861.765625,184155.40625,198070.53125,175716.375,176268.1875,196159.015625,688136.3125,172263.375,0.0546875,0.986328125,-0.240478515625,-0.8544921278953552,0.03051757626235485,-0.1525878757238388,100.0,114494.0,1.0
14:57:48.233210,176947.859375,184175.171875,198094.484375,175717.078125,176278.296875,196218.375,688340.9375,172268.5625,0.052734375,0.988525390625,-0.240234375,-0.9765624403953552,-0.0915527269244194,-0.3356933295726776,100.0,114495.0,1.0
14:57:48.237008,176896.09375,184159.96875,198078.3125,175710.640625,176270.78125,196203.53125,688433.0625,172260.25,0.053955078125,0.988037109375,-0.23828125,-1.1901854276657104,-0.2746581733226776,-0.3967284858226776,100.0,114496.0,1.0
14:57:48.243861,176823.859375,184131.09375,198049.96875,175707.609375,176254.15625,196134.25,688296.0625,172254.0,0.0537109375,0.9892578125,-0.237060546875,-1.4343260526657104,-0.3967284858226776,-0.4272460639476776,100.0,114497.0,1.0
14:57:48.243880,176833.78125,184131.359375,198053.359375,175708.5,176254.0625,196135.40625,688131.8125,172255.78125,0.056884765625,0.990234375,-0.2412109375,-1.5563963651657104,-0.4882812201976776,-0.3356933295726776,100.0,114498.0,1.0
14:57:48.249532,176927.390625,184150.75,198077.5,175707.703125,176261.03125,196194.140625,688300.625,172259.359375,0.059326171875,0.993408203125,-0.24169921875,-1.7700194120407104,-0.5798339247703552,-0.3662109076976776,100.0,114499.0,1.0
14:57:48.256395,176904.234375,184155.3125,198074.90625,175708.328125,176263.453125,196207.46875,688439.9375,172256.671875,0.060546875,0.993408203125,-0.240966796875,-1.8615721464157104,-0.6713866591453552,-0.4577636420726776,100.0,114500.0,1.0
14:57:48.256406,176832.4375,184129.65625,198049.25,175704.203125,176249.140625,196142.46875,688335.4375,172250.421875,0.062255859375,0.991455078125,-0.2392578125,-1.9531248807907104,-0.7019042372703552,-0.2136230319738388,100.0,114501.0,1.0
14:57:48.263309,176823.578125,184136.8125,198052.296875,175709.3125,176251.46875,196133.796875,688150.1875,172253.453125,0.064208984375,0.990966796875,-0.24267578125,-2.105712652206421,-0.7019042372703552,-0.03051757626235485,100.0,114502.0,1.0
14:57:48.292859,176927.828125,184164.171875,198083.578125,175716.640625,176267.203125,196193.875,688258.375,172265.703125,0.0654296875,0.9921875,-0.2431640625,-2.197265386581421,-0.6103515028953552,0.0610351525247097,100.0,114503.0,1.0
14:57:48.292902,176929.984375,184174.453125,198091.265625,175719.5,176277.578125,196224.8125,688446.5625,172268.390625,0.065673828125,0.989013671875,-0.2421875,-2.258300542831421,-0.6408690810203552,0.2746581733226776,100.0,114504.0,1.0
14:57:48.318381,176858.09375,184145.75,198066.5,175715.75,176265.421875,196164.109375,688371.4375,172264.09375,0.061767578125,0.98828125,-0.241943359375,-2.532958745956421,-0.5798339247703552,0.3967284858226776,100.0,114505.0,1.0
14:57:48.320748,176828.6875,184144.9375,198061.953125,175717.984375,176264.609375,196139.609375,688174.5,172266.59375,0.0615234375,0.987060546875,-0.23974609375,-2.655029058456421,-0.5798339247703552,0.5798339247703552,100.0,114506.0,1.0
14:57:48.323290,176918.359375,184163.265625,198084.203125,175715.46875,176271.765625,196189.671875,688218.8125,172268.921875,0.06201171875,0.982421875,-0.238525390625,-2.746581792831421,-0.6103515028953552,0.7934569716453552,100.0,114507.0,1.0
14:57:48.325723,176934.1875,184167.921875,198087.0625,175709.84375,176273.28125,196221.953125,688431.25,172263.46875,0.061279296875,0.97998046875,-0.24072265625,-2.868652105331421,-0.5187987685203552,0.8239745497703552,100.0,114508.0,1.0
14:57:48.328271,176869.625,184155.5,198068.03125,175711.90625,176266.671875,196179.125,688407.5625,172263.46875,0.057861328125,0.98046875,-0.2412109375,-2.807616949081421,-0.5187987685203552,0.8239745497703552,100.0,114509.0,1.0
14:57:48.330806,176823.3125,184145.125,198055.328125,175712.796875,176260.046875,196140.59375,688216.6875,172261.421875,0.05810546875,0.97998046875,-0.239990234375,-2.868652105331421,-0.5493163466453552,0.8850097060203552,100.0,114510.0,1.0
14:57:48.333282,176889.5625,184147.0,198067.75,175707.703125,176256.390625,196167.5,688198.875,172258.90625,0.057861328125,0.981201171875,-0.23779296875,-2.960204839706421,-0.4577636420726776,0.8239745497703552,100.0,114511.0,1.0
14:57:48.335795,176940.53125,184163.90625,198089.578125,175715.828125,176271.3125,196220.515625,688433.875,172267.046875,0.059814453125,0.98095703125,-0.237060546875,-2.929687261581421,-0.5493163466453552,0.7934569716453552,100.0,114512.0,1.0
14:57:48.338246,176875.984375,184149.953125,198071.609375,175712.796875,176265.234375,196185.5625,688443.875,172264.71875,0.061767578125,0.98046875,-0.239990234375,-2.990722417831421,-0.5187987685203552,0.7019042372703552,100.0,114513.0,1.0
14:57:48.340736,176820.546875,184137.875,198055.421875,175714.5,176257.90625,196135.765625,688258.4375,172262.3125,0.064208984375,0.980712890625,-0.23681640625,-2.899169683456421,-0.5187987685203552,0.6103515028953552,100.0,114514.0,1.0
14:57:48.343282,176877.59375,184157.90625,198072.3125,175716.015625,176264.25,196171.609375,688172.3125,172265.625,0.064208984375,0.98095703125,-0.238037109375,-2.960204839706421,-0.5187987685203552,0.7019042372703552,100.0,114515.0,1.0
14:57:48.345770,176939.90625,184169.53125,198087.0625,175708.328125,176269.625,196221.953125,688391.625,172260.34375,0.065185546875,0.9794921875,-0.2392578125,-2.960204839706421,-0.4272460639476776,0.5493163466453552,100.0,114516.0,1.0
14:57:48.348276,176885.28125,184153.4375,198073.21875,175708.6875,176265.953125,196189.234375,688461.375,172258.5625,0.06689453125,0.97900390625,-0.238037109375,-2.960204839706421,-0.3967284858226776,0.4882812201976776,100.0,114517.0,1.0
14:57:48.350718,176818.84375,184131.09375,198048.71875,175703.859375,176251.03125,196131.03125,688291.625,172252.03125,0.066162109375,0.977294921875,-0.235107421875,-2.929687261581421,-0.3051757514476776,0.3662109076976776,100.0,114518.0,1.0
14:57:48.353233,176851.84375,184145.65625,198060.25,175707.703125,176256.296875,196151.859375,688154.75,172256.3125,0.06884765625,0.9775390625,-0.232177734375,-2.868652105331421,-0.2746581733226776,0.3356933295726776,100.0,114519.0,1.0
14:57:48.356935,176934.453125,184160.859375,198082.59375,175707.78125,176265.0625,196207.5625,688361.25,172260.96875,0.06982421875,0.976806640625,-0.234130859375,-2.899169683456421,-0.1525878757238388,0.3356933295726776,100.0,114520.0,1.0
14:57:48.356939,176897.609375,184154.59375,198078.75,175715.75,176269.703125,196204.609375,688471.25,172267.3125,0.070556640625,0.9765625,-0.23486328125,-2.807616949081421,-0.03051757626235485,0.2136230319738388,100.0,114521.0,1.0
14:57:48.356941,176836.375,184140.203125,198061.5,175721.828125,176263.265625,196145.5,688335.5625,172271.25,0.07080078125,0.976318359375,-0.23388671875,-2.685546636581421,0.1220703050494194,0.0915527269244194,100.0,114522.0,1.0
14:57:48.359555,176838.34375,184142.53125,198060.421875,175714.3125,176259.34375,196142.28125,688155.5,172264.28125,0.0703125,0.97412109375,-0.2353515625,-2.563476324081421,0.1831054538488388,0.0610351525247097,100.0,114523.0,1.0
14:57:48.362609,176928.28125,184158.890625,198081.53125,175710.640625,176265.5,196197.90625,688308.4375,172266.0625,0.070556640625,0.974853515625,-0.235107421875,-2.441406011581421,0.3051757514476776,0.0915527269244194,100.0,114524.0,1.0
14:57:48.362614,176913.53125,184166.671875,198085.28125,175718.609375,176277.40625,196218.015625,688467.8125,172273.3125,0.068603515625,0.973388671875,-0.237060546875,-2.441406011581421,0.3967284858226776,0.0610351525247097,100.0,114525.0,1.0
14:57:48.364595,176845.3125,184149.328125,198063.203125,175719.859375,176266.671875,196161.15625,688356.8125,172273.21875,0.0673828125,0.97314453125,-0.236572265625,-2.380370855331421,0.4882812201976776,0.0610351525247097,100.0,114526.0,1.0
14:57:48.367658,176829.9375,184152.640625,198061.765625,175722.09375,176265.78125,196150.609375,688160.8125,172274.46875,0.068359375,0.972412109375,-0.2353515625,-2.166747808456421,0.6408690810203552,0.0915527269244194,100.0,114527.0,1.0
14:57:48.367661,176916.65625,184153.890625,198076.515625,175711.90625,176263.265625,196190.21875,688250.0,172266.328125,0.066162109375,0.97216796875,-0.23974609375,-2.014159917831421,0.6408690810203552,0.2441406100988388,100.0,114528.0,1.0
14:57:48.369578,176921.484375,184165.234375,198082.875,175716.28125,176271.59375,196222.9375,688437.0,172267.3125,0.064208984375,0.97216796875,-0.2373046875,-1.8615721464157104,0.7019042372703552,0.2136230319738388,100.0,114529.0,1.0
14:57:48.371998,176854.875,184149.421875,198061.5,175715.390625,176262.109375,196170.359375,688373.9375,172265.890625,0.0625,0.97216796875,-0.2392578125,-1.6784666776657104,0.7934569716453552,0.1525878757238388,100.0,114530.0,1.0
14:57:48.385771,176818.671875,184144.5,198051.3125,175713.421875,176256.203125,196138.625,688176.1875,172263.5625,0.062255859375,0.974853515625,-0.2392578125,-1.4648436307907104,0.7324218153953552,0.1220703050494194,100.0,114531.0,1.0
14:57:48.388850,176902.265625,184161.9375,198072.3125,175709.671875,176261.65625,196185.5625,688204.25,172264.359375,0.059326171875,0.97216796875,-0.239501953125,-1.3122557401657104,0.7324218153953552,0.2441406100988388,100.0,114532.0,1.0
14:57:48.388860,176926.84375,184168.90625,198082.421875,175711.453125,176268.28125,196221.140625,688414.875,172263.921875,0.057373046875,0.973876953125,-0.23974609375,-1.0986326932907104,0.6713866591453552,0.2746581733226776,100.0,114533.0,1.0
14:57:48.391312,176861.21875,184146.546875,198062.03125,175713.59375,176259.0625,196170.984375,688388.25,172263.296875,0.056640625,0.9755859375,-0.23974609375,-0.9460448622703552,0.7019042372703552,0.1831054538488388,100.0,114534.0,1.0
14:57:48.391315,176818.484375,184142.078125,198052.109375,175718.34375,176253.96875,196132.359375,688199.0,172264.8125,0.056884765625,0.976318359375,-0.238525390625,-0.8239745497703552,0.4882812201976776,0.3356933295726776,100.0,114535.0,1.0
14:57:48.396997,176887.328125,184155.5,198066.6875,175717.4375,176256.828125,196171.171875,688165.8125,172267.5,0.056884765625,0.980712890625,-0.239990234375,-0.6103515028953552,0.4272460639476776,0.2441406100988388,100.0,114536.0,1.0
14:57:48.403830,176937.40625,184171.046875,198079.828125,175718.609375,176262.203125,196219.09375,688390.0625,172267.859375,0.057861328125,0.980224609375,-0.2392578125,-0.4882812201976776,0.3662109076976776,0.2746581733226776,100.0,114537.0,1.0
14:57:48.403843,176881.703125,184154.6875,198065.34375,175719.671875,176258.09375,196179.84375,688409.8125,172266.25,0.057861328125,0.981689453125,-0.241943359375,-0.4272460639476776,0.3662109076976776,0.2746581733226776,100.0,114538.0,1.0
14:57:48.429598,176824.921875,184140.390625,198048.171875,175719.765625,176250.125,196126.109375,688247.6875,172264.359375,0.05810546875,0.980712890625,-0.2431640625,-0.4577636420726776,0.2441406100988388,0.3662109076976776,100.0,114539.0,1.0
14:57:48.429611,176871.421875,184150.046875,198059.890625,175716.375,176251.46875,196150.25,688133.875,172262.75,0.05908203125,0.982421875,-0.2421875,-0.4577636420726776,0.2441406100988388,0.4577636420726776,100.0,114540.0,1.0
14:57:48.429614,176939.1875,184163.0,198077.5,175712.34375,176258.09375,196200.578125,688347.1875,172260.25,0.058837890625,0.98388671875,-0.2412109375,-0.3967284858226776,0.2441406100988388,0.3662109076976776,100.0,114541.0,1.0
14:57:48.432647,176892.96875,184160.765625,198070.625,175715.75,176261.75,196190.03125,688419.5625,172262.046875,0.05859375,0.985595703125,-0.241455078125,-0.3662109076976776,0.03051757626235485,0.3967284858226776,100.0,114542.0,1.0
14:57:48.432654,176829.9375,184148.875,198052.828125,175717.0,176253.703125,196134.25,688265.875,172261.421875,0.05859375,0.986328125,-0.23876953125,-0.3662109076976776,0.0,0.4272460639476776,100.0,114543.0,1.0
14:57:48.434556,176859.34375,184158.71875,198063.375,175720.65625,176259.25,196150.515625,688124.25,172267.046875,0.058837890625,0.986083984375,-0.240966796875,-0.4882812201976776,-0.1220703050494194,0.4577636420726776,100.0,114544.0,1.0
14:57:48.437062,176936.0625,184163.09375,198073.484375,175710.46875,176256.390625,196192.796875,688330.4375,172261.5,0.05810546875,0.985595703125,-0.240478515625,-0.5493163466453552,-0.1220703050494194,0.5493163466453552,100.0,114545.0,1.0
14:57:48.439564,176894.578125,184161.9375,198065.171875,175708.953125,176256.75,196193.4375,688434.75,172257.21875,0.057861328125,0.984375,-0.24169921875,-0.6103515028953552,-0.1525878757238388,0.4882812201976776,100.0,114546.0,1.0
14:57:48.442063,176831.90625,184152.28125,198049.515625,175715.921875,176254.0625,196144.4375,688309.5625,172263.203125,0.059814453125,0.982666015625,-0.240234375,-0.6103515028953552,-0.2441406100988388,0.5798339247703552,100.0,114547.0,1.0
14:57:48.448837,176832.171875,184148.4375,198050.6875,175717.703125,176253.609375,196138.890625,688129.3125,172264.8125,0.061279296875,0.983642578125,-0.239501953125,-0.7629393935203552,-0.2136230319738388,0.6103515028953552,100.0,114548.0,1.0
14:57:48.448967,176923.28125,184156.84375,198069.015625,175713.6875,176256.484375,196183.234375,688287.9375,172264.8125,0.0625,0.983154296875,-0.23876953125,-0.7629393935203552,-0.1831054538488388,0.7324218153953552,100.0,114549.0,1.0
14:57:48.458850,176911.5625,184172.03125,198076.34375,175721.90625,176269.4375,196209.796875,688443.4375,172270.890625,0.06396484375,0.9853515625,-0.240478515625,-0.7934569716453552,-0.1220703050494194,0.8544921278953552,100.0,114550.0,1.0
14:57:48.458858,176844.15625,184153.703125,198054.53125,175721.015625,176258.171875,196147.5625,688344.1875,172268.75,0.068359375,0.984375,-0.240966796875,-0.7934569716453552,-0.0915527269244194,0.8850097060203552,100.0,114551.0,1.0
14:57:48.461359,176826.171875,184154.59375,198051.75,175723.609375,176256.390625,196133.265625,688152.375,172268.5625,0.069091796875,0.983154296875,-0.23974609375,-0.9460448622703552,-0.0915527269244194,0.9460448622703552,100.0,114552.0,1.0
14:57:48.461382,176917.734375,184167.46875,198072.578125,175720.296875,176261.578125,196184.671875,688246.125,172271.515625,0.066650390625,0.981689453125,-0.241455078125,-1.1291502714157104,0.0,1.0070799589157104,100.0,114553.0,1.0
14:57:48.468324,176917.015625,184168.90625,198074.734375,175716.1875,176263.546875,196208.359375,688437.8125,172267.40625,0.06689453125,0.980224609375,-0.241455078125,-1.1291502714157104,0.03051757626235485,1.1291502714157104,100.0,114554.0,1.0
14:57:48.475087,176846.390625,184145.578125,198050.6875,175714.5,176252.09375,196153.546875,688375.9375,172265.625,0.06494140625,0.979248046875,-0.241943359375,-1.1596678495407104,0.1220703050494194,1.0375975370407104,100.0,114555.0,1.0
14:57:48.475094,176817.78125,184147.359375,198045.578125,175720.390625,176251.109375,196127.984375,688180.625,172269.28125,0.064453125,0.979248046875,-0.242431640625,-1.1596678495407104,0.1831054538488388,1.0070799589157104,100.0,114556.0,1.0
14:57:48.480819,176900.921875,184161.484375,198063.375,175712.96875,176252.640625,196171.34375,688210.4375,172265.4375,0.062744140625,0.98095703125,-0.239013671875,-1.2512205839157104,0.1831054538488388,0.8544921278953552,100.0,114557.0,1.0
14:57:48.491462,176935.34375,184175.171875,198077.40625,175716.375,176262.46875,196213.640625,688428.75,172266.515625,0.06298828125,0.9814453125,-0.240234375,-1.2207030057907104,0.03051757626235485,0.7324218153953552,100.0,114558.0,1.0
14:57:48.491475,176874.1875,184164.25,198063.375,175722.359375,176260.328125,196174.828125,688412.6875,172268.84375,0.060302734375,0.98291015625,-0.240966796875,-1.3427733182907104,0.0915527269244194,0.6103515028953552,100.0,114559.0,1.0
14:57:48.493363,176827.34375,184155.9375,198051.75,175724.234375,176255.046875,196133.96875,688228.6875,172267.765625,0.059326171875,0.980712890625,-0.240966796875,-1.4648436307907104,0.0,0.4577636420726776,100.0,114560.0,1.0
14:57:48.495833,176893.765625,184166.21875,198068.921875,175723.171875,176259.34375,196167.328125,688174.75,172270.796875,0.058837890625,0.9794921875,-0.2431640625,-1.5563963651657104,0.0,0.3967284858226776,100.0,114561.0,1.0
14:57:48.507057,176945.171875,184182.9375,198084.828125,175722.625,176266.40625,196216.046875,688396.3125,172272.234375,0.061279296875,0.978759765625,-0.24365234375,-1.5869139432907104,0.0610351525247097,0.2136230319738388,100.0,114562.0,1.0
14:57:48.510170,176879.546875,184167.5625,198063.109375,175718.6875,176255.84375,196181.8125,688430.8125,172267.671875,0.062744140625,0.977294921875,-0.240478515625,-1.5869139432907104,0.0610351525247097,0.0915527269244194,100.0,114563.0,1.0
14:57:48.510176,176815.890625,184143.25,198039.421875,175717.171875,176239.84375,196118.0625,688254.125,172261.234375,0.064208984375,0.978759765625,-0.24169921875,-1.6479490995407104,0.0,0.1525878757238388,100.0,114564.0,1.0
14:57:48.512015,176859.171875,184144.40625,198049.703125,175710.921875,176239.40625,196139.609375,688146.5625,172258.375,0.0654296875,0.979736328125,-0.24169921875,-1.6479490995407104,0.03051757626235485,0.1525878757238388,100.0,114565.0,1.0
14:57:48.525147,176934.8125,184163.71875,198072.765625,175711.71875,176248.15625,196195.390625,688360.6875,172259.71875,0.065185546875,0.98046875,-0.241455078125,-1.6784666776657104,0.1220703050494194,0.2441406100988388,100.0,114566.0,1.0
14:57:48.525159,176887.875,184162.015625,198064.71875,175714.21875,176247.453125,196186.640625,688444.5,172256.5,0.06640625,0.98095703125,-0.2431640625,-1.6479490995407104,0.1525878757238388,0.2136230319738388,100.0,114567.0,1.0
14:57:48.527611,176826.53125,184149.5,198048.453125,175717.0,176241.09375,196131.921875,688285.875,172256.234375,0.066650390625,0.98095703125,-0.2392578125,-1.6174315214157104,0.1525878757238388,0.2441406100988388,100.0,114568.0,1.0
14:57:48.527626,176851.390625,184157.734375,198058.640625,175720.484375,176247.453125,196145.421875,688134.5,172261.328125,0.065673828125,0.98193359375,-0.241943359375,-1.7089842557907104,0.3051757514476776,0.1525878757238388,100.0,114569.0,1.0
14:57:48.529515,176935.875,184169.359375,198077.328125,175716.28125,176254.78125,196199.328125,688319.5,172263.109375,0.064453125,0.981689453125,-0.243408203125,-1.6784666776657104,0.3967284858226776,0.3051757514476776,100.0,114570.0,1.0
14:57:48.544530,176900.203125,184166.140625,198070.34375,175715.828125,176256.5625,196199.234375,688445.0,172263.203125,0.063720703125,0.981201171875,-0.2431640625,-1.7395018339157104,0.4272460639476776,0.3967284858226776,100.0,114571.0,1.0
14:57:48.547637,176826.453125,184141.640625,198041.65625,175709.75,176239.125,196132.71875,688315.5625,172257.484375,0.0615234375,0.98046875,-0.242919921875,-1.7395018339157104,0.3967284858226776,0.5187987685203552,100.0,114572.0,1.0
14:57:48.547651,176827.25,184149.5,198045.671875,175710.734375,176240.296875,196131.5625,688132.8125,172259.265625,0.06201171875,0.97998046875,-0.2431640625,-1.6784666776657104,0.3967284858226776,0.5187987685203552,100.0,114573.0,1.0
14:57:48.549613,176922.921875,184168.1875,198072.234375,175710.734375,176249.5,196189.859375,688296.0,172264.71875,0.060546875,0.981689453125,-0.2421875,-1.7089842557907104,0.3967284858226776,0.4882812201976776,100.0,114574.0,1.0
14:57:48.552019,176904.328125,184166.046875,198069.1875,175709.125,176251.65625,196203.359375,688454.6875,172260.4375,0.06201171875,0.982666015625,-0.241455078125,-1.8615721464157104,0.3051757514476776,0.5798339247703552,100.0,114575.0,1.0
14:57:48.559490,176833.515625,184142.078125,198045.234375,175707.78125,176240.390625,196139.0625,688360.625,172258.28125,0.0615234375,0.98193359375,-0.241455078125,-1.9226073026657104,0.2136230319738388,0.4577636420726776,100.0,114576.0,1.0
14:57:48.566336,176816.796875,184146.28125,198047.546875,175713.421875,176243.421875,196125.65625,688167.5,172262.484375,0.0595703125,0.98095703125,-0.238525390625,-1.8920897245407104,0.3051757514476776,0.4272460639476776,100.0,114577.0,1.0
14:57:48.566344,176915.5,184165.328125,198075.09375,175715.921875,176254.15625,196179.578125,688250.75,172271.25,0.05859375,0.981689453125,-0.239501953125,-1.9226073026657104,0.2136230319738388,0.5187987685203552,100.0,114578.0,1.0
14:57:48.576365,176930.0625,184177.125,198087.515625,175724.140625,176267.03125,196214.0,688452.1875,172277.0625,0.058349609375,0.98046875,-0.2392578125,-1.8615721464157104,0.0915527269244194,0.5187987685203552,100.0,114579.0,1.0
14:57:48.576375,176863.734375,184157.640625,198066.78125,175727.453125,176258.359375,196159.984375,688394.25,172274.828125,0.0595703125,0.9814453125,-0.2431640625,-1.8920897245407104,0.0915527269244194,0.5493163466453552,100.0,114580.0,1.0
14:57:48.578880,176823.234375,184152.09375,198053.71875,175723.875,176250.671875,196127.0,688183.75,172267.40625,0.05908203125,0.982177734375,-0.240966796875,-1.9531248807907104,0.0,0.4577636420726776,100.0,114581.0,1.0
14:57:48.578886,176908.078125,184170.6875,198076.703125,175722.1875,176258.0,196175.09375,688203.4375,172269.90625,0.058349609375,0.9833984375,-0.24072265625,-1.9836424589157104,0.0,0.4272460639476776,100.0,114582.0,1.0
14:57:48.588237,176941.515625,184183.21875,198088.5,175722.625,176266.140625,196217.84375,688422.6875,172270.625,0.060302734375,0.98291015625,-0.240234375,-1.9531248807907104,-0.03051757626235485,0.3662109076976776,100.0,114583.0,1.0
14:57:48.598917,176876.78125,184164.96875,198070.96875,175724.59375,176259.96875,196177.78125,688414.8125,172270.171875,0.059326171875,0.980224609375,-0.239013671875,-1.9836424589157104,-0.0610351525247097,0.2746581733226776,100.0,114584.0,1.0
14:57:48.598988,176826.453125,184152.984375,198057.5625,175723.875,176251.921875,196131.296875,688219.75,172269.46875,0.061279296875,0.9814453125,-0.238037109375,-1.9531248807907104,-0.0610351525247097,0.1831054538488388,100.0,114585.0,1.0
14:57:48.600816,176890.375,184167.03125,198073.21875,175722.53125,176253.265625,196162.765625,688162.875,172273.125,0.0615234375,0.9833984375,-0.23974609375,-2.014159917831421,-0.1831054538488388,0.2136230319738388,100.0,114586.0,1.0
14:57:48.608990,176950.546875,184187.140625,198095.828125,175728.0,176267.03125,196220.25,688394.9375,172282.609375,0.0634765625,0.982421875,-0.239501953125,-2.044677495956421,-0.1831054538488388,0.2746581733226776,100.0,114587.0,1.0
14:57:48.609009,176885.546875,184163.09375,198075.71875,175723.4375,176258.625,196183.421875,688433.125,172276.25,0.06396484375,0.980224609375,-0.239501953125,-2.075195074081421,-0.1525878757238388,0.1831054538488388,100.0,114588.0,1.0
14:57:48.615214,176825.109375,184144.40625,198054.609375,175721.015625,176246.015625,196127.265625,688257.75,172272.765625,0.064697265625,0.980224609375,-0.23681640625,-2.166747808456421,-0.1525878757238388,0.2441406100988388,100.0,114589.0,1.0
14:57:48.615283,176865.25,184151.109375,198063.109375,175720.125,176246.734375,196144.25,688146.125,172273.578125,0.064697265625,0.980224609375,-0.23876953125,-2.105712652206421,-0.1220703050494194,0.2136230319738388,100.0,114590.0,1.0
14:57:48.617646,176940.171875,184173.375,198082.421875,175718.609375,176255.046875,196200.84375,688366.8125,172272.40625,0.064208984375,0.981689453125,-0.2373046875,-2.044677495956421,-0.1220703050494194,0.1525878757238388,100.0,114591.0,1.0
14:57:48.617679,176894.75,184170.609375,198075.171875,175724.421875,176258.0,196193.875,688447.25,172274.015625,0.065673828125,0.9794921875,-0.23828125,-1.9226073026657104,-0.1525878757238388,0.1220703050494194,100.0,114592.0,1.0
14:57:48.633245,176824.296875,184140.46875,198047.015625,175717.078125,176241.640625,196124.40625,688306.375,172266.0625,0.064208984375,0.980224609375,-0.23779296875,-1.9531248807907104,-0.1525878757238388,0.1831054538488388,100.0,114593.0,1.0
14:57:48.658967,176845.671875,184153.171875,198057.75,175719.046875,176247.625,196138.625,688142.5,172268.84375,0.0634765625,0.98193359375,-0.237548828125,-1.9226073026657104,-0.1220703050494194,0.2441406100988388,100.0,114594.0,1.0
14:57:48.659043,176934.09375,184169.359375,198081.265625,175716.8125,176257.109375,196195.21875,688322.875,172271.15625,0.062744140625,0.98193359375,-0.234375,-1.9531248807907104,-0.03051757626235485,0.2746581733226776,100.0,114595.0,1.0
14:57:48.680833,176903.875,184175.4375,198080.625,175717.890625,176262.828125,196204.25,688454.0625,172272.59375,0.063232421875,0.98046875,-0.23583984375,-1.8310545682907104,-0.1220703050494194,0.2441406100988388,100.0,114596.0,1.0
14:57:48.683431,176831.984375,184151.828125,198054.25,175710.5625,176249.5,196138.984375,688327.75,172264.71875,0.06396484375,0.981201171875,-0.23779296875,-1.8920897245407104,-0.1525878757238388,0.0915527269244194,100.0,114597.0,1.0
14:57:48.714547,176830.734375,184154.328125,198058.1875,175712.703125,176253.171875,196133.890625,688144.875,172267.234375,0.063232421875,0.9814453125,-0.239501953125,-1.9531248807907104,-0.03051757626235485,0.0915527269244194,100.0,114598.0,1.0
14:57:48.717000,176926.21875,184167.5625,198082.0625,175709.84375,176259.25,196185.5625,688274.0625,172269.1875,0.062744140625,0.9814453125,-0.237060546875,-1.9531248807907104,-0.03051757626235485,0.2441406100988388,100.0,114599.0,1.0
14:57:48.719494,176922.828125,184180.796875,198091.71875,175717.171875,176271.765625,196215.328125,688453.0625,172275.09375,0.0615234375,0.98046875,-0.23828125,-1.9226073026657104,-0.03051757626235485,0.1831054538488388,100.0,114600.0,1.0
14:57:48.722162,176859.34375,184166.3125,198073.65625,175721.734375,176264.34375,196163.5625,688371.25,172277.234375,0.060546875,0.98046875,-0.236328125,-1.8920897245407104,0.03051757626235485,0.3051757514476776,100.0,114601.0,1.0
14:57:48.724640,176835.75,184164.171875,198069.015625,175725.125,176259.703125,196142.28125,688173.875,172276.53125,0.059326171875,0.979736328125,-0.238525390625,-1.9226073026657104,-0.0915527269244194,0.3051757514476776,100.0,114602.0,1.0
14:57:48.727077,176925.515625,184176.859375,198089.84375,175722.265625,176263.09375,196188.78125,688247.1875,172278.5,0.059326171875,0.97900390625,-0.238525390625,-1.8310545682907104,-0.0915527269244194,0.3356933295726776,100.0,114603.0,1.0
14:57:48.729655,176928.90625,184183.390625,198089.3125,175711.8125,176263.359375,196217.21875,688437.3125,172269.546875,0.058349609375,0.97998046875,-0.236328125,-1.8005369901657104,-0.0915527269244194,0.3662109076976776,100.0,114604.0,1.0
14:57:48.732111,176863.015625,184167.5625,198069.640625,175714.578125,176256.75,196168.125,688396.5,172271.515625,0.060791015625,0.97802734375,-0.237060546875,-1.7089842557907104,-0.1220703050494194,0.3662109076976776,100.0,114605.0,1.0
14:57:48.734660,176818.21875,184150.75,198054.890625,175713.15625,176248.4375,196125.84375,688207.75,172270.359375,0.06005859375,0.97900390625,-0.236328125,-1.6784666776657104,-0.1220703050494194,0.3051757514476776,100.0,114606.0,1.0
14:57:48.737049,176891.53125,184162.46875,198070.34375,175706.53125,176249.6875,196168.21875,688205.0625,172266.78125,0.060791015625,0.980712890625,-0.236083984375,-1.6784666776657104,-0.1525878757238388,0.3967284858226776,100.0,114607.0,1.0
14:57:48.739656,176929.09375,184176.421875,198084.5625,175709.578125,176258.71875,196211.40625,688427.3125,172266.59375,0.059814453125,0.98193359375,-0.23828125,-1.5563963651657104,-0.2441406100988388,0.3356933295726776,100.0,114608.0,1.0
14:57:48.742113,176871.59375,184166.21875,198073.03125,175717.890625,176258.53125,196175.8125,688425.4375,172271.078125,0.060546875,0.980712890625,-0.237060546875,-1.4953612089157104,-0.2441406100988388,0.3662109076976776,100.0,114609.0,1.0
14:57:48.744604,176826.53125,184156.65625,198062.9375,175723.25,176254.25,196130.21875,688238.0625,172273.03125,0.05908203125,0.98095703125,-0.23779296875,-1.5258787870407104,-0.3662109076976776,0.3967284858226776,100.0,114610.0,1.0
14:57:48.747156,176886.265625,184164.34375,198074.828125,175720.75,176253.171875,196155.703125,688161.3125,172273.21875,0.05859375,0.97998046875,-0.236328125,-1.5869139432907104,-0.3967284858226776,0.4272460639476776,100.0,114611.0,1.0
14:57:48.749578,176942.40625,184171.953125,198088.59375,175719.671875,176257.453125,196199.515625,688383.0625,172274.921875,0.05810546875,0.98046875,-0.235107421875,-1.4953612089157104,-0.3051757514476776,0.3356933295726776,100.0,114612.0,1.0
14:57:48.752074,176895.203125,184174.1875,198084.296875,175732.46875,176263.890625,196187.171875,688440.3125,172285.734375,0.059326171875,0.980224609375,-0.2373046875,-1.4953612089157104,-0.2441406100988388,0.4272460639476776,100.0,114613.0,1.0
14:57:48.754755,176829.390625,184150.125,198058.90625,175728.265625,176249.328125,196125.125,688265.6875,172279.03125,0.060302734375,0.98291015625,-0.23681640625,-1.4953612089157104,-0.2136230319738388,0.4882812201976776,100.0,114614.0,1.0
14:57:48.757007,176868.5625,184162.375,198072.046875,175729.0625,176254.953125,196150.6875,688142.1875,172282.34375,0.0625,0.9814453125,-0.237548828125,-1.3427733182907104,-0.3051757514476776,0.4272460639476776,100.0,114615.0,1.0
14:57:48.759739,176944.46875,184171.5,198085.734375,175720.65625,176257.28125,196200.765625,688352.75,172277.6875,0.060546875,0.979736328125,-0.236083984375,-1.3427733182907104,-0.2746581733226776,0.4577636420726776,100.0,114616.0,1.0
14:57:48.762099,176908.171875,184171.953125,198081.34375,175723.25,176262.640625,196199.421875,688445.125,172279.03125,0.060791015625,0.9794921875,-0.235595703125,-1.3427733182907104,-0.2441406100988388,0.5493163466453552,100.0,114617.0,1.0
14:57:48.765819,176848.4375,184155.3125,198064.265625,175724.59375,176254.6875,196140.671875,688297.9375,172279.03125,0.061279296875,0.98095703125,-0.238037109375,-1.3122557401657104,-0.2441406100988388,0.5798339247703552,100.0,114618.0,1.0
14:57:48.765869,176865.15625,184163.265625,198071.25,175727.28125,176255.84375,196148.546875,688129.6875,172279.125,0.060546875,0.980224609375,-0.237548828125,-1.3427733182907104,-0.2136230319738388,0.4577636420726776,100.0,114619.0,1.0
14:57:48.765883,176953.3125,184174.625,198091.0,175723.078125,176260.234375,196201.828125,688320.75,172278.671875,0.0595703125,0.9794921875,-0.239501953125,-1.3427733182907104,-0.1525878757238388,0.4272460639476776,100.0,114620.0,1.0
14:57:48.770083,176930.0625,184186.515625,198090.640625,175722.8125,176266.765625,196216.859375,688453.25,172280.90625,0.0625,0.980712890625,-0.238037109375,-1.2817381620407104,-0.2136230319738388,0.5187987685203552,100.0,114621.0,1.0
14:57:48.770104,176861.671875,184160.59375,198064.546875,175722.0,176252.28125,196152.296875,688325.0625,172279.921875,0.06201171875,0.980224609375,-0.240234375,-1.2512205839157104,-0.1831054538488388,0.6103515028953552,100.0,114622.0,1.0
14:57:48.770106,176851.75,184160.046875,198062.9375,175723.34375,176250.046875,196145.859375,688136.3125,172280.8125,0.061767578125,0.980712890625,-0.237060546875,-1.3122557401657104,-0.1220703050494194,0.6408690810203552,100.0,114623.0,1.0
14:57:48.770108,176943.125,184171.5,198081.078125,175715.296875,176252.546875,196189.671875,688274.0625,172278.671875,0.062744140625,0.9814453125,-0.237548828125,-1.2817381620407104,-0.0610351525247097,0.5798339247703552,100.0,114624.0,1.0
14:57:48.772624,176934.359375,184177.046875,198083.765625,175715.75,176257.734375,196211.125,688452.875,172276.609375,0.0634765625,0.98193359375,-0.2373046875,-1.3122557401657104,-0.0610351525247097,0.5493163466453552,100.0,114625.0,1.0
14:57:48.772632,176866.328125,184160.234375,198063.5625,175718.15625,176249.6875,196157.84375,688371.5625,172275.546875,0.062744140625,0.981689453125,-0.240478515625,-1.3122557401657104,-0.03051757626235485,0.5798339247703552,100.0,114626.0,1.0
14:57:48.774612,176843.875,184161.75,198063.203125,175723.25,176251.109375,196139.96875,688174.0625,172276.890625,0.065185546875,0.9814453125,-0.23974609375,-1.2512205839157104,-0.03051757626235485,0.6103515028953552,100.0,114627.0,1.0
14:57:48.777683,176936.78125,184176.0625,198089.03125,175722.890625,176261.84375,196189.40625,688242.5,172283.40625,0.063232421875,0.981689453125,-0.237060546875,-1.2512205839157104,0.0,0.5187987685203552,100.0,114628.0,1.0
14:57:48.777690,176954.203125,184186.15625,198100.125,175726.203125,176272.84375,196226.421875,688448.4375,172287.171875,0.063720703125,0.982666015625,-0.23876953125,-1.2512205839157104,0.03051757626235485,0.5493163466453552,100.0,114629.0,1.0
14:57:48.779472,176885.71875,184169.265625,198078.84375,175726.828125,176263.546875,196176.265625,688401.1875,172284.9375,0.062744140625,0.9814453125,-0.23828125,-1.2817381620407104,0.0610351525247097,0.6103515028953552,100.0,114630.0,1.0
14:57:48.781980,176842.984375,184160.859375,198068.5625,175728.0,176257.28125,196137.375,688204.0625,172285.5625,0.061279296875,0.979248046875,-0.240478515625,-1.2512205839157104,-0.0610351525247097,0.5187987685203552,100.0,114631.0,1.0
14:57:48.784525,176914.875,184172.21875,198084.65625,175724.0625,176257.453125,196171.96875,688188.9375,172286.1875,0.062255859375,0.98193359375,-0.239501953125,-1.2512205839157104,0.0,0.5798339247703552,100.0,114632.0,1.0
14:57:48.787732,176947.953125,184177.9375,198091.09375,175717.265625,176258.265625,196209.25,688407.375,172280.28125,0.06298828125,0.983642578125,-0.238037109375,-1.2512205839157104,0.1525878757238388,0.5798339247703552,100.0,114633.0,1.0
14:57:48.788199,176889.03125,184168.015625,198076.875,175721.640625,176254.421875,196174.203125,688418.5,172280.8125,0.062744140625,0.981689453125,-0.23876953125,-1.2817381620407104,0.0915527269244194,0.5493163466453552,100.0,114634.0,1.0
14:57:48.794513,176834.765625,184147.625,198059.265625,175720.75,176243.78125,196117.34375,688228.75,172274.5625,0.06396484375,0.981201171875,-0.241943359375,-1.2817381620407104,0.2136230319738388,0.5493163466453552,100.0,114635.0,1.0
14:57:48.803833,176889.203125,184157.015625,198071.875,175710.921875,176242.0,196143.984375,688156.0625,172268.5625,0.06396484375,0.980712890625,-0.240478515625,-1.3427733182907104,0.2441406100988388,0.6713866591453552,100.0,114636.0,1.0
14:57:48.803842,176952.0625,184173.28125,198089.9375,175709.125,176248.4375,196195.21875,688392.875,172268.390625,0.0615234375,0.981201171875,-0.23974609375,-1.2512205839157104,0.1525878757238388,0.6408690810203552,100.0,114637.0,1.0
14:57:48.806488,176897.34375,184168.375,198075.71875,175710.921875,176244.234375,196177.34375,688445.3125,172264.8125,0.061767578125,0.980712890625,-0.238525390625,-1.2512205839157104,0.1525878757238388,0.6713866591453552,100.0,114638.0,1.0
14:57:48.806495,176836.109375,184153.890625,198053.984375,175710.921875,176233.5,196123.515625,688273.5625,172262.578125,0.062255859375,0.982666015625,-0.23681640625,-1.3732908964157104,0.1831054538488388,0.6408690810203552,100.0,114639.0,1.0
14:57:48.813215,176874.015625,184170.421875,198067.9375,175710.828125,176240.734375,196148.71875,688141.125,172269.90625,0.06298828125,0.98046875,-0.24072265625,-1.3122557401657104,0.2136230319738388,0.6103515028953552,100.0,114640.0,1.0
14:57:48.819550,176947.234375,184180.4375,198084.125,175702.59375,176245.390625,196202.1875,688346.875,172267.40625,0.062255859375,0.978759765625,-0.239013671875,-1.1901854276657104,0.1831054538488388,0.6103515028953552,100.0,114641.0,1.0
14:57:48.823879,176903.96875,184170.515625,198076.609375,175705.375,176249.6875,196196.015625,688447.4375,172268.84375,0.0634765625,0.981689453125,-0.2392578125,-1.2207030057907104,0.2441406100988388,0.5187987685203552,100.0,114642.0,1.0
14:57:48.823884,176846.03125,184158.53125,198064.0,175714.3125,176250.578125,196145.234375,688308.5625,172276.96875,0.063232421875,0.98046875,-0.238525390625,-1.3122557401657104,0.2136230319738388,0.5493163466453552,100.0,114643.0,1.0
14:57:48.835752,176854.609375,184161.3125,198067.046875,175711.359375,176249.859375,196148.28125,688135.125,172275.28125,0.0634765625,0.97998046875,-0.23876953125,-1.2817381620407104,0.2746581733226776,0.6103515028953552,100.0,114644.0,1.0
14:57:48.840722,176942.9375,184177.84375,198086.4375,175706.0,176255.5,196204.421875,688315.5625,172274.015625,0.062744140625,0.98095703125,-0.242431640625,-1.3427733182907104,0.2136230319738388,0.5798339247703552,100.0,114645.0,1.0
14:57:48.840733,176918.09375,184175.34375,198084.65625,175710.015625,176260.328125,196213.375,688453.9375,172275.71875,0.0625,0.9814453125,-0.239013671875,-1.3122557401657104,0.1831054538488388,0.6408690810203552,100.0,114646.0,1.0
14:57:48.840734,176856.3125,184156.125,198068.03125,175718.515625,176253.890625,196153.015625,688341.0625,172281.53125,0.063720703125,0.981201171875,-0.239013671875,-1.2512205839157104,0.3051757514476776,0.5187987685203552,100.0,114647.0,1.0
14:57:48.844521,176856.578125,184170.6875,198079.46875,175731.84375,176263.546875,196153.015625,688149.375,172292.265625,0.062255859375,0.979248046875,-0.238037109375,-1.2207030057907104,0.2441406100988388,0.5798339247703552,100.0,114648.0,1.0
14:57:48.850863,176955.015625,184190.90625,198105.84375,175732.640625,176272.921875,196209.34375,688259.5,172298.78125,0.0615234375,0.98095703125,-0.239501953125,-1.2512205839157104,0.1525878757238388,0.5798339247703552,100.0,114649.0,1.0
14:57:48.857593,176953.5,184201.453125,198114.34375,175739.34375,176283.84375,196237.5,688449.5,172304.328125,0.060546875,0.98193359375,-0.238525390625,-1.2207030057907104,0.2136230319738388,0.5493163466453552,100.0,114650.0,1.0
14:57:48.857599,176880.453125,184178.734375,198089.125,175737.46875,176269.265625,196176.359375,688364.625,172300.125,0.061279296875,0.9814453125,-0.240234375,-1.2512205839157104,0.2136230319738388,0.5187987685203552,100.0,114651.0,1.0
14:57:48.867666,176847.8125,184171.765625,198080.09375,175734.15625,176262.5625,196149.171875,688159.75,172296.828125,0.06298828125,0.982177734375,-0.239013671875,-1.3122557401657104,0.2441406100988388,0.4577636420726776,100.0,114652.0,1.0
14:57:48.867678,176931.40625,184179.1875,198096.1875,175727.453125,176263.359375,196192.53125,688214.6875,172296.015625,0.063720703125,0.981689453125,-0.23828125,-1.3427733182907104,0.2746581733226776,0.4882812201976776,100.0,114653.0,1.0
14:57:48.870091,176948.3125,184189.203125,198101.640625,175727.015625,176267.46875,196224.984375,688426.6875,172294.765625,0.061767578125,0.980712890625,-0.23828125,-1.4038084745407104,0.3356933295726776,0.5798339247703552,100.0,114654.0,1.0
14:57:48.870098,176878.125,184167.75,198076.078125,175724.78125,176253.890625,196170.09375,688389.0,172289.84375,0.06298828125,0.981689453125,-0.239990234375,-1.4343260526657104,0.2746581733226776,0.4882812201976776,100.0,114655.0,1.0
14:57:48.879677,176840.84375,184165.953125,198068.65625,175727.546875,176251.65625,196136.484375,688188.875,172289.3125,0.062255859375,0.981201171875,-0.238037109375,-1.3732908964157104,0.2746581733226776,0.4272460639476776,100.0,114656.0,1.0
14:57:48.886359,176914.875,184172.921875,198086.0,175722.359375,176254.15625,196170.0,688164.0,172286.1875,0.061767578125,0.98046875,-0.239013671875,-1.3122557401657104,0.2746581733226776,0.4577636420726776,100.0,114657.0,1.0
14:57:48.886368,176963.15625,184188.3125,198104.328125,175726.5625,176266.140625,196219.171875,688387.5625,172289.84375,0.0625,0.979248046875,-0.239013671875,-1.2817381620407104,0.2441406100988388,0.4882812201976776,100.0,114658.0,1.0
14:57:48.893877,176906.109375,184180.625,198093.15625,175730.671875,176266.578125,196188.25,688409.625,172292.53125,0.061767578125,0.978271484375,-0.2421875,-1.4038084745407104,0.1831054538488388,0.3967284858226776,100.0,114659.0,1.0
14:57:48.893886,176850.046875,184165.953125,198075.71875,175729.25,176256.390625,196136.921875,688230.625,172287.96875,0.0625,0.9794921875,-0.24365234375,-1.3732908964157104,0.2441406100988388,0.4577636420726776,100.0,114660.0,1.0
14:57:48.903882,176899.21875,184174.71875,198085.375,175722.265625,176255.40625,196165.890625,688140.75,172285.46875,0.0615234375,0.98046875,-0.2412109375,-1.4038084745407104,0.2136230319738388,0.4272460639476776,100.0,114661.0,1.0
14:57:48.903896,176954.390625,184179.71875,198091.359375,175712.703125,176253.609375,196205.671875,688365.375,172277.6875,0.062255859375,0.980224609375,-0.2412109375,-1.3732908964157104,0.0915527269244194,0.4882812201976776,100.0,114662.0,1.0
14:57:48.905853,176903.96875,184174.71875,198081.4375,175716.90625,176253.171875,196190.390625,688433.5625,172280.90625,0.060791015625,0.981201171875,-0.2412109375,-1.3427733182907104,0.0610351525247097,0.4577636420726776,100.0,114663.0,1.0
14:57:48.912707,176831.90625,184147.890625,198051.125,175708.0625,176232.25,196123.328125,688267.3125,172270.453125,0.0595703125,0.9833984375,-0.2392578125,-1.4343260526657104,0.0610351525247097,0.4272460639476776,100.0,114664.0,1.0
14:57:48.912713,176868.109375,184163.71875,198063.5625,175713.953125,176237.078125,196145.421875,688127.625,172275.90625,0.059814453125,0.982177734375,-0.237060546875,-1.4953612089157104,-0.03051757626235485,0.4882812201976776,100.0,114665.0,1.0
14:57:48.922659,176948.21875,184180.53125,198080.625,175705.109375,176243.0625,196199.0625,688340.25,172273.21875,0.06103515625,0.983154296875,-0.23779296875,-1.4953612089157104,-0.03051757626235485,0.3662109076976776,100.0,114666.0,1.0
14:57:48.922672,176902.71875,184173.46875,198071.25,175703.765625,176244.5,196193.25,688445.1875,172272.953125,0.06103515625,0.981689453125,-0.238037109375,-1.4343260526657104,-0.0610351525247097,0.4272460639476776,100.0,114667.0,1.0
14:57:48.928931,176840.03125,184155.40625,198051.9375,175708.140625,176237.078125,196136.125,688321.4375,172275.0,0.061279296875,0.98291015625,-0.2392578125,-1.4038084745407104,-0.0610351525247097,0.5187987685203552,100.0,114668.0,1.0
14:57:48.928952,176858.1875,184167.921875,198066.5,175718.96875,176247.453125,196147.5625,688159.0,172285.375,0.06005859375,0.982666015625,-0.241455078125,-1.4343260526657104,-0.03051757626235485,0.4272460639476776,100.0,114669.0,1.0
14:57:48.938837,176952.421875,184178.921875,198092.25,175721.734375,176257.453125,196205.234375,688335.75,172291.90625,0.061279296875,0.98291015625,-0.24169921875,-1.4648436307907104,-0.0915527269244194,0.4577636420726776,100.0,114670.0,1.0
14:57:48.938851,176934.890625,184188.03125,198097.53125,175728.34375,176269.171875,196224.453125,688492.75,172296.828125,0.059814453125,0.98193359375,-0.240966796875,-1.3732908964157104,-0.0915527269244194,0.5493163466453552,100.0,114671.0,1.0
14:57:48.941465,176872.671875,184176.234375,198080.8125,175729.6875,176263.890625,196171.25,688377.625,172297.625,0.060791015625,0.98291015625,-0.240234375,-1.4953612089157104,-0.03051757626235485,0.5187987685203552,100.0,114672.0,1.0
14:57:48.941515,176852.28125,184167.75,198072.578125,175725.484375,176255.046875,196147.109375,688169.1875,172291.640625,0.061279296875,0.982666015625,-0.239501953125,-1.4648436307907104,-0.03051757626235485,0.4882812201976776,100.0,114673.0,1.0
14:57:48.952050,176932.484375,184166.21875,198083.671875,175715.03125,176252.1875,196185.46875,688261.125,172285.640625,0.06005859375,0.980712890625,-0.236083984375,-1.4953612089157104,-0.1525878757238388,0.5493163466453552,100.0,114674.0,1.0
14:57:48.956439,176926.5,184170.0625,198083.5,175712.703125,176253.796875,196208.8125,688438.0625,172281.53125,0.06103515625,0.98046875,-0.240234375,-1.4343260526657104,-0.1525878757238388,0.5493163466453552,100.0,114675.0,1.0
14:57:48.956451,176853.71875,184144.765625,198055.328125,175709.390625,176236.265625,196146.3125,688362.0625,172273.84375,0.061279296875,0.978515625,-0.23876953125,-1.4038084745407104,-0.1525878757238388,0.4882812201976776,100.0,114676.0,1.0
14:57:48.965841,176829.390625,184148.25,198053.71875,175714.84375,176237.875,196122.53125,688169.375,172279.03125,0.062255859375,0.9814453125,-0.237548828125,-1.4343260526657104,-0.1525878757238388,0.5493163466453552,100.0,114677.0,1.0
14:57:48.968870,176922.46875,184170.15625,198083.21875,175720.21875,176251.46875,196175.375,688205.875,172287.796875,0.063720703125,0.981689453125,-0.239501953125,-1.4648436307907104,-0.1525878757238388,0.6408690810203552,100.0,114678.0,1.0
14:57:48.968880,176949.03125,184179.1875,198096.640625,175725.671875,176262.28125,196212.46875,688420.5,172291.1875,0.06103515625,0.982177734375,-0.238525390625,-1.3732908964157104,-0.1525878757238388,0.6408690810203552,100.0,114679.0,1.0
14:57:48.980836,176885.71875,184159.078125,198076.515625,175726.03125,176254.515625,196165.53125,688398.1875,172290.296875,0.062744140625,0.984130859375,-0.239501953125,-1.4038084745407104,-0.03051757626235485,0.7324218153953552,100.0,114680.0,1.0
14:57:48.988246,176846.296875,184157.109375,198067.21875,175730.140625,176249.234375,196127.984375,688211.4375,172290.5625,0.062255859375,0.98193359375,-0.2392578125,-1.4953612089157104,-0.1525878757238388,0.6408690810203552,100.0,114681.0,1.0
14:57:48.988264,176918.890625,184171.765625,198086.796875,175729.78125,176253.609375,196166.15625,688174.8125,172292.703125,0.0625,0.983642578125,-0.237548828125,-1.4038084745407104,-0.0915527269244194,0.5187987685203552,100.0,114682.0,1.0
14:57:48.988266,176964.21875,184178.203125,198101.375,175726.203125,176261.9375,196209.796875,688412.6875,172290.203125,0.062255859375,0.982177734375,-0.237060546875,-1.4648436307907104,-0.2136230319738388,0.4272460639476776,100.0,114683.0,1.0
14:57:48.991452,176905.84375,184167.296875,198086.890625,175728.703125,176259.25,196180.015625,688440.3125,172290.03125,0.062255859375,0.980224609375,-0.238037109375,-1.4953612089157104,-0.1525878757238388,0.5493163466453552,100.0,114684.0,1.0
14:57:48.991466,176850.59375,184151.375,198068.828125,175729.15625,176248.078125,196125.21875,688262.0,172285.734375,0.061767578125,0.9794921875,-0.238525390625,-1.4343260526657104,-0.0915527269244194,0.5187987685203552,100.0,114685.0,1.0
14:57:48.993322,176906.375,184166.40625,198085.453125,175729.609375,176253.078125,196156.953125,688164.125,172287.96875,0.062255859375,0.976806640625,-0.23779296875,-1.4648436307907104,-0.0610351525247097,0.4882812201976776,100.0,114686.0,1.0
14:57:49.000771,176977.546875,184184.546875,198104.421875,175729.78125,176261.9375,196213.375,688389.3125,172289.84375,0.0615234375,0.9775390625,-0.24072265625,-1.4648436307907104,-0.1525878757238388,0.4577636420726776,100.0,114687.0,1.0
14:57:49.031508,176925.953125,184177.484375,198093.953125,175733.53125,176263.09375,196198.34375,688456.625,172291.8125,0.06103515625,0.976806640625,-0.239013671875,-1.4953612089157104,-0.03051757626235485,0.4272460639476776,100.0,114688.0,1.0
14:57:49.031547,176851.921875,184149.6875,198062.03125,175721.640625,176243.515625,196131.03125,688291.0625,172279.5625,0.060791015625,0.9765625,-0.2392578125,-1.4038084745407104,-0.0610351525247097,0.4272460639476776,100.0,114689.0,1.0
14:57:49.055166,176884.296875,184168.1875,198074.828125,175721.734375,176250.9375,196155.25,688151.3125,172283.046875,0.062255859375,0.97607421875,-0.239990234375,-1.3427733182907104,-0.03051757626235485,0.4272460639476776,100.0,114690.0,1.0
14:57:49.055179,176962.875,184173.46875,198092.4375,175715.65625,176255.84375,196202.90625,688340.5,172283.671875,0.0625,0.974853515625,-0.240234375,-1.1596678495407104,0.0,0.4577636420726776,100.0,114691.0,1.0
14:57:49.057663,176918.0,184167.65625,198080.8125,175715.828125,176255.84375,196198.96875,688459.75,172283.40625,0.062255859375,0.975830078125,-0.241455078125,-1.1596678495407104,0.1525878757238388,0.4882812201976776,100.0,114692.0,1.0
14:57:49.057675,176858.453125,184158.171875,198064.265625,175722.53125,176250.125,196142.734375,688317.8125,172289.578125,0.065185546875,0.97705078125,-0.23974609375,-1.0681151151657104,0.1525878757238388,0.4882812201976776,100.0,114693.0,1.0
14:57:49.059562,176860.6875,184150.84375,198066.6875,175726.296875,176249.234375,196136.828125,688141.25,172292.96875,0.06591796875,0.9765625,-0.240478515625,-1.0070799589157104,0.1525878757238388,0.3967284858226776,100.0,114694.0,1.0
14:57:49.062103,176953.3125,184168.09375,198091.71875,175726.390625,176258.09375,196194.5,688304.9375,172298.515625,0.06396484375,0.97705078125,-0.239013671875,-1.0070799589157104,0.1220703050494194,0.4272460639476776,100.0,114695.0,1.0
14:57:49.064590,176934.890625,184174.625,198092.4375,175728.53125,176263.453125,196209.96875,688459.75,172297.265625,0.06396484375,0.974853515625,-0.239990234375,-1.0070799589157104,0.1525878757238388,0.4272460639476776,100.0,114696.0,1.0
14:57:49.067078,176866.765625,184153.4375,198071.328125,175727.09375,176252.28125,196148.375,688356.25,172293.6875,0.061279296875,0.976318359375,-0.239990234375,-0.9155272841453552,0.3051757514476776,0.4577636420726776,100.0,114697.0,1.0
14:57:49.069594,176852.90625,184155.40625,198071.6875,175728.171875,176251.375,196135.765625,688161.1875,172293.421875,0.0615234375,0.9765625,-0.2421875,-0.9460448622703552,0.2746581733226776,0.5493163466453552,100.0,114698.0,1.0
14:57:49.072085,176948.75,184172.296875,198094.40625,175725.046875,176256.203125,196189.3125,688244.875,172294.9375,0.062255859375,0.9775390625,-0.242431640625,-0.8850097060203552,0.2136230319738388,0.5493163466453552,100.0,114699.0,1.0
14:57:49.074585,176948.390625,184176.234375,198096.90625,175722.890625,176258.171875,196213.375,688439.6875,172291.8125,0.061767578125,0.982421875,-0.243408203125,-0.7934569716453552,0.3051757514476776,0.5493163466453552,100.0,114700.0,1.0
14:57:49.077093,176882.0625,184158.4375,198075.890625,175724.78125,176248.15625,196158.03125,688377.875,172291.71875,0.0654296875,0.982421875,-0.244384765625,-0.7629393935203552,0.3662109076976776,0.5493163466453552,100.0,114701.0,1.0
14:57:49.079595,176847.71875,184151.296875,198066.0625,175727.015625,176240.5625,196126.109375,688168.3125,172289.765625,0.065185546875,0.983642578125,-0.24560546875,-0.8239745497703552,0.3051757514476776,0.6408690810203552,100.0,114702.0,1.0
14:57:49.082148,176934.453125,184164.4375,198088.046875,175727.359375,176244.671875,196168.484375,688193.25,172294.046875,0.066650390625,0.984130859375,-0.243896484375,-0.8239745497703552,0.5187987685203552,0.6103515028953552,100.0,114703.0,1.0
14:57:49.096426,176959.390625,184175.4375,198098.6875,175727.71875,176251.734375,196207.015625,688408.75,172294.3125,0.06640625,0.9833984375,-0.244140625,-0.7324218153953552,0.3967284858226776,0.7019042372703552,100.0,114704.0,1.0
14:57:49.096549,176894.21875,184160.6875,198080.453125,175730.578125,176245.390625,196162.40625,688394.75,172294.9375,0.062255859375,0.982177734375,-0.2421875,-0.7629393935203552,0.4272460639476776,0.6713866591453552,100.0,114705.0,1.0
14:57:49.098304,176848.703125,184150.75,198067.21875,175729.515625,176237.96875,196120.203125,688208.25,172290.46875,0.060791015625,0.983154296875,-0.24267578125,-0.7629393935203552,0.3967284858226776,0.7019042372703552,100.0,114706.0,1.0
14:57:49.101419,176918.171875,184166.046875,198085.375,175728.0,176242.0,196159.28125,688160.5625,172292.625,0.060546875,0.982666015625,-0.243408203125,-0.7324218153953552,0.4577636420726776,0.5798339247703552,100.0,114707.0,1.0
14:57:49.101478,176970.578125,184180.625,198102.265625,175728.796875,176253.171875,196208.625,688390.875,172293.875,0.05810546875,0.98291015625,-0.244140625,-0.7934569716453552,0.3662109076976776,0.4577636420726776,100.0,114708.0,1.0
14:57:49.103286,176907.265625,184168.015625,198082.15625,175725.046875,176246.109375,196176.171875,688419.75,172288.421875,0.05615234375,0.9853515625,-0.2392578125,-0.8544921278953552,0.3662109076976776,0.3967284858226776,100.0,114709.0,1.0
14:57:49.105936,176845.3125,184150.046875,198059.4375,175720.390625,176232.15625,196120.46875,688243.75,172283.234375,0.0556640625,0.986083984375,-0.24072265625,-0.9765624403953552,0.2746581733226776,0.2441406100988388,100.0,114710.0,1.0
14:57:49.112159,176891.171875,184159.703125,198070.96875,175716.8125,176230.90625,196145.78125,688140.625,172279.921875,0.056396484375,0.98779296875,-0.238525390625,-1.0070799589157104,0.1525878757238388,0.1525878757238388,100.0,114711.0,1.0
14:57:49.115077,176954.390625,184166.046875,198082.421875,175710.5625,176232.15625,196194.0625,688367.0,172273.75,0.057861328125,0.9912109375,-0.24072265625,-1.2512205839157104,0.0915527269244194,0.1220703050494194,100.0,114712.0,1.0
14:57:49.115090,176904.765625,184160.765625,198073.296875,175712.96875,176234.75,196181.890625,688441.0,172275.71875,0.0595703125,0.9921875,-0.241455078125,-1.4343260526657104,-0.03051757626235485,0.1220703050494194,100.0,114713.0,1.0
14:57:49.117635,176840.65625,184143.0625,198053.453125,175712.078125,176227.234375,196124.140625,688282.0625,172274.109375,0.06103515625,0.991455078125,-0.242919921875,-1.5563963651657104,-0.03051757626235485,0.2441406100988388,100.0,114714.0,1.0
14:57:49.117646,176864.53125,184155.5,198063.28125,175709.578125,176232.6875,196140.40625,688125.9375,172274.640625,0.061767578125,0.99072265625,-0.241943359375,-1.7089842557907104,0.0,0.1831054538488388,100.0,114715.0,1.0
14:57:49.120099,176953.765625,184180.96875,198088.765625,175710.46875,176245.390625,196202.546875,688330.25,172280.375,0.065673828125,0.9892578125,-0.240478515625,-1.8615721464157104,0.0,0.3967284858226776,100.0,114716.0,1.0
14:57:49.120118,176920.5,184172.125,198087.515625,175720.296875,176253.53125,196203.71875,688453.5,172289.3125,0.065185546875,0.986572265625,-0.23974609375,-1.8920897245407104,0.0,0.4882812201976776,100.0,114717.0,1.0
14:57:49.132662,176850.140625,184147.453125,198060.6875,175718.421875,176236.890625,196136.484375,688320.0625,172285.109375,0.063720703125,0.98876953125,-0.239990234375,-1.8615721464157104,0.03051757626235485,0.5798339247703552,100.0,114718.0,1.0
14:57:49.132676,176843.96875,184140.65625,198053.8125,175712.796875,176228.21875,196125.484375,688134.9375,172278.671875,0.065673828125,0.98486328125,-0.238525390625,-2.044677495956421,0.1220703050494194,0.5493163466453552,100.0,114719.0,1.0
14:57:49.135148,176937.671875,184156.390625,198076.34375,175709.84375,176235.640625,196179.484375,688299.9375,172281.53125,0.064697265625,0.984130859375,-0.23779296875,-2.166747808456421,0.2136230319738388,0.7629393935203552,100.0,114720.0,1.0
14:57:49.135155,176929.4375,184170.6875,198087.0625,175718.875,176249.140625,196206.84375,688461.75,172289.40625,0.06298828125,0.983154296875,-0.2392578125,-2.166747808456421,0.2136230319738388,0.7629393935203552,100.0,114721.0,1.0
14:57:49.142032,176865.515625,184152.71875,198070.0,175722.53125,176241.375,196148.71875,688370.4375,172289.9375,0.062744140625,0.982177734375,-0.239013671875,-2.105712652206421,0.2746581733226776,0.8239745497703552,100.0,114722.0,1.0
14:57:49.150151,176847.8125,184151.03125,198068.828125,175722.265625,176239.84375,196132.984375,688170.875,172288.328125,0.060302734375,0.979736328125,-0.236083984375,-2.166747808456421,0.1831054538488388,0.8544921278953552,100.0,114723.0,1.0
14:57:49.150229,176938.03125,184164.34375,198089.578125,175718.34375,176241.90625,196178.859375,688241.6875,172287.078125,0.058837890625,0.9765625,-0.234375,-2.227782964706421,0.0915527269244194,0.7934569716453552,100.0,114724.0,1.0
14:57:49.152745,176947.140625,184174.453125,198098.15625,175726.390625,176252.71875,196210.15625,688445.75,172294.765625,0.05859375,0.9755859375,-0.238037109375,-2.288818120956421,0.03051757626235485,0.8850097060203552,100.0,114725.0,1.0
14:57:49.152760,176883.125,184159.15625,198081.078125,175724.859375,176247.71875,196160.96875,688394.25,172294.234375,0.05712890625,0.975830078125,-0.238037109375,-2.197265386581421,0.0,0.7324218153953552,100.0,114726.0,1.0
14:57:49.168360,176850.046875,184155.234375,198073.03125,175725.578125,176243.15625,196129.859375,688192.4375,172291.8125,0.057861328125,0.97412109375,-0.23388671875,-2.197265386581421,0.03051757626235485,0.7324218153953552,100.0,114727.0,1.0
14:57:49.171379,176928.375,184169.359375,198091.359375,175725.21875,176247.71875,196175.28125,688206.3125,172293.78125,0.0576171875,0.97412109375,-0.23681640625,-2.136230230331421,-0.03051757626235485,0.6408690810203552,100.0,114728.0,1.0
14:57:49.171390,176953.765625,184171.140625,198099.140625,175727.1875,176253.171875,196206.578125,688428.5,172294.140625,0.061279296875,0.974853515625,-0.23828125,-2.105712652206421,-0.0610351525247097,0.4882812201976776,100.0,114729.0,1.0
14:57:49.178990,176892.703125,184152.90625,198081.078125,175728.0,176247.09375,196160.703125,688423.375,172293.875,0.062255859375,0.975830078125,-0.240966796875,-2.075195074081421,-0.1220703050494194,0.3967284858226776,100.0,114730.0,1.0
14:57:49.179003,176844.5,184145.75,198067.578125,175728.34375,176240.734375,196119.21875,688217.5,172290.46875,0.064453125,0.976318359375,-0.240966796875,-1.9836424589157104,-0.1220703050494194,0.2746581733226776,100.0,114731.0,1.0
14:57:49.185117,176912.546875,184162.5625,198084.5625,175728.171875,176244.9375,196154.0,688172.1875,172293.421875,0.064453125,0.973876953125,-0.239013671875,-1.9836424589157104,-0.1525878757238388,0.3356933295726776,100.0,114732.0,1.0
14:57:49.185230,176972.453125,184186.515625,198108.96875,175734.25,176259.703125,196213.09375,688404.0625,172299.5,0.06396484375,0.974853515625,-0.239013671875,-1.9531248807907104,-0.0915527269244194,0.2441406100988388,100.0,114733.0,1.0
14:57:49.195193,176918.0,184181.875,198096.71875,175738.546875,176259.421875,196190.125,688448.9375,172302.0,0.064453125,0.974853515625,-0.23828125,-1.8005369901657104,-0.0610351525247097,0.1220703050494194,100.0,114734.0,1.0
14:57:49.195204,176855.234375,184161.21875,198071.953125,175730.859375,176245.21875,196134.421875,688262.8125,172291.1875,0.0673828125,0.97607421875,-0.238525390625,-1.6784666776657104,0.03051757626235485,0.2136230319738388,100.0,114735.0,1.0
14:57:49.197158,176898.234375,184161.75,198079.375,175724.5,176243.515625,196150.78125,688151.4375,172286.890625,0.06591796875,0.9755859375,-0.23876953125,-1.6174315214157104,0.0610351525247097,0.1525878757238388,100.0,114736.0,1.0
14:57:49.207644,176969.859375,184173.375,198095.03125,175721.015625,176248.34375,196199.953125,688367.0625,172286.1875,0.06640625,0.975341796875,-0.238037109375,-1.4953612089157104,0.0610351525247097,0.1525878757238388,100.0,114737.0,1.0
14:57:49.207661,176926.9375,184174.0,198090.203125,175729.421875,176255.046875,196196.109375,688455.375,172292.53125,0.065673828125,0.97900390625,-0.239013671875,-1.4038084745407104,0.03051757626235485,0.2441406100988388,100.0,114738.0,1.0
14:57:49.212812,176867.390625,184160.765625,198073.84375,175734.515625,176249.6875,196138.265625,688292.4375,172297.171875,0.066162109375,0.97998046875,-0.240234375,-1.4038084745407104,0.1525878757238388,0.3356933295726776,100.0,114739.0,1.0
14:57:49.212867,176890.90625,184175.796875,198085.28125,175739.609375,176255.40625,196154.53125,688131.1875,172301.65625,0.065673828125,0.978759765625,-0.23828125,-1.2817381620407104,0.2441406100988388,0.3051757514476776,100.0,114740.0,1.0
14:57:49.222128,176971.828125,184178.109375,198101.015625,175730.671875,176256.75,196198.703125,688322.6875,172297.53125,0.06591796875,0.97900390625,-0.239013671875,-1.2512205839157104,0.3051757514476776,0.3051757514476776,100.0,114741.0,1.0
14:57:49.226448,176932.21875,184168.640625,198092.4375,175725.9375,176257.734375,196197.625,688445.3125,172294.671875,0.063232421875,0.976318359375,-0.239501953125,-1.2817381620407104,0.2746581733226776,0.2746581733226776,100.0,114742.0,1.0
14:57:49.226528,176859.609375,184149.0625,198066.6875,175722.71875,176243.0625,196134.15625,688314.3125,172288.421875,0.06298828125,0.977783203125,-0.24169921875,-1.1901854276657104,0.2746581733226776,0.2441406100988388,100.0,114743.0,1.0
14:57:49.228747,176856.75,184150.9375,198068.296875,175724.421875,176241.1875,196129.6875,688126.75,172287.609375,0.063232421875,0.978759765625,-0.239013671875,-1.0986326932907104,0.2746581733226776,0.4272460639476776,100.0,114744.0,1.0
14:57:49.246542,176950.28125,184165.0625,198090.46875,175720.578125,176245.296875,196182.875,688273.1875,172287.703125,0.0615234375,0.980224609375,-0.239990234375,-0.9765624403953552,0.1831054538488388,0.3662109076976776,100.0,114745.0,1.0
14:57:49.246627,176941.421875,184177.21875,198097.34375,175730.140625,176256.296875,196203.796875,688440.3125,172295.03125,0.061279296875,0.9814453125,-0.2373046875,-0.9765624403953552,0.2136230319738388,0.3356933295726776,100.0,114746.0,1.0
14:57:49.249152,176873.5625,184155.5,198073.75,175730.140625,176245.03125,196142.28125,688354.5625,172292.96875,0.059326171875,0.98046875,-0.2392578125,-0.9155272841453552,0.2136230319738388,0.3051757514476776,100.0,114747.0,1.0
14:57:49.249228,176849.0625,184150.84375,198068.390625,175728.96875,176242.0,196122.0,688154.75,172291.09375,0.058349609375,0.981689453125,-0.23876953125,-0.8544921278953552,0.2441406100988388,0.4272460639476776,100.0,114748.0,1.0
14:57:49.255267,176938.296875,184165.859375,198087.875,175722.453125,176247.171875,196171.34375,688225.0625,172290.03125,0.058837890625,0.98193359375,-0.241943359375,-0.8544921278953552,0.1220703050494194,0.3356933295726776,100.0,114749.0,1.0
14:57:49.255362,176947.59375,184176.0625,198097.984375,175726.03125,176258.0,196204.6875,688423.125,172294.671875,0.057861328125,0.98291015625,-0.239501953125,-0.6713866591453552,0.03051757626235485,0.4577636420726776,100.0,114750.0,1.0
14:57:49.257751,176883.3125,184163.09375,198080.8125,175729.6875,176251.46875,196156.0625,688376.125,172295.21875,0.059814453125,0.98095703125,-0.243408203125,-0.5798339247703552,-0.03051757626235485,0.4272460639476776,100.0,114751.0,1.0
14:57:49.257840,176835.03125,184143.15625,198058.90625,175719.3125,176234.296875,196109.828125,688176.875,172282.6875,0.059326171875,0.981689453125,-0.241943359375,-0.6713866591453552,0.0,0.4272460639476776,100.0,114752.0,1.0
14:57:49.269670,176913.078125,184150.21875,198073.03125,175715.5625,176234.65625,196145.421875,688168.125,172282.609375,0.05810546875,0.983154296875,-0.242919921875,-0.7019042372703552,0.0,0.4272460639476776,100.0,114753.0,1.0
14:57:49.272820,176946.34375,184159.421875,198084.390625,175716.734375,176241.90625,196183.0625,688392.25,172284.9375,0.0576171875,0.983154296875,-0.242919921875,-0.6713866591453552,0.03051757626235485,0.3662109076976776,100.0,114754.0,1.0
14:57:49.272918,176879.28125,184144.046875,198064.890625,175713.859375,176232.421875,196141.390625,688388.625,172280.28125,0.060302734375,0.982666015625,-0.243896484375,-0.6103515028953552,0.0,0.4577636420726776,100.0,114755.0,1.0
14:57:49.279589,176836.8125,184140.390625,198055.59375,175717.796875,176230.015625,196103.75,688208.75,172280.375,0.057861328125,0.983642578125,-0.24267578125,-0.6408690810203552,-0.0915527269244194,0.3967284858226776,100.0,114756.0,1.0
14:57:49.283864,176902.71875,184154.59375,198072.9375,175715.296875,176235.015625,196139.15625,688148.9375,172280.90625,0.058349609375,0.982177734375,-0.241943359375,-0.7324218153953552,-0.0915527269244194,0.3662109076976776,100.0,114757.0,1.0
14:57:49.283878,176961.09375,184177.3125,198093.234375,175716.734375,176245.84375,196195.390625,688374.6875,172283.046875,0.05712890625,0.980224609375,-0.241943359375,-0.7324218153953552,-0.1220703050494194,0.4577636420726776,100.0,114758.0,1.0
14:57:49.289662,176904.953125,184164.078125,198082.328125,175723.515625,176246.546875,196172.953125,688412.5625,172287.96875,0.058349609375,0.979248046875,-0.24072265625,-0.7019042372703552,-0.1220703050494194,0.5798339247703552,100.0,114759.0,1.0
14:57:49.300171,176851.484375,184149.6875,198069.359375,175731.484375,176243.875,196119.9375,688249.9375,172294.765625,0.061767578125,0.979248046875,-0.243408203125,-0.7934569716453552,-0.0915527269244194,0.6103515028953552,100.0,114760.0,1.0
14:57:49.300189,176890.28125,184158.625,198079.203125,175727.453125,176243.875,196140.234375,688122.0,172293.6875,0.06201171875,0.97998046875,-0.24365234375,-0.7324218153953552,-0.0610351525247097,0.6408690810203552,100.0,114761.0,1.0
14:57:49.306469,176962.609375,184167.203125,198094.3125,175720.75,176247.453125,196190.03125,688350.5,172291.1875,0.0654296875,0.98291015625,-0.24169921875,-0.6713866591453552,-0.0915527269244194,0.7629393935203552,100.0,114762.0,1.0
14:57:49.306488,176915.3125,184164.53125,198085.015625,175722.890625,176249.59375,196182.96875,688428.3125,172291.1875,0.06591796875,0.983642578125,-0.24169921875,-0.6713866591453552,-0.1525878757238388,0.8850097060203552,100.0,114763.0,1.0
14:57:49.310147,176850.3125,184144.9375,198061.40625,175719.953125,176238.0625,196120.734375,688285.875,172286.8125,0.064697265625,0.981689453125,-0.243896484375,-0.7324218153953552,-0.03051757626235485,0.9155272841453552,100.0,114764.0,1.0
14:57:49.310165,176865.78125,184148.609375,198066.953125,175718.515625,176239.578125,196128.78125,688122.4375,172287.4375,0.06494140625,0.980224609375,-0.24365234375,-0.7934569716453552,0.0,1.0070799589157104,100.0,114765.0,1.0
14:57:49.320884,176957.515625,184170.875,198093.15625,175716.1875,176250.390625,196190.921875,688309.375,172288.421875,0.063720703125,0.9794921875,-0.242919921875,-0.8544921278953552,0.0610351525247097,1.0681151151657104,100.0,114766.0,1.0
14:57:49.352015,176929.796875,184172.125,198091.890625,175717.890625,176253.078125,196198.53125,688439.5,172284.484375,0.0625,0.9775390625,-0.246826171875,-0.8544921278953552,0.0610351525247097,0.9765624403953552,100.0,114767.0,1.0
14:57:49.352047,176865.34375,184148.515625,198070.703125,175721.109375,176241.28125,196133.703125,688327.625,172284.484375,0.059814453125,0.97802734375,-0.24462890625,-0.8239745497703552,0.1220703050494194,0.9765624403953552,100.0,114768.0,1.0
14:57:49.352053,176863.8125,184152.28125,198076.15625,175727.8125,176244.859375,196131.296875,688140.625,172290.921875,0.062255859375,0.97802734375,-0.2421875,-0.8544921278953552,0.1220703050494194,0.8850097060203552,100.0,114769.0,1.0
14:57:49.354653,176954.390625,184169.890625,198093.78125,175719.671875,176243.609375,196176.703125,688262.625,172287.96875,0.0615234375,0.97998046875,-0.24072265625,-0.9460448622703552,0.1220703050494194,0.8850097060203552,100.0,114770.0,1.0
14:57:49.357154,176943.65625,184171.40625,198096.1875,175724.859375,176249.421875,196198.796875,688438.875,172289.765625,0.058349609375,0.982421875,-0.24072265625,-1.0070799589157104,0.0610351525247097,0.7019042372703552,100.0,114771.0,1.0
14:57:49.359466,176874.546875,184149.140625,198073.390625,175725.40625,176239.484375,196140.234375,688357.0625,172289.3125,0.05810546875,0.979736328125,-0.24169921875,-1.0986326932907104,0.1220703050494194,0.6408690810203552,100.0,114772.0,1.0
14:57:49.362046,176850.671875,184150.40625,198070.078125,175723.703125,176237.96875,196120.734375,688159.8125,172289.3125,0.058349609375,0.979248046875,-0.24658203125,-1.1901854276657104,0.0,0.4882812201976776,100.0,114773.0,1.0
14:57:49.364462,176939.1875,184165.515625,198091.0,175718.96875,176241.09375,196167.234375,688227.75,172289.3125,0.060302734375,0.9794921875,-0.246337890625,-1.1596678495407104,-0.03051757626235485,0.4272460639476776,100.0,114774.0,1.0
14:57:49.367098,176947.234375,184171.5,198093.78125,175715.03125,176243.6875,196195.75,688432.625,172284.03125,0.061279296875,0.978271484375,-0.24462890625,-1.1901854276657104,-0.0610351525247097,0.3662109076976776,100.0,114775.0,1.0
14:57:49.369473,176880.984375,184154.875,198073.390625,175716.8125,176235.734375,196146.3125,688386.4375,172282.15625,0.062255859375,0.979736328125,-0.242919921875,-1.0986326932907104,-0.1220703050494194,0.4272460639476776,100.0,114776.0,1.0
14:57:49.412091,176840.65625,184152.984375,198062.21875,175715.65625,176228.84375,196112.515625,688182.0625,172276.96875,0.061767578125,0.97998046875,-0.243896484375,-1.2207030057907104,-0.03051757626235485,0.3051757514476776,100.0,114777.0,1.0
14:57:49.416378,176922.5625,184166.765625,198084.390625,175716.640625,176236.546875,196153.90625,688192.4375,172282.0625,0.062744140625,0.97998046875,-0.24462890625,-1.3122557401657104,0.0,0.3967284858226776,100.0,114778.0,1.0
14:57:49.416387,176963.859375,184173.375,198104.765625,175725.484375,176254.59375,196200.578125,688427.5625,172290.65625,0.06396484375,0.97998046875,-0.245849609375,-1.1901854276657104,-0.03051757626235485,0.6713866591453552,100.0,114779.0,1.0
14:57:49.418303,176903.34375,184162.734375,198089.21875,175727.546875,176251.109375,196165.984375,688428.3125,172289.671875,0.064208984375,0.980224609375,-0.24560546875,-1.2207030057907104,-0.03051757626235485,0.6103515028953552,100.0,114780.0,1.0
14:57:49.423342,176853.265625,184160.234375,198073.125,175729.0625,176242.984375,196122.53125,688239.1875,172289.40625,0.0625,0.981201171875,-0.243896484375,-1.1596678495407104,0.03051757626235485,0.6713866591453552,100.0,114781.0,1.0
14:57:49.425885,176907.1875,184168.015625,198079.296875,175720.75,176236.890625,196149.625,688161.625,172285.5625,0.06591796875,0.983154296875,-0.241455078125,-1.2512205839157104,0.0915527269244194,0.7019042372703552,100.0,114782.0,1.0
14:57:49.428336,176952.875,184167.75,198081.703125,175706.890625,176231.265625,196187.171875,688387.375,172276.609375,0.0654296875,0.984375,-0.2431640625,-1.3427733182907104,0.1525878757238388,0.8239745497703552,100.0,114783.0,1.0
14:57:49.430860,176894.9375,184156.5625,198066.5,175709.671875,176228.578125,196165.71875,688439.6875,172278.40625,0.06494140625,0.985595703125,-0.241455078125,-1.4038084745407104,0.2136230319738388,0.9460448622703552,100.0,114784.0,1.0
14:57:49.433363,176836.8125,184144.765625,198049.25,175711.90625,176220.265625,196114.65625,688268.25,172281.53125,0.0634765625,0.98388671875,-0.244384765625,-1.4038084745407104,0.2136230319738388,0.9765624403953552,100.0,114785.0,1.0
14:57:49.435786,176873.390625,184151.375,198059.890625,175708.6875,176221.515625,196131.109375,688146.6875,172284.65625,0.06103515625,0.984619140625,-0.245849609375,-1.5258787870407104,0.2746581733226776,0.8850097060203552,100.0,114786.0,1.0
14:57:49.439207,176947.953125,184162.015625,198079.46875,175703.40625,176225.546875,196179.296875,688370.1875,172281.625,0.0615234375,0.98486328125,-0.243896484375,-1.6479490995407104,0.1220703050494194,1.0070799589157104,100.0,114787.0,1.0
14:57:49.440849,176897.171875,184146.203125,198065.96875,175700.015625,176220.359375,196162.765625,688455.9375,172276.890625,0.06201171875,0.984619140625,-0.242431640625,-1.7089842557907104,0.1831054538488388,0.8544921278953552,100.0,114788.0,1.0
14:57:49.443310,176834.671875,184130.90625,198049.25,175704.484375,176214.28125,196107.59375,688298.25,172280.453125,0.061279296875,0.983642578125,-0.24169921875,-1.7700194120407104,0.2746581733226776,0.8544921278953552,100.0,114789.0,1.0
14:57:49.445754,176852.015625,184144.9375,198059.984375,175709.578125,176218.75,196117.609375,688133.4375,172284.21875,0.06298828125,0.982666015625,-0.2421875,-1.8615721464157104,0.2746581733226776,0.8544921278953552,100.0,114790.0,1.0
14:57:49.448315,176941.6875,184153.703125,198081.171875,175705.46875,176224.375,196165.453125,688323.1875,172283.234375,0.064453125,0.984619140625,-0.244384765625,-2.014159917831421,0.3051757514476776,0.8239745497703552,100.0,114791.0,1.0
14:57:49.450777,176917.546875,184150.578125,198083.140625,175711.453125,176233.140625,196171.96875,688467.125,172286.1875,0.064208984375,0.983642578125,-0.2431640625,-2.105712652206421,0.3356933295726776,0.7324218153953552,100.0,114792.0,1.0
14:57:49.453857,176853.171875,184136.453125,198064.1875,175712.078125,176226.078125,196114.75,688343.625,172283.765625,0.064453125,0.982666015625,-0.2431640625,-2.197265386581421,0.3356933295726776,0.7629393935203552,100.0,114793.0,1.0
14:57:49.453860,176849.0625,184143.421875,198068.5625,175714.765625,176227.859375,196108.578125,688145.0625,172285.375,0.063720703125,0.982421875,-0.2412109375,-2.227782964706421,0.3356933295726776,0.7019042372703552,100.0,114794.0,1.0
14:57:49.456313,176946.703125,184164.609375,198091.984375,175714.3125,176232.421875,196163.84375,688262.75,172286.71875,0.064208984375,0.983642578125,-0.243896484375,-2.197265386581421,0.3662109076976776,0.7019042372703552,100.0,114795.0,1.0
14:57:49.456321,176943.21875,184177.578125,198099.3125,175719.671875,176242.4375,196191.828125,688450.1875,172290.203125,0.063232421875,0.982421875,-0.241455078125,-2.227782964706421,0.3967284858226776,0.6408690810203552,100.0,114796.0,1.0
14:57:49.458836,176876.34375,184155.5,198081.703125,175720.390625,176239.484375,196139.0625,688372.5,172292.078125,0.06396484375,0.981689453125,-0.240966796875,-2.258300542831421,0.3967284858226776,0.6408690810203552,100.0,114797.0,1.0
14:57:49.458838,176847.71875,184151.46875,198072.234375,175718.78125,176233.859375,196115.28125,688164.9375,172288.421875,0.0654296875,0.98193359375,-0.2412109375,-2.197265386581421,0.4577636420726776,0.6408690810203552,100.0,114798.0,1.0
14:57:49.460833,176935.34375,184163.90625,198090.46875,175714.5,176237.515625,196162.3125,688226.0,172289.3125,0.065673828125,0.983154296875,-0.24169921875,-2.258300542831421,0.4577636420726776,0.6408690810203552,100.0,114799.0,1.0
14:57:49.463941,176948.75,184171.140625,198095.921875,175714.84375,176239.765625,196190.125,688443.0625,172287.609375,0.06591796875,0.982177734375,-0.2412109375,-2.319335699081421,0.6103515028953552,0.5798339247703552,100.0,114800.0,1.0
14:57:49.463951,176873.03125,184145.921875,198066.6875,175709.03125,176225.09375,196135.578125,688406.125,172278.40625,0.066650390625,0.981201171875,-0.242431640625,-2.258300542831421,0.6713866591453552,0.5798339247703552,100.0,114801.0,1.0
14:57:49.465741,176828.234375,184132.96875,198051.671875,175707.15625,176216.328125,196093.296875,688210.75,172274.5625,0.065673828125,0.97900390625,-0.242431640625,-2.288818120956421,0.6103515028953552,0.5493163466453552,100.0,114802.0,1.0
14:57:49.468970,176905.9375,184145.21875,198072.578125,175707.78125,176221.25,196135.3125,688203.1875,172280.453125,0.067626953125,0.980224609375,-0.2412109375,-2.288818120956421,0.6713866591453552,0.6408690810203552,100.0,114803.0,1.0
14:57:49.468985,176937.765625,184152.640625,198079.203125,175701.625,176223.671875,196175.90625,688423.9375,172275.984375,0.06640625,0.980712890625,-0.238037109375,-2.227782964706421,0.7934569716453552,0.5493163466453552,100.0,114804.0,1.0
14:57:49.470831,176877.859375,184142.625,198065.078125,175707.875,176220.984375,196145.421875,688430.1875,172280.015625,0.064697265625,0.98095703125,-0.24072265625,-2.136230230331421,0.8850097060203552,0.5187987685203552,100.0,114805.0,1.0
14:57:49.488939,176827.78125,184136.890625,198050.5,175710.109375,176212.9375,196101.609375,688234.0,172279.5625,0.063720703125,0.981201171875,-0.240234375,-2.166747808456421,0.7324218153953552,0.5493163466453552,100.0,114806.0,1.0
14:57:49.488958,176884.921875,184148.34375,198062.9375,175702.59375,176212.84375,196131.296875,688159.5625,172277.859375,0.0625,0.979736328125,-0.23779296875,-2.166747808456421,0.8239745497703552,0.3356933295726776,100.0,114807.0,1.0
14:57:49.491359,176948.21875,184159.96875,198079.203125,175702.78125,176221.96875,196181.890625,688389.9375,172277.59375,0.060791015625,0.979248046875,-0.235595703125,-2.044677495956421,0.7934569716453552,0.3662109076976776,100.0,114808.0,1.0
14:57:49.491372,176891.453125,184143.25,198063.5625,175705.28125,176220.796875,196156.0625,688448.875,172275.546875,0.060791015625,0.98095703125,-0.23681640625,-2.014159917831421,0.8850097060203552,0.3662109076976776,100.0,114809.0,1.0
14:57:49.493843,176827.34375,184121.78125,198042.90625,175704.296875,176211.234375,196095.796875,688278.5625,172273.9375,0.059814453125,0.98046875,-0.23779296875,-1.9836424589157104,0.7934569716453552,0.3662109076976776,100.0,114810.0,1.0
14:57:49.493850,176865.875,184137.96875,198059.890625,175709.75,176220.625,196119.484375,688144.875,172283.328125,0.059814453125,0.97900390625,-0.23681640625,-1.9836424589157104,0.7629393935203552,0.3967284858226776,100.0,114811.0,1.0
14:57:49.503609,176945.53125,184154.515625,198081.96875,175708.5,176228.765625,196175.8125,688349.1875,172288.234375,0.059814453125,0.978759765625,-0.235107421875,-1.9226073026657104,0.7629393935203552,0.3356933295726776,100.0,114812.0,1.0
14:57:49.507603,176900.390625,184147.1875,198073.65625,175711.453125,176230.375,196169.921875,688449.0625,172288.953125,0.060302734375,0.978515625,-0.23583984375,-1.8920897245407104,0.7934569716453552,0.2441406100988388,100.0,114813.0,1.0
14:57:49.507610,176832.703125,184129.390625,198050.140625,175706.71875,176215.4375,196106.890625,688301.5,172282.6875,0.060546875,0.978271484375,-0.238525390625,-1.8615721464157104,0.7629393935203552,0.3356933295726776,100.0,114814.0,1.0
14:57:49.517052,176843.171875,184133.5,198055.0625,175706.625,176214.71875,196107.59375,688134.25,172283.953125,0.0595703125,0.978271484375,-0.237548828125,-1.7700194120407104,0.6408690810203552,0.3967284858226776,100.0,114815.0,1.0
14:57:49.529635,176930.78125,184146.546875,198075.453125,175702.0625,176220.265625,196164.015625,688294.625,172283.140625,0.0595703125,0.9755859375,-0.2373046875,-1.7395018339157104,0.5798339247703552,0.2746581733226776,100.0,114816.0,1.0
14:57:49.529649,176904.046875,184152.8125,198073.03125,175703.140625,176224.65625,196181.359375,688441.25,172282.6875,0.058349609375,0.974853515625,-0.2392578125,-1.7089842557907104,0.5798339247703552,0.3967284858226776,100.0,114817.0,1.0
14:57:49.529650,176831.1875,184118.921875,198043.53125,175699.65625,176207.921875,196097.765625,688332.4375,172278.765625,0.058349609375,0.9765625,-0.23828125,-1.5258787870407104,0.4272460639476776,0.4882812201976776,100.0,114818.0,1.0
14:57:49.532186,176821.890625,184125.1875,198044.875,175701.703125,176208.5625,196093.203125,688143.75,172278.5,0.060546875,0.975830078125,-0.2373046875,-1.4343260526657104,0.3967284858226776,0.4272460639476776,100.0,114819.0,1.0
14:57:49.535261,176913.171875,184137.875,198060.78125,175691.78125,176207.578125,196142.921875,688269.9375,172271.875,0.059326171875,0.977294921875,-0.23681640625,-1.4953612089157104,0.3662109076976776,0.4577636420726776,100.0,114820.0,1.0
14:57:49.535268,176910.578125,184146.46875,198064.71875,175694.90625,176214.71875,196170.1875,688445.375,172269.1875,0.060302734375,0.980224609375,-0.2373046875,-1.4953612089157104,0.3051757514476776,0.4882812201976776,100.0,114821.0,1.0
14:57:49.537177,176833.953125,184119.734375,198035.75,175689.90625,176199.53125,196109.65625,688364.9375,172262.75,0.05908203125,0.97900390625,-0.24072265625,-1.3732908964157104,0.2136230319738388,0.5493163466453552,100.0,114822.0,1.0
14:57:49.552594,176800.96875,184113.203125,198025.921875,175684.984375,176191.84375,196081.9375,688166.4375,172259.625,0.056640625,0.978515625,-0.239013671875,-1.2817381620407104,0.1220703050494194,0.5187987685203552,100.0,114823.0,1.0
14:57:49.552608,176889.390625,184124.03125,198045.140625,175684.1875,176194.703125,196123.515625,688209.25,172262.671875,0.058837890625,0.9794921875,-0.2373046875,-1.2207030057907104,0.0,0.5187987685203552,100.0,114824.0,1.0
14:57:49.563193,176909.78125,184133.140625,198055.859375,175686.59375,176205.15625,196160.53125,688422.6875,172266.59375,0.05810546875,0.97998046875,-0.236328125,-1.3122557401657104,-0.0610351525247097,0.4882812201976776,100.0,114825.0,1.0
14:57:49.563201,176845.3125,184118.75,198039.859375,175690.4375,176200.953125,196116.984375,688394.5,172270.453125,0.05908203125,0.980224609375,-0.23583984375,-1.3427733182907104,-0.0915527269244194,0.4577636420726776,100.0,114826.0,1.0
14:57:49.563203,176799.09375,184109.625,198026.359375,175690.890625,176191.390625,196074.875,688197.125,172270.453125,0.058837890625,0.982421875,-0.23876953125,-1.2817381620407104,-0.1220703050494194,0.4882812201976776,100.0,114827.0,1.0
14:57:49.566333,176872.3125,184127.25,198043.4375,175687.484375,176194.421875,196115.90625,688171.0,172272.140625,0.05859375,0.98193359375,-0.23681640625,-1.1901854276657104,-0.2136230319738388,0.4882812201976776,100.0,114828.0,1.0
14:57:49.566342,176910.84375,184128.9375,198052.734375,175685.078125,176200.421875,196161.515625,688398.5625,172272.328125,0.060302734375,0.98291015625,-0.240234375,-1.2207030057907104,-0.1831054538488388,0.4882812201976776,100.0,114829.0,1.0
14:57:49.568229,176848.359375,184122.765625,198034.3125,175685.875,176194.703125,196131.734375,688411.6875,172270.171875,0.062744140625,0.981201171875,-0.239501953125,-1.2512205839157104,-0.2441406100988388,0.4882812201976776,100.0,114830.0,1.0
14:57:49.578392,176785.5,184092.015625,198010.890625,175683.015625,176180.578125,196069.421875,688223.625,172263.03125,0.061767578125,0.981689453125,-0.2392578125,-1.2207030057907104,-0.2441406100988388,0.4272460639476776,100.0,114831.0,1.0
14:57:49.585106,176841.5625,184105.421875,198029.484375,175684.90625,176187.71875,196101.15625,688139.25,172267.9375,0.060546875,0.98291015625,-0.239013671875,-1.1901854276657104,-0.2746581733226776,0.5493163466453552,100.0,114832.0,1.0
14:57:49.585119,176906.375,184124.203125,198047.734375,175677.5625,176196.484375,196156.0625,688371.375,172266.421875,0.06201171875,0.98388671875,-0.23779296875,-1.2207030057907104,-0.2136230319738388,0.4882812201976776,100.0,114833.0,1.0
14:57:49.591529,176851.21875,184115.265625,198034.3125,175674.609375,176195.59375,196138.09375,688431.375,172264.453125,0.0615234375,0.984375,-0.240478515625,-1.3427733182907104,-0.2441406100988388,0.5493163466453552,100.0,114834.0,1.0
14:57:49.591552,176790.78125,184095.765625,198016.703125,175679.625,176188.625,196080.15625,688266.5,172269.734375,0.063720703125,0.9853515625,-0.23974609375,-1.3122557401657104,-0.3662109076976776,0.5493163466453552,100.0,114835.0,1.0
14:57:49.600816,176824.21875,184106.953125,198028.328125,175680.96875,176192.640625,196101.4375,688129.4375,172269.640625,0.06396484375,0.982421875,-0.23876953125,-1.3732908964157104,-0.3356933295726776,0.5493163466453552,100.0,114836.0,1.0
14:57:49.609502,176904.59375,184121.609375,198047.375,175672.921875,176199.96875,196155.609375,688331.3125,172266.25,0.063232421875,0.98193359375,-0.239013671875,-1.3732908964157104,-0.1525878757238388,0.6408690810203552,100.0,114837.0,1.0
14:57:49.609520,176867.75,184121.703125,198042.1875,175675.6875,176203.640625,196152.65625,688439.9375,172266.59375,0.064208984375,0.98291015625,-0.24072265625,-1.3427733182907104,-0.2441406100988388,0.6713866591453552,100.0,114838.0,1.0
14:57:49.609524,176797.203125,184093.53125,198015.09375,175671.484375,176186.203125,196079.078125,688297.75,172258.734375,0.063232421875,0.981201171875,-0.23876953125,-1.4038084745407104,-0.1831054538488388,0.6103515028953552,100.0,114839.0,1.0
14:57:49.612125,176807.3125,184105.15625,198023.328125,175673.1875,176190.5,196085.875,688125.9375,172261.6875,0.06201171875,0.98193359375,-0.2373046875,-1.4343260526657104,-0.0610351525247097,0.5187987685203552,100.0,114840.0,1.0
14:57:49.614622,176900.03125,184123.671875,198048.265625,175671.21875,176198.546875,196143.8125,688300.875,172264.28125,0.062744140625,0.98095703125,-0.23974609375,-1.4953612089157104,-0.0610351525247097,0.5187987685203552,100.0,114841.0,1.0
14:57:49.622138,176877.140625,184125.90625,198046.921875,175671.390625,176200.859375,196154.359375,688444.875,172262.84375,0.0634765625,0.982177734375,-0.239501953125,-1.4953612089157104,-0.1525878757238388,0.5798339247703552,100.0,114842.0,1.0
14:57:49.633893,176806.421875,184100.6875,198020.734375,175666.5625,176183.875,196086.40625,688337.5,172255.875,0.064453125,0.98095703125,-0.240234375,-1.4953612089157104,-0.1525878757238388,0.5798339247703552,100.0,114843.0,1.0
14:57:49.633907,176796.5,184110.703125,198021.625,175667.828125,176183.515625,196077.46875,688148.8125,172255.96875,0.0634765625,0.981201171875,-0.239990234375,-1.5258787870407104,0.0915527269244194,0.4577636420726776,100.0,114844.0,1.0
14:57:49.637008,176890.90625,184128.21875,198046.390625,175666.21875,176191.84375,196135.046875,688260.875,172259.09375,0.06591796875,0.98046875,-0.242431640625,-1.5869139432907104,0.0610351525247097,0.3967284858226776,100.0,114845.0,1.0
14:57:49.637016,176892.34375,184131.265625,198052.46875,175672.734375,176200.78125,196161.6875,688453.0,172262.9375,0.063720703125,0.980224609375,-0.23974609375,-1.4343260526657104,0.03051757626235485,0.3662109076976776,100.0,114846.0,1.0
14:57:49.637017,176822.6875,184108.109375,198028.78125,175673.546875,176188.265625,196101.515625,688379.0625,172262.046875,0.062255859375,0.9794921875,-0.238037109375,-1.4953612089157104,0.0915527269244194,0.4577636420726776,100.0,114847.0,1.0
14:57:49.640785,176791.046875,184103.375,198021.984375,175673.453125,176184.421875,196073.453125,688181.75,172261.5,0.06201171875,0.980712890625,-0.23779296875,-1.5258787870407104,0.0915527269244194,0.4272460639476776,100.0,114848.0,1.0
14:57:49.650780,176875.890625,184116.421875,198042.28125,175670.328125,176188.625,196118.15625,688210.75,172263.65625,0.064453125,0.98046875,-0.236083984375,-1.4953612089157104,0.03051757626235485,0.3662109076976776,100.0,114849.0,1.0
14:57:49.657590,176905.84375,184145.21875,198059.359375,175676.3125,176202.03125,196171.96875,688425.0,172269.640625,0.063232421875,0.979736328125,-0.2392578125,-1.5563963651657104,0.03051757626235485,0.4577636420726776,100.0,114850.0,1.0
14:57:49.657599,176840.65625,184116.421875,198039.765625,175680.515625,176194.25,196116.8125,688406.25,172272.6875,0.0625,0.9794921875,-0.240966796875,-1.4953612089157104,0.1831054538488388,0.4272460639476776,100.0,114851.0,1.0
14:57:49.660516,176794.265625,184104.984375,198025.015625,175682.84375,176186.5625,196071.203125,688210.9375,172273.21875,0.060791015625,0.980712890625,-0.2412109375,-1.4953612089157104,0.0610351525247097,0.2746581733226776,100.0,114852.0,1.0
14:57:49.660519,176859.890625,184118.125,198037.984375,175677.65625,176185.75,196110.109375,688174.5,172268.84375,0.0615234375,0.981201171875,-0.239501953125,-1.4343260526657104,0.1831054538488388,0.3662109076976776,100.0,114853.0,1.0
14:57:49.673339,176902.71875,184125.546875,198049.515625,175670.765625,176191.84375,196153.828125,688396.3125,172265.078125,0.0615234375,0.9794921875,-0.238525390625,-1.4648436307907104,0.1831054538488388,0.4577636420726776,100.0,114854.0,1.0
14:57:49.676375,176844.59375,184120.625,198038.96875,175677.65625,176194.609375,196137.734375,688418.625,172270.53125,0.06298828125,0.980712890625,-0.240966796875,-1.5258787870407104,0.1220703050494194,0.4272460639476776,100.0,114855.0,1.0
14:57:49.676392,176790.0625,184099.796875,198020.90625,175679.0,176183.609375,196070.046875,688237.6875,172270.265625,0.061279296875,0.982177734375,-0.2412109375,-1.5563963651657104,0.1525878757238388,0.3967284858226776,100.0,114856.0,1.0
14:57:49.681990,176847.015625,184115.34375,198038.515625,175682.125,176190.234375,196099.28125,688148.5625,172276.078125,0.062255859375,0.982421875,-0.23876953125,-1.5258787870407104,0.2746581733226776,0.4577636420726776,100.0,114857.0,1.0
14:57:49.688861,176908.515625,184123.390625,198049.96875,175675.515625,176192.734375,196147.921875,688367.6875,172272.59375,0.063720703125,0.98193359375,-0.23828125,-1.6174315214157104,0.1831054538488388,0.4272460639476776,100.0,114858.0,1.0
