Timestamp,Fz,FC3,FCz,FC4,Cz,C3,C4
14:59:58.180022,177009.90625,182881.625,196352.84375,174823.1875,173217.625,194745.75,688401.9375,173214.140625,0.066162109375,0.9873046875,-0.20947265625,-1.6479490995407104,-0.1220703050494194,0.6408690810203552,100.0,147002.0,1.0
14:59:58.180030,177056.578125,182894.140625,196367.328125,174822.75,173221.203125,194771.859375,688264.875,173216.109375,0.0654296875,0.987060546875,-0.208251953125,-1.7395018339157104,-0.1525878757238388,0.6103515028953552,100.0,147003.0,1.0
14:59:58.181847,177128.375,182903.078125,196384.140625,174818.015625,173225.046875,194818.625,688507.1875,173215.203125,0.067626953125,0.988525390625,-0.208251953125,-1.6784666776657104,-0.1220703050494194,0.6103515028953552,100.0,147004.0,1.0
14:59:58.190039,177079.015625,182895.296875,196373.859375,174820.0625,173223.25,194803.59375,688616.875,173213.59375,0.067626953125,0.988037109375,-0.20703125,-1.7089842557907104,-0.2441406100988388,0.5798339247703552,100.0,147005.0,1.0
14:59:58.190061,177018.5,182881.890625,196358.390625,174824.625,173216.640625,194746.734375,688433.3125,173214.578125,0.068603515625,0.98779296875,-0.208984375,-1.8005369901657104,-0.2441406100988388,0.4882812201976776,100.0,147006.0,1.0
14:59:58.200126,177047.46875,182895.484375,196370.90625,174828.734375,173220.578125,194758.265625,688239.6875,173216.46875,0.069580078125,0.987548828125,-0.206787109375,-1.6784666776657104,-0.2136230319738388,0.4577636420726776,100.0,147007.0,1.0
14:59:58.200142,177141.703125,182915.859375,196395.9375,174827.3125,173228.359375,194816.03125,688455.0625,173217.4375,0.072265625,0.987548828125,-0.20556640625,-1.8005369901657104,-0.1831054538488388,0.3356933295726776,100.0,147008.0,1.0
14:59:58.202540,177106.734375,182915.15625,196391.375,174829.09375,173230.234375,194817.71875,688620.5625,173216.90625,0.071533203125,0.988037109375,-0.2060546875,-1.8005369901657104,-0.1831054538488388,0.4272460639476776,100.0,147009.0,1.0
14:59:58.202554,177034.40625,182891.375,196364.203125,174827.125,173214.5,194748.796875,688467.625,173212.4375,0.07275390625,0.989501953125,-0.20654296875,-1.8615721464157104,-0.03051757626235485,0.3662109076976776,100.0,147010.0,1.0
14:59:58.208191,177025.28125,182887.078125,196357.84375,174819.171875,173205.734375,194738.0625,688245.8125,173205.46875,0.0712890625,0.98974609375,-0.203857421875,-1.9531248807907104,-0.03051757626235485,0.4882812201976776,100.0,147011.0,1.0
14:59:58.214460,177117.109375,182894.671875,196374.65625,174812.375,173207.34375,194784.375,688410.3125,173202.875,0.070556640625,0.9892578125,-0.20458984375,-2.044677495956421,0.0,0.4272460639476776,100.0,147012.0,1.0
14:59:58.221255,177094.578125,182890.390625,196369.65625,174811.296875,173207.34375,194792.953125,688605.5,173199.5625,0.071533203125,0.989501953125,-0.207763671875,-2.044677495956421,0.0915527269244194,0.3967284858226776,100.0,147013.0,1.0
14:59:58.221264,177020.109375,182867.59375,196346.140625,174810.859375,173195.0,194730.28125,688510.5,173197.421875,0.06982421875,0.989501953125,-0.205078125,-1.9836424589157104,0.1220703050494194,0.3967284858226776,100.0,147014.0,1.0
14:59:58.228304,177000.609375,182871.15625,196343.28125,174811.921875,173192.40625,194712.40625,688278.4375,173197.15625,0.06884765625,0.988525390625,-0.2080078125,-2.105712652206421,0.1831054538488388,0.4577636420726776,100.0,147015.0,1.0
14:59:58.238805,177095.828125,182887.96875,196362.765625,174805.21875,173194.640625,194766.5,688376.875,173195.0,0.069580078125,0.9873046875,-0.206787109375,-2.136230230331421,0.2136230319738388,0.4882812201976776,100.0,147016.0,1.0
14:59:58.238925,177103.96875,182895.921875,196370.09375,174806.125,173202.25,194800.5625,688617.875,173195.71875,0.06982421875,0.9892578125,-0.205810546875,-2.136230230331421,0.2441406100988388,0.4577636420726776,100.0,147017.0,1.0
14:59:58.241306,177035.296875,182881.890625,196352.390625,174809.78125,173197.78125,194752.640625,688561.6875,173196.171875,0.06787109375,0.988525390625,-0.205322265625,-1.9836424589157104,0.2746581733226776,0.4272460639476776,100.0,147018.0,1.0
14:59:58.241328,177000.703125,182884.3125,196347.203125,174812.203125,173197.78125,194728.578125,688324.5,173196.875,0.068359375,0.989501953125,-0.20556640625,-2.075195074081421,0.2441406100988388,0.5493163466453552,100.0,147019.0,1.0
14:59:58.246921,177088.3125,182902.359375,196371.265625,174809.875,173208.421875,194781.328125,688328.375,173201.703125,0.068603515625,0.990966796875,-0.204345703125,-2.014159917831421,0.2746581733226776,0.4577636420726776,100.0,147020.0,1.0
14:59:58.257559,177121.046875,182910.953125,196386.28125,174812.46875,173222.625,194827.921875,688591.125,173207.34375,0.06689453125,0.98974609375,-0.203369140625,-2.014159917831421,0.3356933295726776,0.3662109076976776,100.0,147021.0,1.0
14:59:58.257572,177056.578125,182896.5625,196370.640625,174818.1875,173220.84375,194788.40625,688591.8125,173211.28125,0.068359375,0.990234375,-0.204345703125,-2.136230230331421,0.3967284858226776,0.3967284858226776,100.0,147022.0,1.0
14:59:58.259960,177011.875,182892.796875,196363.296875,174825.875,173218.078125,194746.5625,688357.25,173215.390625,0.06787109375,0.98974609375,-0.201904296875,-2.105712652206421,0.2441406100988388,0.3662109076976776,100.0,147023.0,1.0
14:59:58.259972,177086.4375,182907.640625,196386.375,174832.21875,173227.640625,194782.9375,688295.875,173225.84375,0.06640625,0.991943359375,-0.20458984375,-2.136230230331421,0.1831054538488388,0.4882812201976776,100.0,147024.0,1.0
14:59:58.269519,177141.875,182917.390625,196401.03125,174833.5625,173234.609375,194831.3125,688559.4375,173226.828125,0.066162109375,0.990478515625,-0.203369140625,-2.166747808456421,0.2441406100988388,0.4577636420726776,100.0,147025.0,1.0
14:59:58.272536,177079.203125,182903.265625,196383.328125,174830.53125,173229.0625,194802.609375,688617.3125,173223.875,0.06591796875,0.989990234375,-0.199462890625,-2.166747808456421,0.1831054538488388,0.5187987685203552,100.0,147026.0,1.0
14:59:58.272544,177016.078125,182886.0,196361.96875,174829.359375,173217.09375,194746.375,688406.375,173222.265625,0.06640625,0.990966796875,-0.2001953125,-2.227782964706421,0.2136230319738388,0.5798339247703552,100.0,147027.0,1.0
14:59:58.280716,177057.5625,182893.6875,196369.734375,174826.328125,173213.953125,194766.3125,688262.25,173218.96875,0.065185546875,0.99169921875,-0.200927734375,-2.136230230331421,0.1831054538488388,0.5798339247703552,100.0,147028.0,1.0
14:59:58.291245,177128.203125,182900.578125,196382.078125,174819.53125,173212.703125,194811.640625,688505.1875,173212.4375,0.06591796875,0.99072265625,-0.198486328125,-2.197265386581421,0.0610351525247097,0.6713866591453552,100.0,147029.0,1.0
14:59:58.291255,177084.75,182901.5625,196377.34375,174826.765625,173216.375,194804.40625,688617.3125,173215.390625,0.06787109375,0.989501953125,-0.19970703125,-2.258300542831421,-0.03051757626235485,0.5493163466453552,100.0,147030.0,1.0
14:59:58.293858,177025.90625,182888.78125,196362.59375,174831.78125,173211.984375,194746.640625,688441.1875,173216.734375,0.066162109375,0.987060546875,-0.201171875,-2.258300542831421,-0.03051757626235485,0.4882812201976776,100.0,147031.0,1.0
14:59:58.293866,177047.109375,182900.40625,196371.53125,174831.78125,173216.28125,194761.046875,688250.6875,173219.859375,0.06689453125,0.987548828125,-0.20068359375,-2.197265386581421,0.0,0.5493163466453552,100.0,147032.0,1.0
14:59:58.299523,177140.984375,182916.140625,196394.6875,174831.328125,173225.40625,194819.0625,688468.4375,173222.90625,0.06640625,0.9892578125,-0.2001953125,-2.136230230331421,-0.03051757626235485,0.7019042372703552,100.0,147033.0,1.0
14:59:58.309989,177104.953125,182914.171875,196387.265625,174827.390625,173226.296875,194821.296875,688630.75,173217.171875,0.066650390625,0.986328125,-0.201171875,-2.105712652206421,-0.03051757626235485,0.5798339247703552,100.0,147034.0,1.0
14:59:58.309997,177029.21875,182887.53125,196359.015625,174822.84375,173210.375,194750.40625,688487.75,173215.125,0.0673828125,0.986572265625,-0.20068359375,-2.014159917831421,0.03051757626235485,0.5798339247703552,100.0,147035.0,1.0
14:59:58.316469,177027.25,182891.453125,196364.375,174827.84375,173213.421875,194745.03125,688262.75,173223.171875,0.06689453125,0.98779296875,-0.201171875,-1.9531248807907104,0.0,0.6713866591453552,100.0,147036.0,1.0
14:59:58.316501,177115.140625,182900.3125,196379.03125,174817.921875,173212.265625,194791.96875,688418.5,173218.78125,0.06884765625,0.9873046875,-0.200439453125,-1.8310545682907104,0.0,0.6103515028953552,100.0,147037.0,1.0
14:59:58.323818,177099.5,182899.234375,196377.25,174818.90625,173213.25,194803.421875,688622.5,173216.546875,0.067626953125,0.986083984375,-0.19970703125,-1.8005369901657104,0.03051757626235485,0.6103515028953552,100.0,147038.0,1.0
14:59:58.323878,177033.0625,182884.578125,196360.0,174825.34375,173206.8125,194747.546875,688517.6875,173219.859375,0.067138671875,0.986328125,-0.19775390625,-1.7395018339157104,-0.0915527269244194,0.5493163466453552,100.0,147039.0,1.0
14:59:58.329946,177015.359375,182891.546875,196360.625,174829.453125,173208.328125,194736.28125,688273.1875,173220.9375,0.066162109375,0.988037109375,-0.197509765625,-1.6784666776657104,-0.0915527269244194,0.5798339247703552,100.0,147040.0,1.0
14:59:58.329952,177117.28125,182916.9375,196387.796875,174829.359375,173217.71875,194794.84375,688355.8125,173224.59375,0.068115234375,0.985107421875,-0.197509765625,-1.6784666776657104,-0.1525878757238388,0.6103515028953552,100.0,147041.0,1.0
14:59:58.339438,177131.5,182924.984375,196397.71875,174832.5,173228.171875,194829.96875,688597.1875,173225.578125,0.0693359375,0.98486328125,-0.196533203125,-1.6174315214157104,-0.1220703050494194,0.5798339247703552,100.0,147042.0,1.0
14:59:58.346407,177062.03125,182905.9375,196377.703125,174835.171875,173222.0,194777.21875,688552.5,173224.421875,0.07080078125,0.985595703125,-0.19873046875,-1.4648436307907104,-0.1220703050494194,0.5187987685203552,100.0,147043.0,1.0
14:59:58.346421,177025.640625,182906.5625,196372.515625,174840.8125,173222.984375,194749.234375,688308.875,173228.359375,0.0712890625,0.984375,-0.197509765625,-1.2207030057907104,-0.0915527269244194,0.6408690810203552,100.0,147044.0,1.0
14:59:58.346423,177105.484375,182918.015625,196390.484375,174835.890625,173226.75,194793.3125,688303.5625,173230.59375,0.07080078125,0.985595703125,-0.198974609375,-1.3122557401657104,-0.1831054538488388,0.6103515028953552,100.0,147045.0,1.0
14:59:58.351889,177140.71875,182931.0625,196401.21875,174834.28125,173235.140625,194839.359375,688567.875,173230.5,0.071044921875,0.988037109375,-0.198486328125,-1.3122557401657104,-0.1831054538488388,0.7324218153953552,100.0,147046.0,1.0
14:59:58.356230,177082.234375,182922.84375,196392.625,174847.15625,173239.4375,194807.625,688587.1875,173240.875,0.0712890625,0.9873046875,-0.19873046875,-1.2817381620407104,-0.1525878757238388,0.6713866591453552,100.0,147047.0,1.0
14:59:58.356238,177028.5,182904.78125,196377.421875,174850.28125,173232.828125,194759.34375,688357.3125,173242.75,0.0703125,0.989501953125,-0.201171875,-1.1291502714157104,-0.0610351525247097,0.6103515028953552,100.0,147048.0,1.0
14:59:58.370706,177090.46875,182916.21875,196388.6875,174843.046875,173233.265625,194792.515625,688267.3125,173238.984375,0.067138671875,0.9921875,-0.196533203125,-1.1596678495407104,-0.0915527269244194,0.4577636420726776,100.0,147049.0,1.0
14:59:58.373783,177155.375,182930.703125,196405.5,174842.859375,173240.953125,194840.875,688528.4375,173237.65625,0.06884765625,0.989501953125,-0.19580078125,-1.4038084745407104,-0.1220703050494194,0.4577636420726776,100.0,147050.0,1.0
14:59:58.373796,177099.9375,182921.234375,196392.1875,174844.390625,173239.265625,194814.859375,688601.0625,173235.6875,0.06982421875,0.984619140625,-0.2001953125,-1.2207030057907104,-0.0610351525247097,0.4882812201976776,100.0,147051.0,1.0
14:59:58.380179,177037.71875,182906.390625,196372.421875,174842.328125,173226.75,194756.75,688389.75,173231.578125,0.068115234375,0.98486328125,-0.202880859375,-1.1291502714157104,0.03051757626235485,0.4882812201976776,100.0,147052.0,1.0
14:59:58.380198,177076.875,182916.9375,196383.59375,174841.171875,173227.71875,194777.484375,688241.375,173232.828125,0.068359375,0.984619140625,-0.201904296875,-1.0070799589157104,-0.0610351525247097,0.4577636420726776,100.0,147053.0,1.0
14:59:58.420026,177149.5625,182924.71875,196397.546875,174835.078125,173230.046875,194824.34375,688483.1875,173227.71875,0.0693359375,0.985595703125,-0.20263671875,-0.8544921278953552,-0.03051757626235485,0.4272460639476776,100.0,147054.0,1.0
14:59:58.420040,177105.390625,182922.75,196391.828125,174841.25,173233.890625,194816.390625,688597.625,173229.6875,0.06884765625,0.988037109375,-0.1982421875,-0.8239745497703552,0.03051757626235485,0.3356933295726776,100.0,147055.0,1.0
14:59:58.432652,177040.9375,182901.296875,196371.171875,174842.78125,173223.875,194750.140625,688437.4375,173227.90625,0.067626953125,0.9921875,-0.197509765625,-0.8544921278953552,0.0610351525247097,0.2441406100988388,100.0,147056.0,1.0
14:59:58.432660,177060.25,182912.015625,196379.125,174846.53125,173226.828125,194759.609375,688240.75,173233.453125,0.067138671875,0.993408203125,-0.201904296875,-0.8239745497703552,0.1220703050494194,0.3356933295726776,100.0,147057.0,1.0
14:59:58.432661,177141.25,182914.4375,196388.96875,174837.765625,173223.171875,194807.265625,688439.8125,173227.71875,0.0673828125,0.990966796875,-0.199462890625,-0.8544921278953552,0.0,0.3662109076976776,100.0,147058.0,1.0
14:59:58.434969,177101.734375,182905.9375,196376.890625,174830.703125,173217.09375,194806.109375,688602.5625,173220.484375,0.066650390625,0.98876953125,-0.2001953125,-0.9765624403953552,0.0610351525247097,0.3356933295726776,100.0,147059.0,1.0
14:59:58.434973,177032.4375,182883.40625,196353.296875,174828.828125,173204.484375,194741.734375,688475.875,173218.96875,0.069091796875,0.99072265625,-0.201171875,-1.0070799589157104,0.1525878757238388,0.3051757514476776,100.0,147060.0,1.0
14:59:58.434974,177032.171875,182897.890625,196359.640625,174831.953125,173210.65625,194750.140625,688251.75,173222.71875,0.0693359375,0.991455078125,-0.201416015625,-0.9460448622703552,0.1525878757238388,0.3662109076976776,100.0,147061.0,1.0
14:59:58.436931,177135.265625,182919.4375,196386.734375,174831.421875,173222.546875,194813.4375,688399.0,173227.71875,0.0673828125,0.989013671875,-0.201904296875,-0.9460448622703552,0.0915527269244194,0.3051757514476776,100.0,147062.0,1.0
14:59:58.439419,177129.359375,182929.8125,196393.515625,174836.609375,173232.90625,194842.3125,688628.0625,173231.65625,0.067626953125,0.990478515625,-0.20068359375,-0.9460448622703552,0.0915527269244194,0.3967284858226776,100.0,147063.0,1.0
14:59:58.441889,177058.28125,182907.109375,196373.671875,174841.515625,173226.390625,194785.453125,688542.375,173239.078125,0.068115234375,0.99072265625,-0.200439453125,-0.9765624403953552,0.1525878757238388,0.4577636420726776,100.0,147064.0,1.0
14:59:58.444595,177034.59375,182905.578125,196370.09375,174840.09375,173224.328125,194761.21875,688308.5,173231.390625,0.06982421875,0.990478515625,-0.206298828125,-1.0681151151657104,0.1831054538488388,0.4882812201976776,100.0,147065.0,1.0
14:59:58.446919,177131.59375,182924.71875,196394.140625,174838.21875,173231.578125,194814.140625,688377.0,173233.265625,0.0654296875,0.99072265625,-0.203369140625,-1.0681151151657104,0.1831054538488388,0.5187987685203552,100.0,147066.0,1.0
14:59:58.449509,177143.125,182931.328125,196398.890625,174836.609375,173236.75,194846.328125,688612.9375,173231.21875,0.0654296875,0.99072265625,-0.204345703125,-1.0070799589157104,0.2746581733226776,0.6103515028953552,100.0,147067.0,1.0
14:59:58.451969,177079.734375,182919.0,196385.296875,174846.265625,173235.421875,194801.1875,688577.6875,173238.015625,0.06640625,0.98974609375,-0.202880859375,-1.0681151151657104,0.3051757514476776,0.6103515028953552,100.0,147068.0,1.0
14:59:58.454390,177045.40625,182918.734375,196380.921875,174850.46875,173234.875,194769.4375,688335.0625,173239.890625,0.066162109375,0.99169921875,-0.201416015625,-1.0986326932907104,0.2136230319738388,0.6713866591453552,100.0,147069.0,1.0
14:59:58.456862,177130.4375,182937.140625,196404.609375,174851.71875,173242.390625,194815.21875,688321.3125,173245.25,0.06494140625,0.989990234375,-0.2041015625,-1.0986326932907104,0.2746581733226776,0.7324218153953552,100.0,147070.0,1.0
14:59:58.460001,177166.1875,182945.28125,196418.109375,174852.25,173250.25,194860.015625,688581.1875,173247.484375,0.062744140625,0.989990234375,-0.200927734375,-1.2207030057907104,0.2441406100988388,0.8544921278953552,100.0,147071.0,1.0
14:59:58.460009,177092.609375,182916.3125,196393.078125,174847.78125,173238.71875,194810.296875,688585.6875,173242.65625,0.061279296875,0.991943359375,-0.20556640625,-1.2817381620407104,0.1220703050494194,0.8239745497703552,100.0,147072.0,1.0
14:59:58.461859,177041.734375,182904.6875,196379.390625,174852.96875,173234.609375,194760.5,688352.6875,173244.625,0.061279296875,0.99365234375,-0.205322265625,-1.2817381620407104,0.1525878757238388,0.8239745497703552,100.0,147073.0,1.0
14:59:58.464413,177106.46875,182921.59375,196399.15625,174856.0,173242.203125,194798.765625,688259.0,173248.921875,0.06298828125,0.990478515625,-0.202880859375,-1.2207030057907104,0.0915527269244194,0.8544921278953552,100.0,147074.0,1.0
14:59:58.472576,177170.65625,182937.5,196419.1875,174857.796875,173250.4375,194852.953125,688521.75,173250.078125,0.063232421875,0.989990234375,-0.201171875,-1.2817381620407104,0.0610351525247097,0.7934569716453552,100.0,147075.0,1.0
14:59:58.472591,177119.609375,182933.65625,196411.40625,174863.609375,173251.859375,194833.109375,688599.4375,173252.578125,0.065185546875,0.9892578125,-0.203125,-1.3427733182907104,0.0610351525247097,0.7019042372703552,100.0,147076.0,1.0
14:59:58.475023,177054.53125,182913.453125,196388.34375,174860.75,173237.921875,194769.625,688395.6875,173245.78125,0.06591796875,0.98876953125,-0.203369140625,-1.3427733182907104,-0.03051757626235485,0.7019042372703552,100.0,147077.0,1.0
14:59:58.475027,177092.703125,182915.328125,196396.5625,174858.0625,173236.671875,194783.03125,688243.875,173243.8125,0.067138671875,0.983154296875,-0.205078125,-1.3732908964157104,-0.0610351525247097,0.7934569716453552,100.0,147078.0,1.0
14:59:58.488254,177163.328125,182917.65625,196403.265625,174845.90625,173233.890625,194826.125,688500.4375,173234.078125,0.0693359375,0.980712890625,-0.20947265625,-1.2207030057907104,-0.1220703050494194,0.8544921278953552,100.0,147079.0,1.0
14:59:58.491235,177114.609375,182913.453125,196391.015625,174844.109375,173231.21875,194817.28125,688618.625,173230.859375,0.0693359375,0.987548828125,-0.2119140625,-1.0070799589157104,-0.03051757626235485,0.7324218153953552,100.0,147080.0,1.0
14:59:58.491256,177047.640625,182897.625,196369.375,174840.890625,173218.78125,194758.265625,688442.0625,173225.046875,0.072509765625,0.995361328125,-0.204833984375,-0.9765624403953552,0.03051757626235485,0.8544921278953552,100.0,147081.0,1.0
14:59:58.493206,177056.765625,182901.734375,196372.0625,174837.953125,173216.90625,194765.15625,688241.0,173222.453125,0.07470703125,0.998779296875,-0.2021484375,-1.0070799589157104,0.0,0.8239745497703552,100.0,147082.0,1.0
14:59:58.499420,177142.140625,182910.765625,196388.25,174829.8125,173221.375,194819.6875,688444.75,173223.609375,0.07666015625,0.998046875,-0.200439453125,-1.1901854276657104,0.1220703050494194,0.9460448622703552,100.0,147083.0,1.0
14:59:58.507547,177112.8125,182913.8125,196388.0625,174832.5,173230.671875,194832.484375,688622.5625,173227.640625,0.074951171875,0.992919921875,-0.2021484375,-1.4038084745407104,0.3051757514476776,1.0070799589157104,100.0,147084.0,1.0
14:59:58.507562,177047.640625,182899.953125,196372.421875,174837.5,173226.65625,194778.75,688493.125,173229.96875,0.07275390625,0.98779296875,-0.20556640625,-1.5258787870407104,0.3967284858226776,0.9765624403953552,100.0,147085.0,1.0
14:59:58.525038,177053.453125,182912.828125,196385.203125,174850.109375,173238.8125,194783.390625,688275.3125,173241.234375,0.069580078125,0.986572265625,-0.20947265625,-1.5258787870407104,0.3662109076976776,0.9460448622703552,100.0,147086.0,1.0
14:59:58.525063,177160.65625,182937.765625,196416.40625,174856.625,173251.328125,194843.921875,688412.6875,173250.609375,0.068603515625,0.984130859375,-0.20849609375,-1.5869139432907104,0.3967284858226776,1.0070799589157104,100.0,147087.0,1.0
14:59:58.527714,177154.921875,182945.28125,196417.75,174856.71875,173254.015625,194862.34375,688625.875,173248.640625,0.06884765625,0.98388671875,-0.2060546875,-1.5258787870407104,0.3356933295726776,0.9460448622703552,100.0,147088.0,1.0
14:59:58.527782,177088.765625,182927.84375,196398.4375,174861.1875,173244.71875,194804.84375,688532.9375,173249.984375,0.069091796875,0.98193359375,-0.204345703125,-1.3732908964157104,0.3967284858226776,0.8544921278953552,100.0,147089.0,1.0
14:59:58.529454,177057.921875,182921.234375,196389.328125,174861.109375,173237.109375,194776.234375,688282.5,173246.765625,0.06787109375,0.982666015625,-0.20654296875,-1.3732908964157104,0.3662109076976776,0.6713866591453552,100.0,147090.0,1.0
14:59:58.531937,177148.9375,182933.03125,196408.0,174856.625,173238.90625,194822.375,688346.875,173248.296875,0.069580078125,0.984130859375,-0.208984375,-1.3122557401657104,0.3967284858226776,0.5798339247703552,100.0,147091.0,1.0
14:59:58.534410,177168.96875,182945.109375,196417.65625,174858.875,173248.296875,194860.46875,688597.625,173250.4375,0.06689453125,0.98583984375,-0.209228515625,-1.3427733182907104,0.3356933295726776,0.5187987685203552,100.0,147092.0,1.0
14:59:58.549596,177097.0,182926.15625,196395.671875,174856.359375,173238.359375,194809.40625,688561.6875,173246.234375,0.067626953125,0.98828125,-0.208984375,-1.2512205839157104,0.2746581733226776,0.3967284858226776,100.0,147093.0,1.0
14:59:58.552657,177048.265625,182905.9375,196378.859375,174853.328125,173228.359375,194764.609375,688317.875,173242.65625,0.0703125,0.9892578125,-0.2099609375,-1.3122557401657104,0.3356933295726776,0.3662109076976776,100.0,147094.0,1.0
14:59:58.552722,177115.140625,182904.25,196385.390625,174839.640625,173220.9375,194791.96875,688291.6875,173235.234375,0.071533203125,0.9921875,-0.208984375,-1.4038084745407104,0.4272460639476776,0.2746581733226776,100.0,147095.0,1.0
14:59:58.552750,177144.828125,182912.46875,196391.015625,174830.34375,173222.984375,194835.34375,688553.6875,173227.453125,0.073486328125,0.99072265625,-0.206787109375,-1.4343260526657104,0.4577636420726776,0.2441406100988388,100.0,147096.0,1.0
14:59:58.554387,177079.109375,182903.265625,196373.765625,174827.84375,173219.234375,194803.859375,688587.375,173224.953125,0.073974609375,0.991943359375,-0.20849609375,-1.4343260526657104,0.4577636420726776,0.2441406100988388,100.0,147097.0,1.0
14:59:58.564506,177022.78125,182891.1875,196357.3125,174824.0,173212.890625,194755.59375,688369.6875,173220.84375,0.075927734375,0.989013671875,-0.210693359375,-1.4648436307907104,0.5493163466453552,0.1831054538488388,100.0,147098.0,1.0
14:59:58.567668,177080.453125,182900.125,196371.4375,174819.53125,173213.515625,194782.234375,688269.625,173216.734375,0.074951171875,0.98388671875,-0.212158203125,-1.5563963651657104,0.6408690810203552,0.1220703050494194,100.0,147099.0,1.0
14:59:58.567694,177145.890625,182916.671875,196390.484375,174818.1875,173220.03125,194832.65625,688536.5625,173213.6875,0.07421875,0.984619140625,-0.20947265625,-1.4953612089157104,0.6103515028953552,-0.0915527269244194,100.0,147100.0,1.0
14:59:58.569582,177100.296875,182918.453125,196387.359375,174830.53125,173224.859375,194815.484375,688610.1875,173220.03125,0.068359375,0.984619140625,-0.2109375,-1.4648436307907104,0.6103515028953552,-0.1831054538488388,100.0,147101.0,1.0
14:59:58.581377,177040.9375,182902.1875,196369.65625,174833.203125,173214.140625,194756.21875,688406.75,173220.03125,0.06640625,0.98486328125,-0.207763671875,-1.3732908964157104,0.6408690810203552,-0.3356933295726776,100.0,147102.0,1.0
14:59:58.581454,177080.265625,182912.015625,196380.921875,174838.84375,173217.4375,194776.78125,688242.8125,173224.59375,0.06689453125,0.987060546875,-0.20654296875,-1.4343260526657104,0.5493163466453552,-0.4882812201976776,100.0,147103.0,1.0
14:59:58.583794,177157.796875,182921.953125,196395.671875,174836.515625,173220.03125,194827.828125,688476.3125,173224.59375,0.06396484375,0.988037109375,-0.203369140625,-1.5258787870407104,0.5493163466453552,-0.6713866591453552,100.0,147104.0,1.0
14:59:58.583855,177116.390625,182922.578125,196390.65625,174841.703125,173225.84375,194829.078125,688613.3125,173228.625,0.063720703125,0.9892578125,-0.2060546875,-1.5869139432907104,0.4272460639476776,-0.7629393935203552,100.0,147105.0,1.0
14:59:58.589482,177046.921875,182899.953125,196367.953125,174842.59375,173216.375,194764.96875,688453.9375,173230.40625,0.063720703125,0.99267578125,-0.207763671875,-1.6174315214157104,0.4272460639476776,-0.9460448622703552,100.0,147106.0,1.0
14:59:58.602664,177053.890625,182904.609375,196370.015625,174841.4375,173217.796875,194771.40625,688249.375,173231.921875,0.06494140625,0.994873046875,-0.205078125,-1.6784666776657104,0.2441406100988388,-0.9155272841453552,100.0,147107.0,1.0
14:59:58.602697,177152.25,182923.109375,196395.578125,174842.953125,173230.859375,194835.34375,688459.625,173238.640625,0.067138671875,0.995849609375,-0.205810546875,-1.8310545682907104,0.1220703050494194,-1.1291502714157104,100.0,147108.0,1.0
14:59:58.605070,177124.265625,182926.5,196393.078125,174843.84375,173235.59375,194848.65625,688631.4375,173239.078125,0.068359375,0.9970703125,-0.2060546875,-1.7700194120407104,0.1220703050494194,-0.9765624403953552,100.0,147109.0,1.0
14:59:58.605136,177054.34375,182905.234375,196371.96875,174841.703125,173226.75,194785.09375,688497.875,173237.46875,0.068603515625,0.99560546875,-0.203857421875,-1.7395018339157104,0.0915527269244194,-0.9765624403953552,100.0,147110.0,1.0
14:59:58.631993,177043.4375,182903.0,196372.328125,174837.671875,173224.15625,194770.96875,688257.375,173232.640625,0.068115234375,0.996826171875,-0.20361328125,-1.8920897245407104,0.1525878757238388,-0.9765624403953552,100.0,147111.0,1.0
14:59:58.635051,177143.125,182919.890625,196398.171875,174836.0625,173229.875,194822.546875,688384.3125,173233.453125,0.069091796875,0.994873046875,-0.202392578125,-1.9836424589157104,0.2136230319738388,-0.7934569716453552,100.0,147112.0,1.0
14:59:58.635126,177143.9375,182931.6875,196408.8125,174843.75,173242.84375,194852.59375,688605.75,173240.6875,0.068359375,0.99365234375,-0.201904296875,-1.9836424589157104,0.1831054538488388,-0.6103515028953552,100.0,147113.0,1.0
14:59:58.635152,177073.296875,182909.96875,196385.203125,174844.828125,173231.84375,194791.890625,688524.3125,173240.953125,0.06787109375,0.993896484375,-0.205078125,-2.014159917831421,0.1525878757238388,-0.5187987685203552,100.0,147114.0,1.0
14:59:58.638714,177037.171875,182900.84375,196373.3125,174843.9375,173223.4375,194761.046875,688284.5625,173238.1875,0.067626953125,0.990234375,-0.20263671875,-2.136230230331421,0.1525878757238388,-0.3356933295726776,100.0,147115.0,1.0
14:59:58.638776,177127.125,182914.609375,196391.90625,174839.28125,173226.03125,194809.765625,688350.875,173237.828125,0.064697265625,0.990234375,-0.20166015625,-2.136230230331421,0.0610351525247097,-0.2441406100988388,100.0,147116.0,1.0
14:59:58.638807,177144.203125,182921.40625,196396.921875,174836.875,173229.421875,194842.765625,688604.4375,173235.765625,0.06396484375,0.989990234375,-0.201904296875,-2.227782964706421,0.0,-0.1525878757238388,100.0,147117.0,1.0
14:59:58.638829,177076.78125,182908.0,196380.734375,174841.96875,173226.921875,194798.40625,688576.875,173239.96875,0.063720703125,0.989990234375,-0.198486328125,-2.288818120956421,-0.0915527269244194,-0.0610351525247097,100.0,147118.0,1.0
14:59:58.640712,177023.59375,182891.1875,196360.53125,174835.265625,173214.765625,194752.375,688335.5,173232.109375,0.062255859375,0.990234375,-0.197265625,-2.380370855331421,-0.0610351525247097,0.1220703050494194,100.0,147119.0,1.0
14:59:58.648217,177093.78125,182895.484375,196370.359375,174823.90625,173211.1875,194784.828125,688302.4375,173224.953125,0.062255859375,0.98974609375,-0.19580078125,-2.380370855331421,-0.2136230319738388,0.2136230319738388,100.0,147120.0,1.0
14:59:58.655051,177138.203125,182909.34375,196384.5,174821.234375,173220.390625,194833.90625,688568.4375,173224.6875,0.062255859375,0.9912109375,-0.194580078125,-2.471923589706421,-0.2441406100988388,0.3662109076976776,100.0,147121.0,1.0
14:59:58.655117,177075.71875,182897.359375,196369.46875,174825.25,173219.5,194801.359375,688599.875,173224.59375,0.06396484375,0.99072265625,-0.197265625,-2.593993902206421,-0.2441406100988388,0.4577636420726776,100.0,147122.0,1.0
14:59:58.661397,177024.03125,182891.640625,196357.484375,174829.453125,173216.640625,194757.734375,688383.625,173226.46875,0.0625,0.989501953125,-0.19580078125,-2.502441167831421,-0.4272460639476776,0.3356933295726776,100.0,147123.0,1.0
14:59:58.661542,177086.890625,182912.640625,196378.234375,174834.640625,173228.4375,194795.90625,688282.5,173232.640625,0.06201171875,0.98876953125,-0.197021484375,-2.471923589706421,-0.5187987685203552,0.3967284858226776,100.0,147124.0,1.0
14:59:58.670776,177151.265625,182921.59375,196393.96875,174830.25,173233.890625,194844.09375,688539.0,173228.359375,0.0625,0.9873046875,-0.196044921875,-2.532958745956421,-0.5798339247703552,0.3662109076976776,100.0,147125.0,1.0
14:59:58.675037,177098.0625,182915.78125,196384.578125,174832.140625,173233.984375,194822.734375,688621.625,173226.5625,0.063232421875,0.986083984375,-0.198974609375,-2.563476324081421,-0.6408690810203552,0.3967284858226776,100.0,147126.0,1.0
14:59:58.675095,177043.34375,182906.125,196372.875,174841.34375,173231.21875,194770.078125,688423.9375,173232.109375,0.06494140625,0.987548828125,-0.19873046875,-2.471923589706421,-0.6103515028953552,0.2746581733226776,100.0,147127.0,1.0
14:59:58.685127,177077.6875,182912.828125,196381.90625,174841.34375,173232.375,194783.125,688263.0625,173234.796875,0.068115234375,0.98974609375,-0.196533203125,-2.319335699081421,-0.6408690810203552,0.2441406100988388,100.0,147128.0,1.0
14:59:58.685199,177164.046875,182927.125,196404.609375,174841.515625,173240.25,194836.953125,688511.375,173239.265625,0.070068359375,0.99169921875,-0.197509765625,-2.288818120956421,-0.6713866591453552,0.2441406100988388,100.0,147129.0,1.0
14:59:58.687607,177125.609375,182928.390625,196403.359375,174850.828125,173246.59375,194836.953125,688641.75,173246.0625,0.0732421875,0.993408203125,-0.194580078125,-2.349853277206421,-0.4882812201976776,0.2441406100988388,100.0,147130.0,1.0
14:59:58.687655,177060.78125,182909.96875,196385.65625,174856.0,173239.703125,194778.203125,688477.1875,173249.546875,0.07470703125,0.993896484375,-0.1904296875,-2.349853277206421,-0.4577636420726776,0.2746581733226776,100.0,147131.0,1.0
14:59:58.698238,177067.3125,182914.078125,196387.171875,174854.046875,173237.296875,194780.703125,688263.375,173246.859375,0.07421875,0.9912109375,-0.194580078125,-2.380370855331421,-0.3967284858226776,0.4882812201976776,100.0,147132.0,1.0
14:59:58.702556,177158.0625,182925.34375,196406.390625,174849.84375,173241.046875,194831.5,688444.75,173246.859375,0.072998046875,0.986572265625,-0.19677734375,-2.380370855331421,-0.3051757514476776,0.5493163466453552,100.0,147133.0,1.0
14:59:58.702589,177141.875,182935.359375,196413.109375,174861.546875,173252.9375,194853.046875,688630.25,173254.546875,0.07177734375,0.98388671875,-0.197021484375,-2.380370855331421,-0.2441406100988388,0.4882812201976776,100.0,147134.0,1.0
14:59:58.704410,177075.453125,182921.40625,196394.328125,174862.53125,173246.0625,194798.234375,688509.875,173255.171875,0.072265625,0.98095703125,-0.197509765625,-2.166747808456421,-0.1525878757238388,0.5187987685203552,100.0,147135.0,1.0
14:59:58.716923,177063.90625,182925.875,196394.78125,174859.9375,173245.96875,194789.921875,688278.5625,173252.21875,0.07177734375,0.980712890625,-0.1982421875,-2.014159917831421,-0.1525878757238388,0.4882812201976776,100.0,147136.0,1.0
14:59:58.721230,177158.234375,182939.5625,196414.0,174851.625,173246.40625,194839.453125,688409.25,173249.28125,0.071533203125,0.981689453125,-0.19970703125,-1.9836424589157104,-0.0915527269244194,0.5187987685203552,100.0,147137.0,1.0
14:59:58.721263,177152.875,182943.3125,196414.53125,174847.6875,173249.09375,194861.71875,688625.1875,173245.34375,0.06982421875,0.981201171875,-0.19970703125,-1.7700194120407104,0.0,0.5187987685203552,100.0,147138.0,1.0
14:59:58.721272,177076.609375,182914.53125,196386.734375,174842.140625,173234.078125,194796.890625,688545.625,173239.703125,0.070556640625,0.98291015625,-0.197509765625,-1.6174315214157104,0.0,0.5493163466453552,100.0,147139.0,1.0
14:59:58.728219,177045.3125,182908.890625,196380.375,174846.265625,173234.875,194770.515625,688310.125,173242.03125,0.06884765625,0.984375,-0.19775390625,-1.4648436307907104,0.03051757626235485,0.6103515028953552,100.0,147140.0,1.0
14:59:58.736228,177130.34375,182916.5,196395.484375,174840.71875,173236.75,194811.015625,688358.125,173238.1875,0.066162109375,0.983154296875,-0.19873046875,-1.2817381620407104,0.1220703050494194,0.5798339247703552,100.0,147141.0,1.0
14:59:58.736254,177136.328125,182911.75,196388.96875,174826.953125,173231.21875,194834.625,688599.1875,173226.203125,0.06640625,0.982666015625,-0.201416015625,-1.0986326932907104,0.03051757626235485,0.6103515028953552,100.0,147142.0,1.0
14:59:58.738764,177066.59375,182897.0,196367.59375,174827.21875,173223.875,194791.4375,688572.5,173228.53125,0.0673828125,0.9853515625,-0.20166015625,-0.9765624403953552,0.03051757626235485,0.4882812201976776,100.0,147143.0,1.0
14:59:58.738788,177023.40625,182892.703125,196357.84375,174832.046875,173220.125,194753.265625,688338.75,173230.765625,0.0654296875,0.985107421875,-0.203125,-0.8239745497703552,0.03051757626235485,0.4272460639476776,100.0,147144.0,1.0
14:59:58.749525,177097.703125,182904.609375,196375.109375,174829.359375,173223.25,194790.8125,688294.1875,173231.296875,0.066162109375,0.98583984375,-0.20361328125,-0.7019042372703552,0.03051757626235485,0.3967284858226776,100.0,147145.0,1.0
14:59:58.787544,177144.828125,182922.03125,196389.234375,174829.1875,173232.015625,194841.953125,688552.9375,173229.875,0.065673828125,0.986572265625,-0.201416015625,-0.6103515028953552,-0.1220703050494194,0.2746581733226776,100.0,147146.0,1.0
14:59:58.787559,177084.125,182913.1875,196375.46875,174834.90625,173228.796875,194810.578125,688588.375,173229.875,0.065673828125,0.990234375,-0.20263671875,-0.4272460639476776,-0.1525878757238388,0.1220703050494194,100.0,147147.0,1.0
14:59:58.804462,177034.234375,182902.546875,196362.859375,174838.578125,173224.328125,194763.09375,688376.4375,173231.21875,0.063720703125,0.9912109375,-0.19970703125,-0.3051757514476776,-0.1831054538488388,0.2441406100988388,100.0,147148.0,1.0
14:59:58.807018,177094.75,182918.90625,196382.96875,174840.265625,173233.453125,194797.96875,688260.9375,173233.09375,0.063720703125,0.99365234375,-0.197265625,-0.4272460639476776,-0.1831054538488388,0.3051757514476776,100.0,147149.0,1.0
14:59:58.809472,177166.109375,182937.234375,196404.875,174841.515625,173244.625,194857.515625,688517.25,173236.84375,0.061767578125,0.993408203125,-0.199462890625,-0.4577636420726776,-0.1831054538488388,0.3051757514476776,100.0,147150.0,1.0
14:59:58.812004,177106.109375,182922.484375,196386.28125,174836.6875,173236.84375,194831.5,688611.75,173232.828125,0.062255859375,0.99267578125,-0.2001953125,-0.4272460639476776,-0.3356933295726776,0.3051757514476776,100.0,147151.0,1.0
14:59:58.814606,177040.671875,182904.609375,196365.265625,174837.234375,173227.09375,194770.34375,688423.5625,173233.265625,0.0634765625,0.9951171875,-0.197998046875,-0.4882812201976776,-0.3967284858226776,0.3662109076976776,100.0,147152.0,1.0
14:59:58.816957,177076.703125,182916.5,196383.15625,174846.0,173238.015625,194793.671875,688253.8125,173245.15625,0.062744140625,0.99365234375,-0.199462890625,-0.3967284858226776,-0.4882812201976776,0.3662109076976776,100.0,147153.0,1.0
14:59:58.819406,177155.46875,182919.625,196398.703125,174839.015625,173239.96875,194840.609375,688485.875,173240.421875,0.061767578125,0.991943359375,-0.202392578125,-0.3967284858226776,-0.5187987685203552,0.3051757514476776,100.0,147154.0,1.0
14:59:58.821944,177110.140625,182913.984375,196389.234375,174840.453125,173237.734375,194832.390625,688619.5625,173235.421875,0.064208984375,0.992431640625,-0.20263671875,-0.4272460639476776,-0.6103515028953552,0.2441406100988388,100.0,147155.0,1.0
14:59:58.824448,177047.1875,182901.734375,196371.890625,174843.671875,173231.03125,194776.328125,688461.375,173237.296875,0.063720703125,0.99365234375,-0.2041015625,-0.3967284858226776,-0.6103515028953552,0.2746581733226776,100.0,147156.0,1.0
14:59:58.826925,177054.34375,182906.484375,196376.453125,174842.78125,173232.015625,194777.765625,688241.375,173236.9375,0.065673828125,0.995849609375,-0.20166015625,-0.4577636420726776,-0.7324218153953552,0.4272460639476776,100.0,147157.0,1.0
14:59:58.829410,177148.40625,182920.15625,196396.65625,174837.234375,173236.125,194832.03125,688413.3125,173236.21875,0.0654296875,0.994873046875,-0.20166015625,-0.5493163466453552,-0.8239745497703552,0.3967284858226776,100.0,147158.0,1.0
14:59:58.831946,177128.375,182925.25,196397.015625,174840.625,173240.515625,194847.234375,688606.25,173237.375,0.064453125,0.992919921875,-0.201171875,-0.7019042372703552,-0.7629393935203552,0.3967284858226776,100.0,147159.0,1.0
14:59:58.834462,177062.84375,182903.53125,196374.5625,174842.59375,173229.875,194782.765625,688487.6875,173237.46875,0.066162109375,0.990234375,-0.202392578125,-0.7019042372703552,-0.7934569716453552,0.4577636420726776,100.0,147160.0,1.0
14:59:58.836885,177047.640625,182901.296875,196369.734375,174842.6875,173226.109375,194767.296875,688249.75,173237.5625,0.065185546875,0.98828125,-0.199951171875,-0.7934569716453552,-0.8239745497703552,0.3356933295726776,100.0,147161.0,1.0
14:59:58.839449,177144.921875,182916.84375,196393.34375,174843.484375,173233.359375,194820.859375,688380.9375,173244.265625,0.068359375,0.986328125,-0.20263671875,-0.8239745497703552,-0.8544921278953552,0.3662109076976776,100.0,147162.0,1.0
14:59:58.842528,177143.84375,182924.625,196398.265625,174845.015625,173241.5,194848.75,688606.4375,173244.0,0.069091796875,0.988037109375,-0.20556640625,-0.7324218153953552,-0.8850097060203552,0.4577636420726776,100.0,147163.0,1.0
14:59:58.842538,177071.421875,182903.96875,196375.375,174844.203125,173233.0,194793.5,688530.875,173242.03125,0.070556640625,0.990234375,-0.205322265625,-0.6713866591453552,-0.8544921278953552,0.4882812201976776,100.0,147164.0,1.0
14:59:58.845109,177035.21875,182895.921875,196366.4375,174842.6875,173228.53125,194761.125,688284.75,173237.921875,0.072998046875,0.990966796875,-0.2041015625,-0.6408690810203552,-0.7629393935203552,0.5493163466453552,100.0,147165.0,1.0
14:59:58.845116,177122.65625,182905.046875,196384.21875,174836.875,173231.65625,194803.328125,688328.375,173237.46875,0.0712890625,0.98974609375,-0.202880859375,-0.7019042372703552,-0.6103515028953552,0.4882812201976776,100.0,147166.0,1.0
14:59:58.847556,177143.65625,182916.5,196391.90625,174835.625,173239.265625,194841.59375,688586.125,173237.109375,0.0712890625,0.987548828125,-0.203125,-0.7629393935203552,-0.5493163466453552,0.5798339247703552,100.0,147167.0,1.0
14:59:58.847562,177071.953125,182897.890625,196369.203125,174834.8125,173229.96875,194796.53125,688568.0625,173233.890625,0.07080078125,0.984130859375,-0.204833984375,-0.8544921278953552,-0.4882812201976776,0.6103515028953552,100.0,147168.0,1.0
14:59:58.849422,177016.265625,182882.78125,196347.75,174826.234375,173215.5625,194748.4375,688334.1875,173222.71875,0.070556640625,0.984619140625,-0.20654296875,-0.7934569716453552,-0.4577636420726776,0.6103515028953552,100.0,147169.0,1.0
14:59:58.852616,177086.890625,182895.21875,196361.875,174821.046875,173214.765625,194782.671875,688292.75,173219.59375,0.07080078125,0.984619140625,-0.207275390625,-0.8544921278953552,-0.4272460639476776,0.6103515028953552,100.0,147170.0,1.0
14:59:58.852621,177137.3125,182912.5625,196379.390625,174824.0,173225.046875,194831.9375,688566.0,173221.015625,0.067138671875,0.986572265625,-0.20654296875,-0.8544921278953552,-0.3967284858226776,0.4882812201976776,100.0,147171.0,1.0
14:59:58.854654,177079.296875,182903.796875,196366.15625,174827.671875,173222.984375,194801.1875,688601.6875,173221.109375,0.06689453125,0.9873046875,-0.205322265625,-0.8239745497703552,-0.3356933295726776,0.4577636420726776,100.0,147172.0,1.0
14:59:58.863805,177021.71875,182884.390625,196350.078125,174829.359375,173216.546875,194745.9375,688379.3125,173221.109375,0.06591796875,0.989013671875,-0.205322265625,-0.9460448622703552,-0.3356933295726776,0.3356933295726776,100.0,147173.0,1.0
14:59:58.863818,177077.59375,182894.671875,196369.5625,174833.921875,173225.765625,194776.328125,688253.9375,173229.421875,0.06591796875,0.98828125,-0.205078125,-0.9765624403953552,-0.2746581733226776,0.1525878757238388,100.0,147174.0,1.0
14:59:58.870112,177157.34375,182917.46875,196396.390625,174841.25,173241.9375,194837.578125,688518.3125,173239.96875,0.0654296875,0.990234375,-0.208984375,-0.9765624403953552,-0.3356933295726776,0.0610351525247097,100.0,147175.0,1.0
14:59:58.870129,177113.984375,182921.234375,196394.59375,174853.5,173249.09375,194830.234375,688628.3125,173249.453125,0.0673828125,0.98876953125,-0.207763671875,-1.0070799589157104,-0.3662109076976776,0.0610351525247097,100.0,147176.0,1.0
14:59:58.871991,177051.84375,182904.515625,196375.1875,174853.5,173238.359375,194770.34375,688429.8125,173248.203125,0.067626953125,0.98974609375,-0.2080078125,-1.1596678495407104,-0.2746581733226776,0.0610351525247097,100.0,147177.0,1.0
14:59:58.887695,177079.46875,182908.984375,196382.609375,174850.28125,173236.9375,194781.328125,688246.8125,173248.5625,0.06591796875,0.988037109375,-0.207275390625,-1.1901854276657104,-0.3356933295726776,-0.0915527269244194,100.0,147178.0,1.0
14:59:58.887713,177157.34375,182917.65625,196395.3125,174843.40625,173235.59375,194831.3125,688467.125,173243.640625,0.067138671875,0.98974609375,-0.210205078125,-1.1901854276657104,-0.3356933295726776,-0.0915527269244194,100.0,147179.0,1.0
14:59:58.889460,177115.140625,182912.921875,196385.46875,174845.640625,173233.53125,194828.1875,688611.75,173242.5625,0.06494140625,0.9921875,-0.208740234375,-1.1596678495407104,-0.3051757514476776,0.03051757626235485,100.0,147180.0,1.0
14:59:58.891946,177052.28125,182895.65625,196365.359375,174848.671875,173222.71875,194768.375,688466.1875,173243.734375,0.06640625,0.991455078125,-0.205810546875,-1.1901854276657104,-0.2441406100988388,0.0,100.0,147181.0,1.0
14:59:58.894538,177055.953125,182901.921875,196367.953125,174847.609375,173218.703125,194768.015625,688246.8125,173238.90625,0.065673828125,0.99169921875,-0.2080078125,-1.2817381620407104,-0.1525878757238388,-0.03051757626235485,100.0,147182.0,1.0
14:59:58.900301,177150.90625,182916.21875,196388.96875,174840.359375,173223.25,194819.953125,688426.8125,173237.46875,0.068359375,0.992919921875,-0.20654296875,-1.2207030057907104,-0.1525878757238388,0.0610351525247097,100.0,147183.0,1.0
14:59:58.900313,177129.625,182922.03125,196389.234375,174841.515625,173229.328125,194837.125,688614.875,173236.21875,0.068603515625,0.991455078125,-0.205078125,-1.3122557401657104,-0.03051757626235485,0.1831054538488388,100.0,147184.0,1.0
14:59:58.909435,177057.75,182897.984375,196364.28125,174837.234375,173215.125,194770.515625,688496.5,173229.96875,0.06591796875,0.9912109375,-0.2060546875,-1.3122557401657104,0.03051757626235485,0.1831054538488388,100.0,147185.0,1.0
14:59:58.916213,177043.078125,182899.328125,196364.828125,174841.25,173216.109375,194756.390625,688264.0625,173233.09375,0.06640625,0.990966796875,-0.20947265625,-1.4038084745407104,0.03051757626235485,0.3356933295726776,100.0,147186.0,1.0
14:59:58.916222,177134.359375,182909.25,196382.25,174835.265625,173219.5,194802.609375,688378.0,173232.203125,0.064697265625,0.992919921875,-0.207275390625,-1.4953612089157104,0.0915527269244194,0.3051757514476776,100.0,147187.0,1.0
14:59:58.918846,177129.8125,182912.734375,196381.625,174830.609375,173221.921875,194823.890625,688603.875,173227.71875,0.065185546875,0.991943359375,-0.2099609375,-1.5869139432907104,0.1831054538488388,0.3356933295726776,100.0,147188.0,1.0
14:59:58.918858,177058.1875,182889.84375,196356.421875,174830.703125,173211.28125,194765.78125,688540.125,173226.46875,0.0615234375,0.9921875,-0.20703125,-1.5258787870407104,0.0610351525247097,0.2746581733226776,100.0,147189.0,1.0
14:59:58.928165,177019.5625,182880.46875,196344.34375,174829.90625,173204.390625,194733.234375,688294.375,173224.953125,0.0615234375,0.994384765625,-0.207763671875,-1.6479490995407104,0.03051757626235485,0.2746581733226776,100.0,147190.0,1.0
14:59:58.932529,177105.3125,182892.171875,196364.015625,174824.984375,173207.609375,194780.796875,688320.75,173224.859375,0.06103515625,0.99169921875,-0.2041015625,-1.7089842557907104,-0.1220703050494194,0.3662109076976776,100.0,147191.0,1.0
14:59:58.932539,177133.46875,182907.828125,196375.109375,174825.703125,173215.296875,194825.234375,688578.3125,173223.171875,0.06201171875,0.992431640625,-0.20458984375,-1.8005369901657104,-0.1831054538488388,0.4272460639476776,100.0,147192.0,1.0
14:59:58.941979,177064.359375,182894.40625,196354.265625,174822.484375,173205.375,194781.328125,688569.3125,173217.890625,0.062744140625,0.99267578125,-0.20458984375,-1.9226073026657104,-0.1831054538488388,0.3662109076976776,100.0,147193.0,1.0
14:59:58.946247,177016.265625,182886.8125,196343.09375,174826.5,173200.015625,194743.515625,688337.125,173216.546875,0.0625,0.9921875,-0.204833984375,-1.9836424589157104,-0.2136230319738388,0.3662109076976776,100.0,147194.0,1.0
14:59:58.946262,177090.28125,182903.796875,196362.59375,174829.71875,173207.15625,194789.296875,688283.375,173222.8125,0.0634765625,0.9921875,-0.2080078125,-2.075195074081421,-0.0915527269244194,0.3051757514476776,100.0,147195.0,1.0
14:59:58.953236,177138.75,182913.90625,196374.296875,174828.46875,173215.5625,194836.234375,688553.0,173225.84375,0.063720703125,0.989990234375,-0.20556640625,-2.075195074081421,-0.2136230319738388,0.3967284858226776,100.0,147196.0,1.0
14:59:58.957528,177073.484375,182898.875,196355.34375,174828.5625,173209.125,194804.671875,688604.0,173224.515625,0.06201171875,0.9912109375,-0.206787109375,-2.166747808456421,-0.1831054538488388,0.3356933295726776,100.0,147197.0,1.0
14:59:58.957539,177011.15625,182881.890625,196334.6875,174825.515625,173197.0625,194748.796875,688376.4375,173218.34375,0.062744140625,0.990234375,-0.203857421875,-2.105712652206421,-0.2136230319738388,0.3356933295726776,100.0,147198.0,1.0
14:59:58.966902,177055.859375,182890.921875,196345.15625,174821.765625,173200.71875,194773.015625,688249.125,173218.96875,0.064697265625,0.990234375,-0.206298828125,-2.258300542831421,-0.2136230319738388,0.3662109076976776,100.0,147199.0,1.0
14:59:58.971285,177127.65625,182905.5,196365.265625,174821.140625,173212.703125,194827.828125,688512.375,173223.703125,0.064208984375,0.989990234375,-0.20361328125,-2.258300542831421,-0.1831054538488388,0.3967284858226776,100.0,147200.0,1.0
14:59:58.971294,177076.34375,182899.953125,196356.859375,174823.1875,173211.8125,194811.734375,688616.25,173222.71875,0.065673828125,0.9892578125,-0.202392578125,-2.227782964706421,-0.2136230319738388,0.2441406100988388,100.0,147201.0,1.0
14:59:58.977585,177006.421875,182874.734375,196331.390625,174817.296875,173194.734375,194741.640625,688419.375,173215.125,0.06689453125,0.98974609375,-0.204833984375,-2.380370855331421,-0.2441406100988388,0.3967284858226776,100.0,147202.0,1.0
14:59:58.977595,177037.984375,182887.875,196344.171875,174821.40625,173199.921875,194757.28125,688231.0625,173220.3125,0.065185546875,0.98681640625,-0.207763671875,-2.380370855331421,-0.1525878757238388,0.3356933295726776,100.0,147203.0,1.0
14:59:58.979498,177126.140625,182899.859375,196365.265625,174822.65625,173206.625,194810.578125,688451.8125,173223.609375,0.067138671875,0.987060546875,-0.20458984375,-2.380370855331421,-0.1220703050494194,0.3967284858226776,100.0,147204.0,1.0
14:59:58.995835,177089.65625,182896.203125,196360.984375,174827.21875,173209.125,194809.140625,688609.6875,173224.515625,0.0673828125,0.986328125,-0.205322265625,-2.319335699081421,-0.0915527269244194,0.4577636420726776,100.0,147205.0,1.0
14:59:58.998751,177027.875,182876.4375,196340.6875,174830.96875,173198.578125,194745.84375,688461.75,173226.828125,0.06640625,0.986572265625,-0.202880859375,-2.441406011581421,-0.1525878757238388,0.2441406100988388,100.0,147206.0,1.0
14:59:58.998760,177024.9375,182875.015625,196338.71875,174826.6875,173193.65625,194740.5625,688234.0,173222.8125,0.065185546875,0.989501953125,-0.203857421875,-2.258300542831421,-0.0915527269244194,0.2441406100988388,100.0,147207.0,1.0
14:59:59.003867,177119.796875,182891.09375,196360.703125,174822.03125,173200.28125,194798.953125,688416.875,173221.828125,0.0634765625,0.9873046875,-0.20263671875,-2.227782964706421,0.0610351525247097,0.3662109076976776,100.0,147208.0,1.0
14:59:59.003875,177099.234375,182896.203125,196359.8125,174822.65625,173204.75,194817.640625,688614.4375,173218.703125,0.064697265625,0.988525390625,-0.199951171875,-2.136230230331421,-0.03051757626235485,0.2746581733226776,100.0,147209.0,1.0
14:59:59.011944,177031.71875,182878.671875,196339.78125,174820.953125,173196.171875,194759.078125,688503.3125,173218.25,0.063720703125,0.987548828125,-0.19873046875,-2.044677495956421,0.1220703050494194,0.3051757514476776,100.0,147210.0,1.0
14:59:59.015710,177013.84375,182879.75,196338.984375,174822.484375,173195.890625,194743.0625,688262.0,173218.96875,0.0634765625,0.98681640625,-0.20068359375,-2.014159917831421,0.1831054538488388,0.2136230319738388,100.0,147211.0,1.0
14:59:59.026244,177108.34375,182896.375,196360.171875,174819.078125,173200.640625,194798.40625,688374.6875,173218.25,0.063720703125,0.986083984375,-0.202392578125,-2.075195074081421,0.1831054538488388,0.2746581733226776,100.0,147212.0,1.0
14:59:59.026253,177111.46875,182905.5,196365.625,174820.328125,173208.140625,194830.421875,688616.4375,173216.90625,0.064453125,0.98681640625,-0.201416015625,-1.9226073026657104,0.0915527269244194,0.2746581733226776,100.0,147213.0,1.0
14:59:59.026254,177043.34375,182889.3125,196346.046875,174822.203125,173201.4375,194777.484375,688551.4375,173217.625,0.06396484375,0.9873046875,-0.199951171875,-1.8310545682907104,0.1220703050494194,0.3051757514476776,100.0,147214.0,1.0
14:59:59.030051,177008.484375,182887.609375,196341.9375,174831.515625,173201.53125,194751.921875,688306.1875,173224.421875,0.064697265625,0.987548828125,-0.20068359375,-1.8615721464157104,0.1525878757238388,0.3051757514476776,100.0,147215.0,1.0
14:59:59.030063,177098.515625,182904.25,196366.4375,174833.828125,173210.109375,194802.078125,688332.375,173230.59375,0.06201171875,0.985595703125,-0.2021484375,-1.8005369901657104,0.2441406100988388,0.4272460639476776,100.0,147216.0,1.0
14:59:59.036225,177126.765625,182913.71875,196376.53125,174832.5,173216.375,194842.484375,688592.1875,173228.890625,0.062744140625,0.987060546875,-0.2021484375,-1.7395018339157104,0.2136230319738388,0.3051757514476776,100.0,147217.0,1.0
14:59:59.036235,177061.40625,182897.71875,196359.015625,174837.40625,173211.8125,194798.40625,688587.375,173231.21875,0.062744140625,0.988525390625,-0.203125,-1.6784666776657104,0.1831054538488388,0.3356933295726776,100.0,147218.0,1.0
14:59:59.050683,177013.9375,182885.640625,196348.8125,174840.1875,173208.953125,194755.140625,688351.4375,173232.109375,0.06298828125,0.9892578125,-0.20361328125,-1.6479490995407104,0.1220703050494194,0.2746581733226776,100.0,147219.0,1.0
14:59:59.055130,177077.6875,182893.25,196359.375,174831.515625,173206.453125,194785.71875,688281.4375,173226.390625,0.06298828125,0.98779296875,-0.2021484375,-1.6174315214157104,0.1525878757238388,0.3967284858226776,100.0,147220.0,1.0
14:59:59.055201,177125.15625,182904.25,196370.28125,174827.125,173209.578125,194829.96875,688541.5,173221.640625,0.06298828125,0.987060546875,-0.19873046875,-1.4953612089157104,0.2441406100988388,0.3662109076976776,100.0,147221.0,1.0
14:59:59.055228,177071.0625,182898.703125,196361.515625,174831.15625,173210.03125,194802.609375,688597.5625,173223.609375,0.06103515625,0.988037109375,-0.201171875,-1.4038084745407104,0.2136230319738388,0.4577636420726776,100.0,147222.0,1.0
14:59:59.061305,177018.3125,182885.640625,196348.109375,174835.984375,173203.859375,194747.359375,688385.125,173223.609375,0.061279296875,0.989013671875,-0.199951171875,-1.3122557401657104,0.1525878757238388,0.5187987685203552,100.0,147223.0,1.0
14:59:59.061321,177063.46875,182894.59375,196358.75,174831.859375,173205.109375,194771.40625,688251.5625,173222.359375,0.0625,0.99072265625,-0.19873046875,-1.2817381620407104,0.1525878757238388,0.4272460639476776,100.0,147224.0,1.0
14:59:59.066881,177123.28125,182896.90625,196363.125,174818.015625,173200.453125,194812.0,688508.25,173212.4375,0.06298828125,0.989013671875,-0.201171875,-1.2817381620407104,0.0610351525247097,0.5798339247703552,100.0,147225.0,1.0
14:59:59.077552,177071.6875,182891.015625,196350.875,174819.796875,173200.546875,194793.046875,688607.8125,173213.6875,0.061767578125,0.988525390625,-0.198486328125,-1.3427733182907104,0.03051757626235485,0.6103515028953552,100.0,147226.0,1.0
14:59:59.077563,177005.0,182868.484375,196329.5,174821.578125,173189.015625,194727.609375,688426.1875,173213.875,0.061767578125,0.99072265625,-0.20068359375,-1.2207030057907104,0.0610351525247097,0.6408690810203552,100.0,147227.0,1.0
14:59:59.084137,177027.96875,182872.59375,196337.546875,174823.1875,173190.09375,194735.65625,688230.6875,173217.4375,0.061767578125,0.9892578125,-0.20361328125,-1.1901854276657104,0.1525878757238388,0.7019042372703552,100.0,147228.0,1.0
14:59:59.084147,177115.765625,182883.40625,196356.59375,174819.34375,173193.9375,194786.609375,688452.5625,173217.984375,0.064208984375,0.989990234375,-0.201416015625,-1.3122557401657104,0.0915527269244194,0.7324218153953552,100.0,147229.0,1.0
14:59:59.086258,177085.28125,182882.78125,196355.875,174826.0625,173200.09375,194787.953125,688606.25,173221.015625,0.06298828125,0.990478515625,-0.201416015625,-1.2817381620407104,0.0,0.7629393935203552,100.0,147230.0,1.0
14:59:59.086277,177019.484375,182863.109375,196334.96875,174826.234375,173190.09375,194723.75,688456.375,173220.125,0.064208984375,0.98974609375,-0.201416015625,-1.2207030057907104,-0.03051757626235485,0.9155272841453552,100.0,147231.0,1.0
14:59:59.103210,177022.0625,182878.671875,196342.03125,174828.015625,173194.375,194732.25,688235.4375,173222.8125,0.0634765625,0.989501953125,-0.199462890625,-1.2207030057907104,-0.03051757626235485,0.7324218153953552,100.0,147232.0,1.0
14:59:59.108856,177116.578125,182896.375,196362.953125,174820.59375,173200.375,194793.671875,688398.0625,173219.5,0.064453125,0.98876953125,-0.2001953125,-1.2512205839157104,0.0,0.8850097060203552,100.0,147233.0,1.0
14:59:59.108863,177098.15625,182903.796875,196363.03125,174819.53125,173206.890625,194817.453125,688609.8125,173219.234375,0.063720703125,0.988525390625,-0.19921875,-1.1291502714157104,-0.03051757626235485,0.8850097060203552,100.0,147234.0,1.0
14:59:59.111248,177024.84375,182883.953125,196338.453125,174815.421875,173195.625,194761.578125,688514.5625,173217.171875,0.0654296875,0.9912109375,-0.2021484375,-1.1291502714157104,0.0,0.8239745497703552,100.0,147235.0,1.0
14:59:59.111251,177000.25,182881.796875,196333.078125,174815.328125,173193.75,194749.328125,688278.0,173218.25,0.064697265625,0.989501953125,-0.19970703125,-1.1291502714157104,0.03051757626235485,0.8544921278953552,100.0,147236.0,1.0
14:59:59.113181,177090.5625,182892.984375,196350.609375,174809.515625,173195.1875,194799.03125,688356.25,173216.640625,0.064208984375,0.98828125,-0.2021484375,-1.0070799589157104,0.0,0.9155272841453552,100.0,147237.0,1.0
14:59:59.146279,177098.953125,182904.15625,196358.390625,174815.0625,173202.421875,194830.59375,688602.375,173218.078125,0.063720703125,0.989013671875,-0.201904296875,-1.0375975370407104,-0.0610351525247097,0.9460448622703552,100.0,147238.0,1.0
14:59:59.146291,177034.859375,182889.484375,196341.484375,174822.84375,173196.875,194780.171875,688556.8125,173220.9375,0.064697265625,0.989013671875,-0.20263671875,-1.0070799589157104,-0.0610351525247097,1.0070799589157104,100.0,147239.0,1.0
14:59:59.168788,176995.6875,182882.609375,196333.078125,174821.859375,173193.578125,194748.078125,688310.3125,173219.5,0.066162109375,0.98779296875,-0.202880859375,-1.0375975370407104,-0.03051757626235485,1.0375975370407104,100.0,147240.0,1.0
14:59:59.168797,177084.03125,182899.234375,196355.875,174822.296875,173202.609375,194794.84375,688321.8125,173224.6875,0.066162109375,0.98779296875,-0.20458984375,-1.0681151151657104,0.0,0.8544921278953552,100.0,147241.0,1.0
14:59:59.168799,177107.90625,182901.46875,196359.09375,174815.5,173202.6875,194829.703125,688582.0,173219.234375,0.067626953125,0.98779296875,-0.20556640625,-0.9155272841453552,0.0,1.0375975370407104,100.0,147242.0,1.0
14:59:59.168801,177037.359375,182882.78125,196337.90625,174815.59375,173194.46875,194785.09375,688586.0,173217.0,0.065673828125,0.98779296875,-0.203857421875,-0.9765624403953552,-0.0915527269244194,0.9460448622703552,100.0,147243.0,1.0
14:59:59.170737,176990.421875,182874.46875,196328.875,174821.3125,173192.859375,194743.34375,688353.8125,173220.65625,0.067138671875,0.98779296875,-0.203857421875,-1.1291502714157104,0.0,0.9765624403953552,100.0,147244.0,1.0
14:59:59.173145,177054.171875,182884.3125,196342.5625,174813.71875,173192.859375,194770.609375,688269.25,173215.65625,0.066650390625,0.986572265625,-0.199951171875,-0.9765624403953552,-0.03051757626235485,0.9460448622703552,100.0,147245.0,1.0
14:59:59.175645,177109.328125,182896.46875,196357.671875,174813.265625,173201.171875,194818.625,688531.125,173215.390625,0.067626953125,0.9892578125,-0.205322265625,-1.0375975370407104,0.0915527269244194,0.9765624403953552,100.0,147246.0,1.0
14:59:59.178184,177059.171875,182896.203125,196352.03125,174820.421875,173206.453125,194797.875,688596.1875,173222.625,0.066650390625,0.9873046875,-0.202392578125,-0.9765624403953552,0.0915527269244194,0.8850097060203552,100.0,147247.0,1.0
14:59:59.180816,177006.328125,182887.703125,196338.09375,174824.71875,173200.453125,194745.21875,688371.875,173225.9375,0.0673828125,0.987548828125,-0.202392578125,-0.9765624403953552,0.1220703050494194,0.9765624403953552,100.0,147248.0,1.0
14:59:59.183439,177043.796875,182890.203125,196342.03125,174815.5,173194.375,194759.703125,688228.0625,173217.796875,0.068603515625,0.988525390625,-0.203857421875,-0.9460448622703552,0.1831054538488388,0.8544921278953552,100.0,147249.0,1.0
14:59:59.185652,177121.578125,182906.75,196364.203125,174815.140625,173203.5,194816.109375,688489.375,173220.03125,0.0673828125,0.988037109375,-0.205810546875,-0.8850097060203552,0.2441406100988388,0.7934569716453552,100.0,147250.0,1.0
14:59:59.188154,177072.578125,182901.734375,196354.546875,174813.984375,173201.265625,194801.984375,688602.625,173215.65625,0.067626953125,0.988037109375,-0.20361328125,-0.8850097060203552,0.2746581733226776,0.6713866591453552,100.0,147251.0,1.0
14:59:59.190705,177008.921875,182886.546875,196334.421875,174813.09375,173189.015625,194742.53125,688432.9375,173212.4375,0.06884765625,0.9892578125,-0.201904296875,-0.8850097060203552,0.3051757514476776,0.8239745497703552,100.0,147252.0,1.0
14:59:59.193165,177029.3125,182891.375,196340.5,174813.09375,173188.75,194750.046875,688232.625,173212.53125,0.067138671875,0.98828125,-0.203857421875,-0.9155272841453552,0.2746581733226776,0.7629393935203552,100.0,147253.0,1.0
14:59:59.195642,177124.53125,182909.609375,196368.84375,174818.8125,173201.0,194808.25,688452.4375,173220.125,0.068603515625,0.98681640625,-0.20751953125,-0.8850097060203552,0.2746581733226776,0.7629393935203552,100.0,147254.0,1.0
14:59:59.198741,177096.90625,182915.15625,196372.0625,174828.109375,173212.703125,194818.078125,688618.625,173227.1875,0.06640625,0.989501953125,-0.203369140625,-0.9155272841453552,0.3051757514476776,0.7629393935203552,100.0,147255.0,1.0
14:59:59.198748,177033.875,182896.640625,196354.1875,174834.734375,173205.828125,194757.46875,688471.9375,173231.21875,0.066162109375,0.987548828125,-0.20361328125,-0.9460448622703552,0.2746581733226776,0.6713866591453552,100.0,147256.0,1.0
14:59:59.201060,177032.171875,182899.78125,196356.59375,174836.25,173206.453125,194755.234375,688242.9375,173233.890625,0.06787109375,0.98681640625,-0.201904296875,-0.9765624403953552,0.3051757514476776,0.7629393935203552,100.0,147257.0,1.0
14:59:59.205778,177125.328125,182914.53125,196375.375,174829.546875,173209.75,194810.921875,688405.5,173233.53125,0.067138671875,0.987548828125,-0.204345703125,-0.8850097060203552,0.2746581733226776,0.7019042372703552,100.0,147258.0,1.0
14:59:59.205788,177102.09375,182912.375,196367.140625,174824.53125,173210.03125,194828.28125,688616.4375,173229.6875,0.066162109375,0.989013671875,-0.20458984375,-0.9460448622703552,0.3967284858226776,0.6103515028953552,100.0,147259.0,1.0
14:59:59.206293,177025.640625,182887.796875,196337.546875,174817.375,173195.09375,194768.546875,688517.0,173224.328125,0.06640625,0.98828125,-0.202392578125,-0.9765624403953552,0.4577636420726776,0.6408690810203552,100.0,147260.0,1.0
14:59:59.206365,176997.75,182884.578125,196329.5,174813.53125,173189.375,194746.203125,688279.375,173220.75,0.068359375,0.988525390625,-0.20361328125,-0.8850097060203552,0.4272460639476776,0.5798339247703552,100.0,147261.0,1.0
14:59:59.215713,177080.265625,182892.0,196342.296875,174802.984375,173187.21875,194791.078125,688355.0,173215.828125,0.067138671875,0.987060546875,-0.20458984375,-0.8850097060203552,0.4272460639476776,0.4882812201976776,100.0,147262.0,1.0
14:59:59.222528,177088.3125,182900.125,196345.78125,174799.40625,173191.96875,194819.6875,688602.3125,173213.59375,0.068359375,0.989501953125,-0.2060546875,-0.8850097060203552,0.3662109076976776,0.5187987685203552,100.0,147263.0,1.0
14:59:59.222540,177021.4375,182883.40625,196326.828125,174800.484375,173183.109375,194768.640625,688559.9375,173211.640625,0.06640625,0.990234375,-0.20556640625,-0.9155272841453552,0.3662109076976776,0.4577636420726776,100.0,147264.0,1.0
14:59:59.237537,176983.453125,182878.765625,196322.171875,174805.484375,173180.515625,194735.65625,688325.3125,173211.984375,0.0654296875,0.990478515625,-0.2041015625,-0.9155272841453552,0.4272460639476776,0.6103515028953552,100.0,147265.0,1.0
14:59:59.237557,177073.03125,182898.96875,196349.890625,174809.25,173190.984375,194782.9375,688323.875,173219.59375,0.067626953125,0.991455078125,-0.201904296875,-0.9155272841453552,0.5187987685203552,0.5493163466453552,100.0,147266.0,1.0
14:59:59.240165,177114.609375,182918.453125,196370.1875,174814.875,173204.484375,194833.546875,688589.6875,173224.6875,0.068359375,0.992431640625,-0.205322265625,-0.9460448622703552,0.4577636420726776,0.5187987685203552,100.0,147267.0,1.0
14:59:59.240182,177047.90625,182902.90625,196353.109375,174815.765625,173197.421875,194793.40625,688592.5625,173219.6875,0.067138671875,0.990966796875,-0.203369140625,-0.9155272841453552,0.4882812201976776,0.5493163466453552,100.0,147268.0,1.0
14:59:59.240188,177002.671875,182896.5625,196344.703125,174821.3125,173192.5,194751.5625,688360.625,173218.96875,0.068115234375,0.98974609375,-0.20458984375,-0.9460448622703552,0.4272460639476776,0.6103515028953552,100.0,147269.0,1.0
14:59:59.242028,177075.796875,182918.109375,196369.828125,174826.234375,173202.15625,194794.125,688286.75,173225.578125,0.067626953125,0.989501953125,-0.205322265625,-1.0986326932907104,0.3356933295726776,0.6713866591453552,100.0,147270.0,1.0
14:59:59.272622,177128.734375,182922.03125,196381.1875,174821.046875,173205.640625,194836.40625,688552.9375,173221.46875,0.06689453125,0.990234375,-0.20654296875,-1.1596678495407104,0.3662109076976776,0.6713866591453552,100.0,147271.0,1.0
14:59:59.272687,177064.53125,182903.96875,196362.140625,174817.296875,173197.59375,194800.296875,688615.5,173215.75,0.067138671875,0.98828125,-0.205810546875,-1.1291502714157104,0.2136230319738388,0.6408690810203552,100.0,147272.0,1.0
14:59:59.274405,177004.546875,182885.203125,196340.953125,174815.0625,173184.8125,194739.578125,688392.1875,173212.265625,0.0654296875,0.990234375,-0.205078125,-1.1291502714157104,0.3051757514476776,0.6408690810203552,100.0,147273.0,1.0
14:59:59.276959,177046.65625,182894.40625,196353.640625,174815.59375,173187.671875,194759.609375,688249.875,173214.671875,0.067626953125,0.989990234375,-0.203125,-1.0681151151657104,0.3051757514476776,0.6408690810203552,100.0,147274.0,1.0
14:59:59.279435,177117.375,182903.890625,196369.828125,174809.15625,173191.515625,194810.75,688502.5,173211.1875,0.0673828125,0.989990234375,-0.20556640625,-1.0681151151657104,0.2746581733226776,0.6408690810203552,100.0,147275.0,1.0
14:59:59.282058,177067.046875,182895.296875,196360.53125,174810.859375,173193.9375,194800.109375,688623.9375,173211.453125,0.068359375,0.98876953125,-0.20556640625,-1.1291502714157104,0.2746581733226776,0.6408690810203552,100.0,147276.0,1.0
14:59:59.284392,176993.734375,182874.296875,196333.0,174804.59375,173178.734375,194737.96875,688440.8125,173206.71875,0.068603515625,0.990478515625,-0.2060546875,-1.1596678495407104,0.2746581733226776,0.7019042372703552,100.0,147277.0,1.0
14:59:59.289408,177004.015625,182875.453125,196331.828125,174799.40625,173174.4375,194742.359375,688236.6875,173204.296875,0.068359375,0.99072265625,-0.2041015625,-1.1596678495407104,0.2746581733226776,0.7324218153953552,100.0,147278.0,1.0
14:59:59.292017,177093.234375,182891.28125,196350.078125,174794.3125,173178.734375,194798.5,688447.875,173203.3125,0.06689453125,0.990966796875,-0.20263671875,-1.1291502714157104,0.1220703050494194,0.8239745497703552,100.0,147279.0,1.0
14:59:59.294417,177067.9375,182899.59375,196353.203125,174804.328125,173187.21875,194813.875,688625.8125,173210.296875,0.068359375,0.99072265625,-0.205078125,-1.0986326932907104,0.2136230319738388,0.7934569716453552,100.0,147280.0,1.0
14:59:59.297006,177000.078125,182875.8125,196331.109375,174807.90625,173176.671875,194748.875,688481.6875,173212.34375,0.066162109375,0.990234375,-0.204345703125,-1.1901854276657104,0.1525878757238388,0.7324218153953552,100.0,147281.0,1.0
14:59:59.299369,177002.21875,182881.625,196338.171875,174816.046875,173182.046875,194746.203125,688250.3125,173218.875,0.065185546875,0.989013671875,-0.202392578125,-1.2817381620407104,0.0915527269244194,0.7324218153953552,100.0,147282.0,1.0
14:59:59.302541,177101.28125,182896.5625,196362.140625,174814.96875,173189.734375,194802.4375,688413.375,173222.1875,0.065185546875,0.988037109375,-0.203125,-1.1901854276657104,0.03051757626235485,0.7629393935203552,100.0,147283.0,1.0
14:59:59.302551,177097.0,182905.671875,196371.4375,174822.03125,173201.703125,194828.71875,688627.0,173226.5625,0.064208984375,0.987548828125,-0.201416015625,-1.1596678495407104,0.0,0.7019042372703552,100.0,147284.0,1.0
14:59:59.308239,177036.203125,182895.921875,196357.671875,174827.84375,173199.5625,194778.828125,688529.6875,173228.796875,0.06640625,0.989013671875,-0.203125,-1.2207030057907104,-0.0610351525247097,0.7324218153953552,100.0,147285.0,1.0
14:59:59.312560,177007.578125,182888.328125,196351.328125,174827.390625,173195.546875,194752.28125,688278.0,173224.78125,0.066162109375,0.98974609375,-0.204345703125,-1.3122557401657104,-0.0610351525247097,0.7019042372703552,100.0,147286.0,1.0
14:59:59.312572,177096.1875,182901.46875,196370.71875,174820.328125,173199.734375,194800.640625,688351.9375,173224.59375,0.066650390625,0.990478515625,-0.206298828125,-1.3122557401657104,-0.0915527269244194,0.6713866591453552,100.0,147287.0,1.0
14:59:59.316979,177112.109375,182919.078125,196382.96875,174828.5625,173212.890625,194843.03125,688604.0625,173233.53125,0.068115234375,0.989990234375,-0.207275390625,-1.3427733182907104,-0.1220703050494194,0.6713866591453552,100.0,147288.0,1.0
14:59:59.324392,177047.28125,182904.25,196366.875,174835.359375,173209.390625,194794.390625,688568.5625,173240.78125,0.067626953125,0.99169921875,-0.20458984375,-1.2207030057907104,-0.0915527269244194,0.6103515028953552,100.0,147289.0,1.0
14:59:59.331253,176999.09375,182894.046875,196350.78125,174830.96875,173198.578125,194753.078125,688315.8125,173235.59375,0.066650390625,0.989501953125,-0.203369140625,-1.3122557401657104,-0.1831054538488388,0.5798339247703552,100.0,147290.0,1.0
14:59:59.331263,177070.171875,182900.578125,196360.625,174818.453125,173195.0,194786.96875,688295.8125,173227.90625,0.066650390625,0.99267578125,-0.20458984375,-1.3427733182907104,-0.2441406100988388,0.5493163466453552,100.0,147291.0,1.0
14:59:59.333765,177093.859375,182899.0625,196361.25,174804.15625,173193.21875,194819.0625,688557.3125,173218.703125,0.066650390625,0.99072265625,-0.2021484375,-1.3427733182907104,-0.2136230319738388,0.5187987685203552,100.0,147292.0,1.0
14:59:59.333767,177027.875,182882.875,196342.5625,174804.859375,173188.296875,194777.484375,688572.0,173217.171875,0.06689453125,0.989013671875,-0.202880859375,-1.4343260526657104,-0.2441406100988388,0.4272460639476776,100.0,147293.0,1.0
14:59:59.345687,176979.953125,182874.46875,196330.9375,174807.734375,173184.0,194730.90625,688338.125,173217.171875,0.06640625,0.988037109375,-0.204345703125,-1.3427733182907104,-0.3051757514476776,0.4272460639476776,100.0,147294.0,1.0
14:59:59.350331,177044.328125,182888.15625,196346.765625,174801.5625,173185.078125,194763.640625,688254.125,173215.125,0.0654296875,0.986083984375,-0.2060546875,-1.4343260526657104,-0.3051757514476776,0.5187987685203552,100.0,147295.0,1.0
14:59:59.350341,177098.0625,182893.96875,196358.828125,174796.109375,173186.328125,194809.140625,688526.625,173211.640625,0.067138671875,0.987548828125,-0.202880859375,-1.4038084745407104,-0.3051757514476776,0.3967284858226776,100.0,147296.0,1.0
14:59:59.356267,177042.28125,182882.703125,196347.65625,174802.265625,173185.171875,194781.6875,688593.25,173212.703125,0.066162109375,0.986083984375,-0.205322265625,-1.3427733182907104,-0.3356933295726776,0.3967284858226776,100.0,147297.0,1.0
14:59:59.356275,176989.609375,182874.828125,196336.484375,174810.671875,173182.484375,194729.65625,688384.9375,173215.296875,0.06884765625,0.98779296875,-0.202880859375,-1.3427733182907104,-0.2746581733226776,0.3356933295726776,100.0,147298.0,1.0
14:59:59.361925,177038.78125,182891.453125,196355.53125,174817.375,173191.609375,194757.46875,688236.5,173218.96875,0.0673828125,0.988525390625,-0.204345703125,-1.2817381620407104,-0.3051757514476776,0.3967284858226776,100.0,147299.0,1.0
14:59:59.368812,177122.296875,182909.078125,196376.71875,174818.984375,173200.546875,194815.484375,688500.625,173218.15625,0.06640625,0.990478515625,-0.203125,-1.3122557401657104,-0.3356933295726776,0.3967284858226776,100.0,147300.0,1.0
14:59:59.368851,177085.8125,182916.21875,196375.375,174827.671875,173205.109375,194815.84375,688624.125,173222.359375,0.06640625,0.988525390625,-0.20263671875,-1.3427733182907104,-0.3051757514476776,0.4577636420726776,100.0,147301.0,1.0
14:59:59.378332,177026.0,182902.90625,196360.0,174832.5,173198.84375,194760.953125,688453.875,173228.171875,0.066650390625,0.98779296875,-0.204345703125,-1.3122557401657104,-0.3051757514476776,0.2746581733226776,100.0,147302.0,1.0
14:59:59.382783,177041.734375,182911.3125,196365.984375,174831.515625,173201.265625,194770.78125,688247.625,173229.421875,0.064697265625,0.986328125,-0.2060546875,-1.3732908964157104,-0.2746581733226776,0.3662109076976776,100.0,147303.0,1.0
14:59:59.382799,177122.921875,182918.375,196378.328125,174824.0,173199.5625,194820.578125,688438.5,173226.75,0.066162109375,0.987060546875,-0.205322265625,-1.3427733182907104,-0.2746581733226776,0.3662109076976776,100.0,147304.0,1.0
14:59:59.392601,177083.84375,182914.34375,196368.3125,174820.78125,173198.21875,194825.859375,688616.9375,173224.953125,0.06591796875,0.988037109375,-0.20263671875,-1.2817381620407104,-0.2746581733226776,0.3051757514476776,100.0,147305.0,1.0
14:59:59.392613,177011.15625,182891.09375,196342.109375,174816.84375,173184.90625,194760.234375,688486.5,173221.734375,0.06640625,0.98681640625,-0.207763671875,-1.3122557401657104,-0.2746581733226776,0.3662109076976776,100.0,147306.0,1.0
14:59:59.394475,177004.640625,182891.734375,196344.96875,174820.15625,173187.40625,194753.984375,688251.3125,173222.90625,0.068603515625,0.9873046875,-0.204345703125,-1.2207030057907104,-0.3356933295726776,0.2746581733226776,100.0,147307.0,1.0
14:59:59.398178,177101.734375,182905.046875,196369.109375,174816.046875,173196.609375,194810.125,688401.9375,173225.40625,0.066162109375,0.987548828125,-0.20458984375,-1.1901854276657104,-0.3356933295726776,0.3356933295726776,100.0,147308.0,1.0
14:59:59.413748,177091.0,182910.953125,196371.171875,174814.15625,173203.046875,194833.90625,688622.75,173224.328125,0.06591796875,0.987548828125,-0.206298828125,-1.2512205839157104,-0.3051757514476776,0.2441406100988388,100.0,147309.0,1.0
14:59:59.413758,177020.640625,182893.96875,196349.09375,174814.703125,173195.359375,194776.328125,688533.625,173224.953125,0.066650390625,0.9892578125,-0.2041015625,-1.2817381620407104,-0.2746581733226776,0.3356933295726776,100.0,147310.0,1.0
14:59:59.420213,176994.0,182893.0625,196345.875,174819.34375,173194.203125,194753.078125,688283.125,173226.921875,0.066162109375,0.98779296875,-0.203125,-1.2512205839157104,-0.2746581733226776,0.2746581733226776,100.0,147311.0,1.0
14:59:59.420257,177090.109375,182910.234375,196372.0625,174821.578125,173202.875,194804.578125,688343.5625,173234.34375,0.06591796875,0.990234375,-0.20458984375,-1.2512205839157104,-0.2746581733226776,0.3051757514476776,100.0,147312.0,1.0
14:59:59.422550,177104.40625,182919.171875,196379.9375,174823.546875,173210.203125,194840.171875,688594.0625,173234.796875,0.0654296875,0.989501953125,-0.207763671875,-1.2512205839157104,-0.2136230319738388,0.4577636420726776,100.0,147313.0,1.0
14:59:59.422558,177034.859375,182895.65625,196358.65625,174824.265625,173199.46875,194786.96875,688557.4375,173232.203125,0.064697265625,0.988525390625,-0.206298828125,-1.2512205839157104,-0.2746581733226776,0.3662109076976776,100.0,147314.0,1.0
14:59:59.431313,176992.296875,182885.640625,196346.578125,174825.78125,173190.09375,194746.109375,688308.5,173227.453125,0.066162109375,0.988525390625,-0.20654296875,-1.2512205839157104,-0.1831054538488388,0.4272460639476776,100.0,147315.0,1.0
14:59:59.431352,177073.03125,182897.8125,196365.359375,174824.71875,173192.40625,194785.8125,688306.4375,173230.9375,0.0654296875,0.98974609375,-0.20458984375,-1.2512205839157104,-0.1831054538488388,0.4272460639476776,100.0,147316.0,1.0
14:59:59.441338,177110.140625,182906.390625,196375.640625,174824.453125,173198.40625,194829.078125,688580.3125,173232.734375,0.065185546875,0.9912109375,-0.2080078125,-1.2207030057907104,-0.2441406100988388,0.4577636420726776,100.0,147317.0,1.0
14:59:59.441350,177041.375,182890.828125,196357.21875,174821.5,173192.046875,194790.28125,688588.5,173230.5,0.067138671875,0.990478515625,-0.203857421875,-1.2512205839157104,-0.2441406100988388,0.5493163466453552,100.0,147318.0,1.0
14:59:59.447597,176989.53125,182880.90625,196344.4375,174821.3125,173185.609375,194742.0,688362.0625,173228.796875,0.068115234375,0.990478515625,-0.20458984375,-1.2207030057907104,-0.1831054538488388,0.5798339247703552,100.0,147319.0,1.0
14:59:59.447605,177050.859375,182893.96875,196360.796875,174819.796875,173190.4375,194774.546875,688271.125,173231.21875,0.067626953125,0.9912109375,-0.205322265625,-1.1901854276657104,-0.2136230319738388,0.6713866591453552,100.0,147320.0,1.0
14:59:59.453748,177109.0625,182906.84375,196374.296875,174811.296875,173195.453125,194828.71875,688542.1875,173226.75,0.068115234375,0.989990234375,-0.2041015625,-1.2207030057907104,-0.1525878757238388,0.7324218153953552,100.0,147321.0,1.0
14:59:59.453762,177054.796875,182900.125,196363.921875,174814.34375,173197.59375,194810.84375,688637.9375,173229.515625,0.067138671875,0.989501953125,-0.203125,-1.2207030057907104,-0.1831054538488388,0.7019042372703552,100.0,147322.0,1.0
14:59:59.478820,177001.6875,182891.1875,196351.5,174819.796875,173194.46875,194761.390625,688426.875,173229.96875,0.06787109375,0.989013671875,-0.207275390625,-1.2512205839157104,-0.1220703050494194,0.6408690810203552,100.0,147323.0,1.0
14:59:59.478833,177050.765625,182915.421875,196373.40625,174827.9375,173207.15625,194796.171875,688285.0,173237.734375,0.0673828125,0.988037109375,-0.2060546875,-1.2512205839157104,-0.0610351525247097,0.6103515028953552,100.0,147324.0,1.0
14:59:59.481318,177130.078125,182931.421875,196391.015625,174820.875,173212.890625,194854.65625,688527.9375,173235.421875,0.067138671875,0.988525390625,-0.205078125,-1.2817381620407104,-0.03051757626235485,0.5798339247703552,100.0,147325.0,1.0
14:59:59.481338,177084.921875,182930.703125,196382.53125,174822.484375,173215.203125,194850.0,688668.375,173236.046875,0.06591796875,0.990234375,-0.2041015625,-1.3122557401657104,0.03051757626235485,0.6408690810203552,100.0,147326.0,1.0
14:59:59.509979,177016.171875,182906.21875,196358.390625,174823.8125,173201.703125,194782.3125,688478.375,173234.515625,0.066162109375,0.98974609375,-0.20166015625,-1.3122557401657104,-0.0610351525247097,0.6713866591453552,100.0,147327.0,1.0
14:59:59.509998,177023.765625,182908.796875,196361.515625,174824.0,173199.203125,194784.109375,688254.125,173235.0625,0.066650390625,0.988525390625,-0.202880859375,-1.2817381620407104,-0.1220703050494194,0.6408690810203552,100.0,147328.0,1.0
14:59:59.510001,177109.859375,182915.15625,196376.359375,174815.859375,173198.578125,194833.640625,688447.0625,173231.65625,0.066162109375,0.988037109375,-0.198974609375,-1.2817381620407104,-0.03051757626235485,0.7019042372703552,100.0,147329.0,1.0
14:59:59.510004,177079.015625,182911.125,196371.4375,174817.109375,173199.109375,194837.296875,688627.875,173230.9375,0.067138671875,0.988037109375,-0.203857421875,-1.2817381620407104,0.0,0.7019042372703552,100.0,147330.0,1.0
14:59:59.533195,177007.5,182891.453125,196347.921875,174815.5,173185.4375,194770.78125,688494.3125,173227.015625,0.0693359375,0.98876953125,-0.205322265625,-1.2817381620407104,0.0610351525247097,0.6713866591453552,100.0,147331.0,1.0
14:59:59.552007,176996.40625,182890.75,196344.96875,174812.640625,173181.59375,194756.921875,688252.875,173221.921875,0.06689453125,0.98876953125,-0.2041015625,-1.2512205839157104,0.03051757626235485,0.6713866591453552,100.0,147332.0,1.0
14:59:59.554425,177092.96875,182905.140625,196367.421875,174808.796875,173187.21875,194808.96875,688396.75,173222.546875,0.066650390625,0.988525390625,-0.203857421875,-1.3122557401657104,0.0610351525247097,0.5187987685203552,100.0,147333.0,1.0
14:59:59.557013,177088.140625,182909.609375,196373.765625,174814.15625,173195.453125,194834.796875,688618.8125,173224.59375,0.064697265625,0.988525390625,-0.20654296875,-1.3122557401657104,0.1525878757238388,0.5798339247703552,100.0,147334.0,1.0
14:59:59.559522,177025.640625,182893.34375,196356.59375,174819.625,173190.359375,194779.8125,688530.25,173227.375,0.0654296875,0.9892578125,-0.2080078125,-1.2512205839157104,0.0610351525247097,0.4882812201976776,100.0,147335.0,1.0
14:59:59.561922,176998.640625,182894.3125,196352.84375,174820.59375,173188.921875,194757.640625,688277.9375,173227.71875,0.0654296875,0.989501953125,-0.204833984375,-1.2207030057907104,0.0915527269244194,0.5187987685203552,100.0,147336.0,1.0
14:59:59.564507,177089.75,182906.84375,196374.296875,174817.296875,173193.21875,194803.78125,688335.4375,173230.046875,0.06591796875,0.989501953125,-0.20361328125,-1.2207030057907104,0.0610351525247097,0.4882812201976776,100.0,147337.0,1.0
14:59:59.566982,177108.796875,182915.328125,196385.390625,174821.765625,173203.5,194836.953125,688600.625,173235.0625,0.066162109375,0.98828125,-0.2041015625,-1.1901854276657104,0.0915527269244194,0.4272460639476776,100.0,147338.0,1.0
14:59:59.569454,177046.5625,182900.671875,196370.8125,174827.484375,173202.328125,194791.796875,688570.375,173240.59375,0.06494140625,0.9873046875,-0.20458984375,-1.1901854276657104,0.1525878757238388,0.4882812201976776,100.0,147339.0,1.0
14:59:59.571947,177009.90625,182898.4375,196366.609375,174833.921875,173203.765625,194759.34375,688320.3125,173245.609375,0.065673828125,0.987060546875,-0.205322265625,-1.2207030057907104,0.1525878757238388,0.3662109076976776,100.0,147340.0,1.0
14:59:59.574435,177081.34375,182902.8125,196378.953125,174825.34375,173200.640625,194790.71875,688301.4375,173241.046875,0.064208984375,0.98388671875,-0.204345703125,-1.1291502714157104,0.0610351525247097,0.4577636420726776,100.0,147341.0,1.0
14:59:59.576973,177116.21875,182908.984375,196383.59375,174819.078125,173200.546875,194826.21875,688568.5,173234.875,0.065673828125,0.983642578125,-0.203857421875,-0.9765624403953552,0.1831054538488388,0.3051757514476776,100.0,147342.0,1.0
14:59:59.579408,177053.265625,182895.921875,196366.796875,174821.578125,173194.921875,194788.84375,688599.5,173234.25,0.064453125,0.985107421875,-0.20703125,-0.9460448622703552,0.1525878757238388,0.3356933295726776,100.0,147343.0,1.0
14:59:59.581923,176994.984375,182877.25,196347.484375,174816.671875,173183.46875,194731.796875,688376.0,173227.640625,0.063720703125,0.984130859375,-0.209228515625,-0.8239745497703552,0.1220703050494194,0.2746581733226776,100.0,147344.0,1.0
14:59:59.584424,177055.953125,182896.109375,196365.71875,174817.65625,173190.890625,194769.796875,688278.125,173230.59375,0.06640625,0.98486328125,-0.20849609375,-0.7324218153953552,0.1220703050494194,0.3356933295726776,100.0,147345.0,1.0
14:59:59.586944,177120.859375,182914.609375,196384.140625,174816.046875,173201.265625,194828.09375,688555.25,173230.140625,0.067138671875,0.985595703125,-0.208251953125,-0.6408690810203552,0.0915527269244194,0.2441406100988388,100.0,147346.0,1.0
14:59:59.589441,177062.390625,182906.84375,196368.484375,174813.625,173198.21875,194810.484375,688634.5,173224.515625,0.069091796875,0.98681640625,-0.207275390625,-0.6713866591453552,0.1525878757238388,0.3662109076976776,100.0,147347.0,1.0
14:59:59.591915,176999.453125,182887.703125,196350.078125,174812.90625,173190.796875,194752.640625,688419.875,173222.1875,0.069091796875,0.985595703125,-0.2080078125,-0.5798339247703552,0.1220703050494194,0.4272460639476776,100.0,147348.0,1.0
14:59:59.594378,177031.546875,182897.53125,196360.171875,174811.84375,173192.765625,194772.578125,688252.8125,173222.453125,0.068603515625,0.987548828125,-0.208740234375,-0.5493163466453552,0.1831054538488388,0.3051757514476776,100.0,147349.0,1.0
14:59:59.597589,177109.0625,182911.9375,196376.625,174801.734375,173195.984375,194830.6875,688499.5625,173221.015625,0.06591796875,0.986328125,-0.205322265625,-0.5493163466453552,0.1525878757238388,0.2746581733226776,100.0,147350.0,1.0
14:59:59.597595,177065.25,182909.515625,196370.90625,174805.40625,173199.03125,194829.4375,688637.9375,173222.984375,0.066162109375,0.985595703125,-0.20849609375,-0.5187987685203552,0.1220703050494194,0.2441406100988388,100.0,147351.0,1.0
14:59:59.600768,177004.71875,182894.3125,196354.09375,174811.75,173191.875,194769.796875,688454.6875,173226.109375,0.0654296875,0.985107421875,-0.208740234375,-0.5493163466453552,0.1525878757238388,0.1831054538488388,100.0,147352.0,1.0
14:59:59.600791,177018.671875,182898.171875,196359.28125,174814.609375,173191.515625,194768.734375,688242.4375,173226.75,0.064208984375,0.9873046875,-0.20947265625,-0.5493163466453552,0.1220703050494194,0.3051757514476776,100.0,147353.0,1.0
14:59:59.600793,177107.0,182908.09375,196376.453125,174808.0,173193.125,194817.640625,688446.125,173224.859375,0.0634765625,0.989501953125,-0.2080078125,-0.5187987685203552,0.0610351525247097,0.2136230319738388,100.0,147354.0,1.0
14:59:59.603718,177084.65625,182911.484375,196377.421875,174815.59375,173201.078125,194829.890625,688631.0,173229.875,0.064697265625,0.991455078125,-0.210205078125,-0.4882812201976776,0.0915527269244194,0.2136230319738388,100.0,147355.0,1.0
14:59:59.603720,177013.9375,182887.078125,196352.3125,174811.921875,173186.59375,194764.078125,688496.25,173223.703125,0.06591796875,0.991455078125,-0.21240234375,-0.4882812201976776,0.0610351525247097,0.1831054538488388,100.0,147356.0,1.0
14:59:59.606032,176998.203125,182885.46875,196348.375,174811.21875,173182.390625,194746.828125,688250.3125,173220.125,0.0673828125,0.9921875,-0.2099609375,-0.5798339247703552,0.0,0.3662109076976776,100.0,147357.0,1.0
14:59:59.608737,177093.859375,182898.796875,196368.671875,174806.390625,173187.40625,194798.328125,688373.25,173221.109375,0.068603515625,0.993408203125,-0.211181640625,-0.5798339247703552,0.03051757626235485,0.2746581733226776,100.0,147358.0,1.0
14:59:59.608740,177090.28125,182904.421875,196373.234375,174808.171875,173195.890625,194824.4375,688601.75,173221.921875,0.068115234375,0.9931640625,-0.209716796875,-0.6103515028953552,0.0610351525247097,0.1525878757238388,100.0,147359.0,1.0
14:59:59.610652,177022.34375,182884.03125,196352.84375,174807.015625,173186.875,194767.921875,688526.5,173221.375,0.06689453125,0.990966796875,-0.20849609375,-0.6408690810203552,-0.03051757626235485,0.2441406100988388,100.0,147360.0,1.0
14:59:59.618778,176988.546875,182877.421875,196342.296875,174803.96875,173180.4375,194740.125,688273.375,173218.515625,0.064697265625,0.9912109375,-0.209716796875,-0.5798339247703552,0.0610351525247097,0.2136230319738388,100.0,147361.0,1.0
14:59:59.618804,177077.953125,182888.953125,196362.671875,174803.25,173184.8125,194786.96875,688330.75,173222.265625,0.0634765625,0.990478515625,-0.209228515625,-0.7629393935203552,0.03051757626235485,0.1525878757238388,100.0,147362.0,1.0
14:59:59.631433,177107.09375,182903.4375,196380.5625,174815.5,173200.8125,194828.984375,688598.375,173233.453125,0.06298828125,0.9892578125,-0.205810546875,-0.7934569716453552,0.0,0.1220703050494194,100.0,147363.0,1.0
14:59:59.631449,177044.25,182891.453125,196364.46875,174820.0625,173196.875,194783.296875,688569.8125,173236.40625,0.062255859375,0.99169921875,-0.207763671875,-0.8850097060203552,-0.1220703050494194,0.1220703050494194,100.0,147364.0,1.0
14:59:59.631452,176998.640625,182884.125,196352.125,174819.265625,173190.265625,194740.75,688324.3125,173235.0625,0.061767578125,0.991943359375,-0.205078125,-0.9765624403953552,-0.1525878757238388,0.0,100.0,147365.0,1.0
14:59:59.632611,177072.578125,182897.0,196368.3125,174816.40625,173192.234375,194780.171875,688295.0,173236.21875,0.060791015625,0.9931640625,-0.20556640625,-1.1596678495407104,-0.2136230319738388,-0.1525878757238388,100.0,147366.0,1.0
14:59:59.632618,177112.90625,182904.515625,196378.5,174817.203125,173196.796875,194825.59375,688557.6875,173236.3125,0.060302734375,0.99365234375,-0.204833984375,-1.2207030057907104,-0.2746581733226776,-0.2136230319738388,100.0,147367.0,1.0
14:59:59.634464,177050.671875,182892.890625,196362.953125,174822.296875,173194.5625,194794.03125,688591.3125,173238.1875,0.0625,0.995849609375,-0.207275390625,-1.3427733182907104,-0.2746581733226776,-0.1831054538488388,100.0,147368.0,1.0
14:59:59.638188,176997.03125,182880.015625,196350.703125,174827.578125,173190.171875,194746.5625,688364.75,173240.78125,0.0625,0.996337890625,-0.205810546875,-1.4343260526657104,-0.3356933295726776,-0.2136230319738388,100.0,147369.0,1.0
14:59:59.653886,177047.640625,182884.578125,196362.671875,174825.34375,173189.546875,194770.34375,688255.5,173239.796875,0.0634765625,0.997802734375,-0.20361328125,-1.5869139432907104,-0.4577636420726776,-0.1831054538488388,100.0,147370.0,1.0
14:59:59.653899,177109.6875,182895.03125,196375.8125,174817.828125,173194.640625,194822.546875,688526.125,173236.75,0.065185546875,0.995849609375,-0.20263671875,-1.6784666776657104,-0.4577636420726776,-0.0915527269244194,100.0,147371.0,1.0
14:59:59.655681,177065.515625,182899.953125,196372.421875,174827.125,173202.875,194813.96875,688615.6875,173244.625,0.06591796875,0.99658203125,-0.205810546875,-1.8615721464157104,-0.3967284858226776,0.0,100.0,147372.0,1.0
14:59:59.658363,177011.078125,182892.0,196358.921875,174832.3125,173199.03125,194763.359375,688418.9375,173247.484375,0.06640625,0.993896484375,-0.207763671875,-2.014159917831421,-0.3051757514476776,0.1220703050494194,100.0,147373.0,1.0
14:59:59.661944,177039.234375,182895.921875,196363.84375,174828.015625,173196.53125,194775.4375,688248.25,173244.265625,0.06494140625,0.990966796875,-0.20654296875,-2.136230230331421,-0.3356933295726776,0.1831054538488388,100.0,147374.0,1.0
14:59:59.672681,177118.0,182911.125,196379.21875,174821.40625,173199.390625,194829.96875,688484.625,173240.25,0.064697265625,0.9892578125,-0.205078125,-2.258300542831421,-0.2441406100988388,0.4272460639476776,100.0,147375.0,1.0
14:59:59.672696,177079.640625,182911.671875,196375.1875,174827.578125,173203.234375,194826.125,688629.625,173240.6875,0.064208984375,0.98779296875,-0.205078125,-2.136230230331421,-0.2136230319738388,0.5187987685203552,100.0,147376.0,1.0
14:59:59.675280,177013.578125,182890.203125,196351.234375,174825.875,173189.8125,194755.3125,688461.5625,173238.09375,0.065185546875,0.9853515625,-0.205322265625,-2.075195074081421,-0.1831054538488388,0.5493163466453552,100.0,147377.0,1.0
14:59:59.675348,177024.578125,182896.109375,196357.40625,174827.21875,173190.984375,194759.78125,688248.0,173241.40625,0.0654296875,0.981201171875,-0.204833984375,-2.105712652206421,-0.1831054538488388,0.5798339247703552,100.0,147378.0,1.0
14:59:59.687079,177116.296875,182904.25,196378.5,174824.453125,173194.828125,194810.03125,688433.875,173243.546875,0.06494140625,0.9814453125,-0.206298828125,-2.166747808456421,-0.2136230319738388,0.5493163466453552,100.0,147379.0,1.0
14:59:59.690038,177091.1875,182904.515625,196376.71875,174826.234375,173198.84375,194821.65625,688630.1875,173243.8125,0.0634765625,0.98095703125,-0.205810546875,-2.014159917831421,-0.2441406100988388,0.6103515028953552,100.0,147380.0,1.0
14:59:59.690079,177023.859375,182884.9375,196352.84375,174825.609375,173186.6875,194759.78125,688497.625,173241.140625,0.061279296875,0.980712890625,-0.202392578125,-2.014159917831421,-0.2746581733226776,0.5798339247703552,100.0,147381.0,1.0
14:59:59.691940,177011.609375,182887.53125,196352.3125,174823.734375,173186.421875,194747.984375,688256.375,173237.46875,0.0625,0.981689453125,-0.202880859375,-1.8920897245407104,-0.1525878757238388,0.5493163466453552,100.0,147382.0,1.0
14:59:59.702033,177110.84375,182905.578125,196378.234375,174821.859375,173196.53125,194804.046875,688386.9375,173240.25,0.062255859375,0.983154296875,-0.205322265625,-1.8615721464157104,-0.1525878757238388,0.4577636420726776,100.0,147383.0,1.0
14:59:59.704978,177105.75,182911.046875,196381.0,174820.6875,173201.703125,194827.296875,688615.625,173235.6875,0.0634765625,0.982177734375,-0.205322265625,-1.7700194120407104,-0.2136230319738388,0.4882812201976776,100.0,147384.0,1.0
14:59:59.704986,177041.5625,182896.640625,196364.46875,174826.234375,173198.578125,194774.8125,688545.25,173238.640625,0.066650390625,0.981201171875,-0.205078125,-1.6174315214157104,-0.2441406100988388,0.5187987685203552,100.0,147385.0,1.0
14:59:59.711923,177016.96875,182900.125,196363.484375,174833.921875,173202.25,194755.3125,688304.5,173243.734375,0.06640625,0.982177734375,-0.207763671875,-1.4953612089157104,-0.1525878757238388,0.4272460639476776,100.0,147386.0,1.0
14:59:59.722544,177104.0625,182910.6875,196382.34375,174828.46875,173204.484375,194798.140625,688344.5625,173243.28125,0.06591796875,0.984375,-0.207275390625,-1.4343260526657104,-0.1525878757238388,0.4272460639476776,100.0,147387.0,1.0
14:59:59.722553,177120.859375,182916.40625,196388.15625,174824.890625,173208.0625,194833.28125,688601.9375,173242.03125,0.06689453125,0.984619140625,-0.205322265625,-1.3122557401657104,-0.0915527269244194,0.3662109076976776,100.0,147388.0,1.0
14:59:59.728768,177055.859375,182902.1875,196369.375,174828.734375,173202.609375,194791.625,688590.75,173246.59375,0.067138671875,0.98388671875,-0.206298828125,-1.3122557401657104,-0.2136230319738388,0.3967284858226776,100.0,147389.0,1.0
14:59:59.728786,177008.296875,182892.078125,196355.53125,174832.140625,173194.375,194753.984375,688346.3125,173246.5,0.06787109375,0.982421875,-0.2080078125,-1.2207030057907104,-0.0915527269244194,0.3662109076976776,100.0,147390.0,1.0
14:59:59.730673,177068.65625,182889.046875,196359.09375,174818.90625,173185.171875,194778.921875,688306.1875,173237.921875,0.067626953125,0.982421875,-0.20703125,-1.0986326932907104,-0.03051757626235485,0.3967284858226776,100.0,147391.0,1.0
14:59:59.733170,177110.5,182899.421875,196370.453125,174816.84375,173192.671875,194825.5,688579.125,173238.71875,0.068359375,0.983154296875,-0.20703125,-1.0681151151657104,-0.03051757626235485,0.3967284858226776,100.0,147392.0,1.0
14:59:59.743876,177048.71875,182893.25,196356.859375,174818.8125,173191.96875,194801.359375,688614.625,173238.359375,0.068603515625,0.983154296875,-0.208251953125,-1.0070799589157104,0.0610351525247097,0.3662109076976776,100.0,147393.0,1.0
14:59:59.743901,176989.25,182875.8125,196337.546875,174815.59375,173183.65625,194748.34375,688382.25,173234.078125,0.070068359375,0.983642578125,-0.205322265625,-1.0070799589157104,0.1220703050494194,0.2441406100988388,100.0,147394.0,1.0
14:59:59.746386,177041.109375,182886.984375,196350.078125,174814.96875,173187.21875,194776.515625,688261.9375,173234.796875,0.069091796875,0.986572265625,-0.210693359375,-0.8239745497703552,0.1831054538488388,0.2746581733226776,100.0,147395.0,1.0
14:59:59.746403,177106.5625,182900.40625,196365.890625,174810.3125,173192.953125,194828.1875,688522.0,173232.828125,0.068115234375,0.9873046875,-0.20849609375,-0.7019042372703552,0.2441406100988388,0.3967284858226776,100.0,147396.0,1.0
14:59:59.753208,177058.546875,182898.796875,196359.734375,174815.0625,173195.890625,194814.328125,688621.25,173234.4375,0.067138671875,0.988037109375,-0.209228515625,-0.7629393935203552,0.3051757514476776,0.3356933295726776,100.0,147397.0,1.0
14:59:59.768887,176992.296875,182876.53125,196337.640625,174810.140625,173183.375,194749.328125,688408.125,173226.828125,0.067138671875,0.987548828125,-0.207763671875,-0.7019042372703552,0.3662109076976776,0.3662109076976776,100.0,147398.0,1.0
14:59:59.768903,177020.375,182886.8125,196344.96875,174808.359375,173184.984375,194766.3125,688229.8125,173223.875,0.065673828125,0.987548828125,-0.208984375,-0.7019042372703552,0.3967284858226776,0.3051757514476776,100.0,147399.0,1.0
14:59:59.771307,177102.09375,182900.21875,196361.15625,174803.609375,173189.640625,194821.75,688471.125,173223.875,0.063720703125,0.98876953125,-0.2080078125,-0.7019042372703552,0.3967284858226776,0.4882812201976776,100.0,147400.0,1.0
14:59:59.771330,177063.015625,182895.75,196356.234375,174809.6875,173194.203125,194819.875,688617.75,173228.171875,0.0634765625,0.990478515625,-0.207763671875,-0.6103515028953552,0.4272460639476776,0.3662109076976776,100.0,147401.0,1.0
14:59:59.773184,176997.75,182874.734375,196336.03125,174814.15625,173185.890625,194756.65625,688460.375,173230.3125,0.0615234375,0.98974609375,-0.208984375,-0.6408690810203552,0.3967284858226776,0.3967284858226776,100.0,147402.0,1.0
14:59:59.776995,177006.875,182884.65625,196342.734375,174814.875,173188.75,194759.78125,688236.4375,173231.21875,0.06103515625,0.989013671875,-0.212646484375,-0.5493163466453552,0.3356933295726776,0.4272460639476776,100.0,147403.0,1.0
14:59:59.792579,177104.765625,182903.171875,196367.234375,174813.09375,173197.234375,194817.28125,688407.75,173231.65625,0.060546875,0.990478515625,-0.212158203125,-0.5493163466453552,0.3967284858226776,0.4272460639476776,100.0,147404.0,1.0
14:59:59.792588,177085.28125,182911.484375,196370.28125,174816.671875,173203.671875,194834.71875,688610.1875,173231.578125,0.060791015625,0.990234375,-0.2119140625,-0.5798339247703552,0.3662109076976776,0.4272460639476776,100.0,147405.0,1.0
14:59:59.794966,177014.5625,182887.96875,196345.421875,174813.1875,173189.375,194767.5625,688499.75,173226.203125,0.06103515625,0.99169921875,-0.210693359375,-0.6408690810203552,0.1220703050494194,0.3662109076976776,100.0,147406.0,1.0
14:59:59.794980,177002.046875,182890.125,196343.984375,174815.859375,173185.96875,194752.1875,688260.375,173228.625,0.0625,0.991943359375,-0.209228515625,-0.5798339247703552,0.1831054538488388,0.4272460639476776,100.0,147407.0,1.0
14:59:59.796908,177093.0625,182899.0625,196360.0,174807.90625,173184.28125,194797.15625,688369.3125,173226.75,0.060791015625,0.99169921875,-0.209716796875,-0.6713866591453552,0.1525878757238388,0.4577636420726776,100.0,147408.0,1.0
14:59:59.800689,177090.015625,182904.15625,196362.140625,174805.84375,173188.5625,194821.21875,688601.25,173223.609375,0.060791015625,0.9931640625,-0.208251953125,-0.6713866591453552,0.1525878757238388,0.5187987685203552,100.0,147409.0,1.0
14:59:59.811307,177018.21875,182878.671875,196339.4375,174804.6875,173179.265625,194761.75,688535.9375,173222.265625,0.06103515625,0.993896484375,-0.2109375,-0.7324218153953552,0.0610351525247097,0.5493163466453552,100.0,147410.0,1.0
14:59:59.811330,176985.59375,182874.46875,196333.625,174819.96875,173178.375,194735.828125,688284.25,173229.328125,0.0615234375,0.99365234375,-0.2080078125,-0.8239745497703552,0.0915527269244194,0.5493163466453552,100.0,147411.0,1.0
14:59:59.813180,177077.328125,182892.625,196357.140625,174839.203125,173186.0625,194790.90625,688317.625,173243.46875,0.061279296875,0.995361328125,-0.204345703125,-0.9155272841453552,0.0,0.5187987685203552,100.0,147412.0,1.0
14:59:59.819566,177092.25,182895.84375,196355.078125,174789.578125,173182.578125,194814.140625,688581.1875,173221.109375,0.062744140625,0.996337890625,-0.20751953125,-1.0375975370407104,0.0610351525247097,0.5493163466453552,100.0,147413.0,1.0
14:59:59.826329,177019.65625,182871.34375,196330.3125,174791.1875,173169.796875,194764.34375,688570.9375,173212.53125,0.0625,0.99560546875,-0.208251953125,-1.0986326932907104,0.0,0.6103515028953552,100.0,147414.0,1.0
14:59:59.826349,176974.953125,182866.875,196320.390625,174801.296875,173166.21875,194727.875,688335.4375,173219.40625,0.061767578125,0.993896484375,-0.211669921875,-1.3122557401657104,-0.0610351525247097,0.7019042372703552,100.0,147415.0,1.0
14:59:59.833784,177053.359375,182886.359375,196342.5625,174801.828125,173173.90625,194773.015625,688286.125,173224.515625,0.062255859375,0.991455078125,-0.208740234375,-1.3732908964157104,-0.1220703050494194,0.6103515028953552,100.0,147416.0,1.0
14:59:59.833797,177107.453125,182907.015625,196363.75,174804.78125,173186.421875,194831.3125,688565.5625,173225.9375,0.061767578125,0.9873046875,-0.207763671875,-1.3427733182907104,-0.0610351525247097,0.6103515028953552,100.0,147417.0,1.0
14:59:59.835647,177048.09375,182896.90625,196350.96875,174805.9375,173185.171875,194804.21875,688610.875,173224.515625,0.063232421875,0.986083984375,-0.207763671875,-1.4343260526657104,-0.03051757626235485,0.6713866591453552,100.0,147418.0,1.0
14:59:59.850741,176993.375,182881.359375,196337.640625,174808.796875,173180.609375,194751.828125,688392.75,173224.859375,0.064453125,0.984619140625,-0.207763671875,-1.4953612089157104,-0.03051757626235485,0.7324218153953552,100.0,147419.0,1.0
14:59:59.853728,177042.984375,182891.1875,196350.78125,174807.90625,173183.203125,194778.828125,688263.25,173227.09375,0.06494140625,0.985595703125,-0.2080078125,-1.4953612089157104,-0.1831054538488388,0.8544921278953552,100.0,147420.0,1.0
14:59:59.853734,177111.5625,182902.90625,196367.859375,174808.625,173190.359375,194831.40625,688517.1875,173228.4375,0.06591796875,0.990234375,-0.2119140625,-1.4953612089157104,-0.2441406100988388,0.8850097060203552,100.0,147421.0,1.0
14:59:59.884429,177057.03125,182897.265625,196353.5625,174808.359375,173186.234375,194813.703125,688620.0625,173223.703125,0.066650390625,0.99365234375,-0.210205078125,-1.5258787870407104,-0.1220703050494194,0.9155272841453552,100.0,147422.0,1.0
14:59:59.912056,176990.328125,182875.640625,196331.75,174804.0625,173172.65625,194749.6875,688419.8125,173218.25,0.06787109375,0.99169921875,-0.20849609375,-1.6479490995407104,-0.03051757626235485,0.9765624403953552,100.0,147423.0,1.0
14:59:59.930776,177025.734375,182894.859375,196348.734375,174809.515625,173182.484375,194774.984375,688241.1875,173227.1875,0.066650390625,0.989013671875,-0.207275390625,-1.7089842557907104,0.0610351525247097,1.0681151151657104,100.0,147424.0,1.0
14:59:59.935810,177108.171875,182903.34375,196363.296875,174801.921875,173184.546875,194821.84375,688468.125,173222.546875,0.0673828125,0.98828125,-0.2080078125,-1.7700194120407104,0.0610351525247097,1.0375975370407104,100.0,147425.0,1.0
14:59:59.938407,177069.015625,182903.171875,196355.796875,174802.8125,173184.984375,194820.046875,688616.9375,173217.890625,0.069091796875,0.98486328125,-0.209716796875,-1.8615721464157104,0.0915527269244194,1.0375975370407104,100.0,147426.0,1.0
14:59:59.940672,176999.09375,182874.296875,196329.859375,174803.703125,173170.234375,194746.375,688462.0,173214.671875,0.066650390625,0.986572265625,-0.20849609375,-1.8920897245407104,0.0,1.0986326932907104,100.0,147427.0,1.0
14:59:59.943186,177006.15625,182880.109375,196337.640625,174810.59375,173175.6875,194746.640625,688245.375,173222.546875,0.0654296875,0.987548828125,-0.209716796875,-1.8005369901657104,0.03051757626235485,1.0070799589157104,100.0,147428.0,1.0
14:59:59.945712,177103.4375,182896.5625,196363.390625,174811.03125,173185.265625,194804.21875,688419.625,173229.96875,0.0634765625,0.988525390625,-0.2099609375,-1.7700194120407104,0.1220703050494194,1.0375975370407104,100.0,147429.0,1.0
14:59:59.948263,177072.5,182887.703125,196353.109375,174803.25,173179.890625,194806.015625,688614.1875,173219.859375,0.063720703125,0.987060546875,-0.20458984375,-1.8920897245407104,0.1525878757238388,0.9155272841453552,100.0,147430.0,1.0
14:59:59.950644,176994.890625,182857.03125,196323.703125,174799.859375,173162.453125,194734.578125,688499.5,173215.484375,0.0625,0.987548828125,-0.205078125,-1.8920897245407104,0.0915527269244194,0.8239745497703552,100.0,147431.0,1.0
14:59:59.953279,176981.203125,182862.140625,196323.515625,174804.859375,173164.421875,194728.859375,688260.125,173221.296875,0.06298828125,0.98681640625,-0.20703125,-1.9531248807907104,0.0915527269244194,0.5798339247703552,100.0,147432.0,1.0
14:59:59.955663,177078.9375,182880.015625,196344.796875,174802.546875,173171.21875,194789.109375,688354.1875,173224.0625,0.064453125,0.9853515625,-0.20947265625,-2.014159917831421,-0.0610351525247097,0.5798339247703552,100.0,147433.0,1.0
14:59:59.958180,177079.015625,182879.484375,196346.21875,174801.375,173174.96875,194807.796875,688601.25,173222.546875,0.066650390625,0.986083984375,-0.21240234375,-2.075195074081421,0.0,0.4272460639476776,100.0,147434.0,1.0
14:59:59.960636,177012.234375,182867.859375,196328.25,174805.21875,173169.609375,194761.84375,688541.5625,173224.15625,0.065673828125,0.986572265625,-0.210205078125,-1.9226073026657104,-0.0610351525247097,0.4577636420726776,100.0,147435.0,1.0
14:59:59.963236,176983.625,182876.703125,196328.4375,174815.5,173175.0625,194745.21875,688292.5625,173233.0,0.06689453125,0.986572265625,-0.210693359375,-1.8310545682907104,-0.03051757626235485,0.3356933295726776,100.0,147436.0,1.0
14:59:59.965727,177077.6875,182903.53125,196356.234375,174814.96875,173185.609375,194803.328125,688328.0,173237.734375,0.068603515625,0.98876953125,-0.211669921875,-1.8005369901657104,0.0610351525247097,0.4577636420726776,100.0,147437.0,1.0
14:59:59.968254,177100.125,182903.53125,196361.875,174810.859375,173188.203125,194834.0,688589.25,173229.96875,0.069091796875,0.989501953125,-0.20849609375,-1.8615721464157104,0.2136230319738388,0.3967284858226776,100.0,147438.0,1.0
14:59:59.970711,177035.921875,182885.46875,196343.0,174812.640625,173181.59375,194790.1875,688581.125,173229.6875,0.068603515625,0.990478515625,-0.20703125,-1.9226073026657104,0.1220703050494194,0.4882812201976776,100.0,147439.0,1.0
14:59:59.973133,176988.1875,182877.515625,196331.921875,174813.09375,173177.390625,194756.75,688335.0625,173229.25,0.068603515625,0.98974609375,-0.20751953125,-1.9531248807907104,0.1831054538488388,0.5187987685203552,100.0,147440.0,1.0
14:59:59.975729,177055.15625,182885.46875,196344.53125,174807.1875,173176.578125,194785.453125,688279.0,173225.765625,0.0673828125,0.98974609375,-0.2080078125,-1.9531248807907104,0.3662109076976776,0.5798339247703552,100.0,147441.0,1.0
14:59:59.978253,177106.46875,182896.203125,196357.578125,174809.0625,173182.75,194824.4375,688547.6875,173226.75,0.06689453125,0.990234375,-0.21044921875,-1.8920897245407104,0.3051757514476776,0.7629393935203552,100.0,147442.0,1.0
14:59:59.980826,177047.375,182883.0625,196343.71875,174808.796875,173181.140625,194796.71875,688601.375,173226.921875,0.06640625,0.98974609375,-0.2119140625,-1.8920897245407104,0.3356933295726776,0.7934569716453552,100.0,147443.0,1.0
14:59:59.983224,176988.546875,182870.890625,196327.71875,174811.03125,173174.0,194746.734375,688384.25,173226.65625,0.064697265625,0.98974609375,-0.2119140625,-1.9531248807907104,0.3967284858226776,0.8544921278953552,100.0,147444.0,1.0
14:59:59.986332,177036.109375,182883.0625,196339.34375,174809.25,173175.78125,194770.078125,688250.6875,173227.71875,0.066162109375,0.9912109375,-0.2099609375,-1.8920897245407104,0.3662109076976776,0.7629393935203552,100.0,147445.0,1.0
14:59:59.986339,177102.71875,182889.3125,196353.46875,174802.71875,173179.796875,194817.71875,688502.25,173225.3125,0.06689453125,0.992431640625,-0.210693359375,-1.8920897245407104,0.4272460639476776,0.7019042372703552,100.0,147446.0,1.0
14:59:59.988790,177051.125,182884.578125,196343.359375,174804.78125,173180.15625,194803.421875,688609.375,173224.515625,0.06640625,0.993408203125,-0.209228515625,-2.044677495956421,0.4577636420726776,0.7934569716453552,100.0,147447.0,1.0
14:59:59.988801,176991.046875,182873.40625,196328.25,174806.390625,173175.421875,194748.171875,688415.6875,173226.296875,0.06640625,0.994384765625,-0.206298828125,-2.105712652206421,0.4882812201976776,0.9460448622703552,100.0,147448.0,1.0
14:59:59.988806,177013.21875,182875.09375,196332.015625,174801.203125,173172.46875,194755.9375,688225.5625,173222.71875,0.066162109375,0.99365234375,-0.205322265625,-2.227782964706421,0.4577636420726776,0.9155272841453552,100.0,147449.0,1.0
14:59:59.996257,177100.75,182886.8125,196353.203125,174799.234375,173179.53125,194806.640625,688458.625,173222.984375,0.064697265625,0.990966796875,-0.207763671875,-2.288818120956421,0.4272460639476776,0.7629393935203552,100.0,147450.0,1.0
14:59:59.996264,177071.78125,182890.390625,196356.59375,174809.609375,173190.53125,194812.53125,688626.25,173230.9375,0.062744140625,0.990478515625,-0.207763671875,-2.380370855331421,0.3967284858226776,0.7324218153953552,100.0,147451.0,1.0
14:59:59.996266,177008.921875,182874.203125,196338.453125,174812.828125,173183.46875,194753.4375,688470.4375,173233.453125,0.063232421875,0.990234375,-0.207275390625,-2.441406011581421,0.3967284858226776,0.8544921278953552,100.0,147452.0,1.0
14:59:59.996268,177002.75,182874.203125,196336.03125,174806.828125,173177.75,194745.390625,688235.1875,173229.515625,0.06298828125,0.99072265625,-0.20703125,-2.441406011581421,0.3051757514476776,0.6713866591453552,100.0,147453.0,1.0
14:59:59.998189,177095.828125,182888.6875,196357.3125,174799.6875,173181.140625,194798.953125,688400.9375,173227.8125,0.062744140625,0.988525390625,-0.20654296875,-2.471923589706421,0.3662109076976776,0.6103515028953552,100.0,147454.0,1.0
15:00:00.001249,177082.859375,182896.5625,196361.78125,174807.28125,173188.828125,194819.953125,688612.75,173231.921875,0.064697265625,0.988525390625,-0.2080078125,-2.441406011581421,0.3967284858226776,0.5798339247703552,100.0,147455.0,1.0
15:00:00.001258,177016.796875,182883.234375,196343.8125,174811.390625,173180.25,194765.15625,688513.125,173233.265625,0.06591796875,0.98974609375,-0.205322265625,-2.471923589706421,0.2746581733226776,0.5798339247703552,100.0,147456.0,1.0
15:00:00.003744,176994.890625,182881.359375,196338.71875,174810.765625,173176.9375,194748.25,688267.125,173232.015625,0.066162109375,0.9892578125,-0.2041015625,-2.471923589706421,0.2746581733226776,0.6713866591453552,100.0,147457.0,1.0
15:00:00.003750,177086.0,182891.90625,196356.859375,174805.84375,173178.1875,194794.203125,688355.25,173231.65625,0.06787109375,0.988525390625,-0.203857421875,-2.441406011581421,0.3662109076976776,0.6103515028953552,100.0,147458.0,1.0
15:00:00.005700,177094.046875,182903.703125,196364.640625,174812.203125,173188.921875,194829.96875,688600.9375,173236.671875,0.069091796875,0.9873046875,-0.203857421875,-2.410888433456421,0.3051757514476776,0.5187987685203552,100.0,147459.0,1.0
15:00:00.008183,177025.015625,182883.859375,196345.15625,174817.109375,173183.375,194779.71875,688550.0625,173240.875,0.0703125,0.98779296875,-0.201904296875,-2.471923589706421,0.3356933295726776,0.4272460639476776,100.0,147460.0,1.0
15:00:00.010671,176980.5,182870.8125,196328.34375,174811.75,173172.46875,194740.828125,688298.75,173230.59375,0.07080078125,0.986328125,-0.200439453125,-2.410888433456421,0.2746581733226776,0.4577636420726776,100.0,147461.0,1.0
15:00:00.018794,177062.921875,182883.0625,196342.5625,174804.15625,173173.453125,194782.40625,688314.25,173227.28125,0.069580078125,0.984375,-0.204833984375,-2.380370855331421,0.3967284858226776,0.5493163466453552,100.0,147462.0,1.0
15:00:00.018830,177098.78125,182900.3125,196361.25,174813.71875,173189.28125,194830.59375,688583.3125,173237.109375,0.069091796875,0.9853515625,-0.203857421875,-2.471923589706421,0.3967284858226776,0.5493163466453552,100.0,147463.0,1.0
15:00:00.026302,177036.734375,182892.796875,196347.203125,174815.859375,173187.671875,194793.671875,688576.875,173237.03125,0.069091796875,0.986083984375,-0.20556640625,-2.441406011581421,0.4272460639476776,0.6713866591453552,100.0,147464.0,1.0
15:00:00.026327,176984.078125,182883.859375,196329.421875,174810.59375,173176.5,194749.328125,688332.5625,173227.90625,0.067626953125,0.987548828125,-0.204345703125,-2.349853277206421,0.4272460639476776,0.6713866591453552,100.0,147465.0,1.0
15:00:00.028220,177052.015625,182892.53125,196344.53125,174805.046875,173177.125,194782.859375,688268.1875,173226.65625,0.0654296875,0.986572265625,-0.203857421875,-2.380370855331421,0.4577636420726776,0.5187987685203552,100.0,147466.0,1.0
15:00:00.039088,177107.625,182908.0,196361.96875,174806.296875,173185.890625,194832.390625,688535.0625,173229.6875,0.064208984375,0.9853515625,-0.2060546875,-2.319335699081421,0.3967284858226776,0.5187987685203552,100.0,147467.0,1.0
15:00:00.039165,177043.96875,182893.78125,196342.5625,174805.484375,173178.546875,194798.953125,688594.1875,173226.390625,0.063232421875,0.986083984375,-0.20166015625,-2.227782964706421,0.2746581733226776,0.4272460639476776,100.0,147468.0,1.0
15:00:00.040727,176986.03125,182876.625,196323.78125,174805.140625,173170.140625,194742.984375,688384.9375,173224.0625,0.065185546875,0.986328125,-0.202392578125,-2.197265386581421,0.2746581733226776,0.5493163466453552,100.0,147469.0,1.0
15:00:00.044426,177033.609375,182885.828125,196337.203125,174806.125,173173.640625,194765.875,688246.25,173226.921875,0.064208984375,0.985595703125,-0.2021484375,-2.197265386581421,0.3967284858226776,0.4882812201976776,100.0,147470.0,1.0
15:00:00.060074,177107.0,182899.328125,196356.515625,174807.015625,173181.328125,194820.859375,688500.75,173229.15625,0.06298828125,0.9853515625,-0.201171875,-2.197265386581421,0.3662109076976776,0.4882812201976776,100.0,147471.0,1.0
15:00:00.060138,177055.859375,182894.046875,196347.65625,174808.078125,173181.40625,194808.875,688619.3125,173227.71875,0.061767578125,0.986572265625,-0.203857421875,-2.014159917831421,0.3356933295726776,0.4882812201976776,100.0,147472.0,1.0
15:00:00.062580,176993.90625,182876.078125,196329.59375,174810.859375,173172.921875,194749.6875,688431.625,173228.796875,0.0625,0.984619140625,-0.2021484375,-1.9531248807907104,0.2441406100988388,0.4882812201976776,100.0,147473.0,1.0
15:00:00.062605,177015.71875,182882.25,196335.3125,174809.96875,173174.265625,194759.96875,688241.0,173227.546875,0.062744140625,0.986572265625,-0.205322265625,-1.9226073026657104,0.2136230319738388,0.3967284858226776,100.0,147474.0,1.0
15:00:00.064389,177100.03125,182891.453125,196351.6875,174803.875,173178.46875,194812.09375,688456.5,173225.40625,0.064208984375,0.985595703125,-0.2060546875,-1.8310545682907104,0.0610351525247097,0.5798339247703552,100.0,147475.0,1.0
15:00:00.069442,177074.8125,182899.421875,196355.796875,174811.390625,173189.640625,194824.34375,688633.4375,173235.234375,0.06298828125,0.986572265625,-0.201904296875,-1.7700194120407104,0.1220703050494194,0.4577636420726776,100.0,147476.0,1.0
15:00:00.075666,176998.640625,182871.34375,196326.46875,174804.78125,173171.125,194754.15625,688474.25,173230.40625,0.061767578125,0.986083984375,-0.203125,-1.6784666776657104,0.1220703050494194,0.3662109076976776,100.0,147477.0,1.0
15:00:00.082532,176991.9375,182870.265625,196320.921875,174802.09375,173162.28125,194742.0,688237.8125,173225.484375,0.061767578125,0.98828125,-0.201904296875,-1.6479490995407104,0.0915527269244194,0.3967284858226776,100.0,147478.0,1.0
15:00:00.082550,177082.0625,182877.25,196336.65625,174797.53125,173160.3125,194786.703125,688404.6875,173225.578125,0.0625,0.989013671875,-0.201171875,-1.5869139432907104,0.0610351525247097,0.3967284858226776,100.0,147479.0,1.0
15:00:00.084980,177064.625,182877.875,196333.53125,174795.921875,173162.375,194803.78125,688616.0,173225.84375,0.064453125,0.987548828125,-0.20166015625,-1.4343260526657104,-0.03051757626235485,0.3967284858226776,100.0,147480.0,1.0
15:00:00.084991,176994.890625,182858.203125,196312.515625,174797.890625,173153.78125,194746.375,688518.9375,173227.1875,0.06591796875,0.98681640625,-0.20458984375,-1.4343260526657104,-0.0610351525247097,0.3356933295726776,100.0,147481.0,1.0
15:00:00.099531,176968.875,182854.171875,196306.265625,174798.34375,173148.59375,194726.796875,688271.875,173225.21875,0.064208984375,0.9873046875,-0.2001953125,-1.4343260526657104,-0.0915527269244194,0.3356933295726776,100.0,147482.0,1.0
15:00:00.102700,177058.375,182869.46875,196323.96875,174790.921875,173150.296875,194778.5625,688351.3125,173223.34375,0.0625,0.98828125,-0.204345703125,-1.3427733182907104,-0.0610351525247097,0.4577636420726776,100.0,147483.0,1.0
15:00:00.102725,177070.171875,182880.46875,196334.875,174796.109375,173163.078125,194816.65625,688599.625,173228.796875,0.06396484375,0.987548828125,-0.2041015625,-1.3427733182907104,-0.0610351525247097,0.4272460639476776,100.0,147484.0,1.0
15:00:00.104519,177001.5,182860.34375,196316.0,174799.859375,173157.09375,194765.0625,688550.5,173229.6875,0.064208984375,0.98974609375,-0.20361328125,-1.3122557401657104,-0.0610351525247097,0.3967284858226776,100.0,147485.0,1.0
15:00:00.116258,176964.671875,182859.71875,196309.03125,174801.375,173154.953125,194735.375,688301.0625,173227.546875,0.06494140625,0.990234375,-0.2041015625,-1.3122557401657104,-0.0610351525247097,0.4882812201976776,100.0,147486.0,1.0
15:00:00.116280,177049.515625,182872.140625,196328.25,174798.515625,173158.34375,194774.359375,688313.625,173225.140625,0.064697265625,0.99072265625,-0.201904296875,-1.2817381620407104,-0.0610351525247097,0.5493163466453552,100.0,147487.0,1.0
15:00:00.118760,177084.75,182885.46875,196341.390625,174797.890625,173167.828125,194818.0,688579.6875,173226.296875,0.064208984375,0.989990234375,-0.203125,-1.2817381620407104,-0.2136230319738388,0.5187987685203552,100.0,147488.0,1.0
15:00:00.118773,177028.15625,182879.65625,196331.75,174806.46875,173168.625,194785.0,688582.0625,173233.453125,0.06494140625,0.99072265625,-0.2041015625,-1.3427733182907104,-0.2136230319738388,0.5493163466453552,100.0,147489.0,1.0
15:00:00.128181,176981.65625,182873.84375,196320.390625,174809.34375,173164.515625,194743.515625,688350.0625,173234.875,0.0634765625,0.990234375,-0.20556640625,-1.3122557401657104,-0.3051757514476776,0.6103515028953552,100.0,147490.0,1.0
15:00:00.134977,177044.59375,182886.8125,196334.96875,174804.859375,173167.828125,194780.078125,688281.25,173235.765625,0.063720703125,0.989501953125,-0.204345703125,-1.3427733182907104,-0.2441406100988388,0.6408690810203552,100.0,147491.0,1.0
15:00:00.134988,177086.984375,182881.171875,196338.890625,174794.046875,173164.609375,194814.140625,688541.125,173226.921875,0.064453125,0.989013671875,-0.202392578125,-1.3732908964157104,-0.2441406100988388,0.4882812201976776,100.0,147492.0,1.0
15:00:00.145027,177023.40625,182863.921875,196317.890625,174789.84375,173153.25,194775.875,688600.6875,173217.4375,0.065673828125,0.990234375,-0.202392578125,-1.4343260526657104,-0.2746581733226776,0.5798339247703552,100.0,147493.0,1.0
15:00:00.145037,176969.3125,182856.671875,196305.1875,174795.125,173148.515625,194725.8125,688381.875,173218.078125,0.065673828125,0.989501953125,-0.205078125,-1.4038084745407104,-0.2441406100988388,0.4272460639476776,100.0,147494.0,1.0
15:00:00.151286,177018.3125,182869.109375,196321.8125,174798.96875,173155.75,194753.53125,688249.75,173220.390625,0.06591796875,0.990478515625,-0.204833984375,-1.3427733182907104,-0.2136230319738388,0.4577636420726776,100.0,147495.0,1.0
15:00:00.151298,177090.46875,182879.65625,196336.84375,174793.59375,173161.296875,194806.734375,688511.1875,173219.140625,0.067626953125,0.990234375,-0.20654296875,-1.3732908964157104,-0.2136230319738388,0.4577636420726776,100.0,147496.0,1.0
15:00:00.158968,177038.875,182870.984375,196325.578125,174795.5625,173162.375,194792.953125,688619.5625,173221.375,0.066650390625,0.989501953125,-0.20263671875,-1.3427733182907104,-0.2136230319738388,0.4577636420726776,100.0,147497.0,1.0
15:00:00.159027,176973.4375,182850.59375,196306.890625,174799.859375,173152.625,194727.25,688439.1875,173222.453125,0.06689453125,0.98681640625,-0.2041015625,-1.4648436307907104,-0.2136230319738388,0.4272460639476776,100.0,147498.0,1.0
15:00:00.164988,177004.71875,182867.3125,196325.03125,174811.578125,173163.265625,194742.71875,688246.8125,173235.421875,0.0673828125,0.986572265625,-0.205322265625,-1.3732908964157104,-0.1831054538488388,0.4272460639476776,100.0,147499.0,1.0
15:00:00.164997,177099.9375,182886.71875,196348.90625,174808.984375,173171.75,194797.703125,688447.6875,173238.90625,0.06640625,0.986328125,-0.20654296875,-1.2512205839157104,-0.0610351525247097,0.5798339247703552,100.0,147500.0,1.0
15:00:00.174408,177073.03125,182894.765625,196350.609375,174817.109375,173178.90625,194806.28125,688618.3125,173245.15625,0.06591796875,0.989013671875,-0.204833984375,-1.2512205839157104,-0.03051757626235485,0.5798339247703552,100.0,147501.0,1.0
15:00:00.178786,177005.34375,182871.796875,196327.1875,174818.28125,173163.984375,194739.84375,688479.6875,173241.234375,0.067138671875,0.988037109375,-0.20556640625,-1.1901854276657104,-0.0610351525247097,0.5493163466453552,100.0,147502.0,1.0
15:00:00.178791,176999.8125,182871.25,196325.03125,174814.609375,173159.234375,194732.515625,688247.0625,173238.640625,0.065673828125,0.98974609375,-0.205322265625,-1.1901854276657104,-0.03051757626235485,0.4577636420726776,100.0,147503.0,1.0
15:00:00.187087,177092.96875,182881.171875,196342.296875,174805.9375,173161.203125,194781.15625,688408.4375,173234.609375,0.066650390625,0.989013671875,-0.202880859375,-1.1901854276657104,0.0610351525247097,0.5493163466453552,100.0,147504.0,1.0
15:00:00.187092,177075.359375,182882.34375,196339.078125,174801.375,173163.359375,194799.03125,688620.4375,173230.59375,0.06689453125,0.985595703125,-0.2060546875,-1.2512205839157104,0.1831054538488388,0.5493163466453552,100.0,147505.0,1.0
