Timestamp,Fz,FC3,FCz,FC4,Cz,C3,C4
15:07:11.032688,176548.03125,179316.078125,194352.1875,172089.9375,165548.203125,191241.625,689042.8125,174243.75,0.061279296875,0.9892578125,-0.205078125,-0.7324218153953552,0.0,0.5798339247703552,100.0,255273.0,1.0
15:07:11.032690,176501.28125,179304.625,194338.140625,172087.25,165540.515625,191225.984375,689174.125,174238.203125,0.060546875,0.990478515625,-0.203369140625,-0.8239745497703552,-0.1220703050494194,0.4577636420726776,100.0,255274.0,1.0
15:07:11.048979,176438.78125,179279.328125,194313.375,172086.796875,165524.421875,191153.109375,689010.5,174236.421875,0.06005859375,0.990234375,-0.201416015625,-0.7629393935203552,-0.1525878757238388,0.4577636420726776,100.0,255275.0,1.0
15:07:11.048992,176449.0625,179280.046875,194316.421875,172087.25,165522.09375,191151.140625,688772.25,174238.46875,0.06005859375,0.990966796875,-0.206298828125,-0.7934569716453552,-0.0915527269244194,0.4577636420726776,100.0,255276.0,1.0
15:07:11.053851,176529.265625,179294.890625,194332.25,172080.546875,165523.53125,191206.84375,688981.1875,174235.609375,0.060302734375,0.988525390625,-0.20654296875,-0.7019042372703552,-0.1831054538488388,0.5187987685203552,100.0,255277.0,1.0
15:07:11.053859,176499.125,179289.96875,194324.203125,172075.359375,165521.375,191212.296875,689162.8125,174229.703125,0.060546875,0.9892578125,-0.205810546875,-0.7019042372703552,-0.2441406100988388,0.4882812201976776,100.0,255278.0,1.0
15:07:11.053861,176434.3125,179265.5625,194299.15625,172072.140625,165507.171875,191144.4375,689045.5625,174226.046875,0.06201171875,0.98876953125,-0.206298828125,-0.7934569716453552,-0.1831054538488388,0.5187987685203552,100.0,255279.0,1.0
15:07:11.055881,176427.953125,179269.9375,194303.546875,172078.84375,165511.453125,191137.828125,688793.4375,174232.125,0.061279296875,0.98828125,-0.205078125,-0.7324218153953552,-0.3662109076976776,0.5493163466453552,100.0,255280.0,1.0
15:07:11.058263,176507.625,179277.1875,194319.375,172073.578125,165513.6875,191186.453125,688940.3125,174232.921875,0.061279296875,0.98876953125,-0.208251953125,-0.7629393935203552,-0.3662109076976776,0.4577636420726776,100.0,255281.0,1.0
15:07:11.060847,176500.46875,179279.234375,194320.984375,172075.453125,165519.421875,191207.296875,689169.6875,174235.171875,0.0595703125,0.98828125,-0.205810546875,-0.7629393935203552,-0.4577636420726776,0.4272460639476776,100.0,255282.0,1.0
15:07:11.063215,176442.796875,179262.703125,194303.8125,172080.640625,165514.765625,191151.6875,689095.8125,174240.703125,0.060546875,0.989013671875,-0.20654296875,-0.7934569716453552,-0.3662109076976776,0.3967284858226776,100.0,255283.0,1.0
15:07:11.065874,176412.765625,179258.859375,194295.859375,172079.734375,165510.296875,191126.015625,688828.6875,174238.46875,0.06201171875,0.989990234375,-0.20556640625,-0.7629393935203552,-0.3967284858226776,0.4882812201976776,100.0,255284.0,1.0
15:07:11.068513,176482.765625,179268.328125,194305.875,172065.4375,165505.203125,191171.265625,688872.9375,174230.421875,0.063232421875,0.99072265625,-0.207275390625,-0.8239745497703552,-0.4577636420726776,0.4272460639476776,100.0,255285.0,1.0
15:07:11.070863,176497.421875,179282.015625,194313.734375,172063.109375,165515.21875,191214.984375,689146.625,174228.09375,0.063232421875,0.990478515625,-0.2099609375,-0.8850097060203552,-0.3967284858226776,0.4272460639476776,100.0,255286.0,1.0
15:07:11.073315,176439.84375,179270.828125,194298.890625,172063.828125,165513.609375,191173.40625,689124.0625,174226.84375,0.06298828125,0.988525390625,-0.208251953125,-0.8544921278953552,-0.4272460639476776,0.4272460639476776,100.0,255287.0,1.0
15:07:11.076334,176403.1875,179265.828125,194290.40625,172061.59375,165511.375,191139.25,688870.0,174223.0,0.0625,0.98974609375,-0.209228515625,-0.8850097060203552,-0.4272460639476776,0.4577636420726776,100.0,255288.0,1.0
15:07:11.076337,176477.671875,179284.0625,194311.6875,172059.984375,165519.953125,191187.984375,688832.625,174222.734375,0.064453125,0.989013671875,-0.2099609375,-0.8544921278953552,-0.3967284858226776,0.5187987685203552,100.0,255289.0,1.0
15:07:11.078834,176520.3125,179301.140625,194330.640625,172064.453125,165533.71875,191238.5,689115.75,174225.859375,0.062255859375,0.98876953125,-0.20703125,-0.8544921278953552,-0.3662109076976776,0.4882812201976776,100.0,255290.0,1.0
15:07:11.078848,176468.90625,179289.609375,194321.34375,172074.828125,165536.046875,191202.109375,689136.5,174234.09375,0.06494140625,0.98876953125,-0.208251953125,-0.8850097060203552,-0.4272460639476776,0.4272460639476776,100.0,255291.0,1.0
15:07:11.080799,176426.34375,179278.515625,194313.640625,172082.78125,165534.171875,191152.671875,688900.375,174238.5625,0.064208984375,0.98828125,-0.211181640625,-0.9765624403953552,-0.3051757514476776,0.3051757514476776,100.0,255292.0,1.0
15:07:11.085099,176479.90625,179290.5,194330.359375,172084.390625,165538.640625,191182.078125,688783.875,174242.234375,0.063232421875,0.9873046875,-0.208251953125,-0.8850097060203552,-0.3051757514476776,0.3967284858226776,100.0,255293.0,1.0
15:07:11.085105,176535.78125,179300.703125,194344.5,172084.390625,165543.203125,191232.0625,689073.625,174244.015625,0.0634765625,0.98486328125,-0.20751953125,-0.9460448622703552,-0.3356933295726776,0.3356933295726776,100.0,255294.0,1.0
15:07:11.094532,176485.265625,179292.375,194332.421875,172088.859375,165542.390625,191209.703125,689156.0625,174246.96875,0.064208984375,0.98828125,-0.204345703125,-0.8850097060203552,-0.3967284858226776,0.4577636420726776,100.0,255295.0,1.0
15:07:11.098871,176425.8125,179271.453125,194310.078125,172086.890625,165530.046875,191145.328125,688953.0625,174243.65625,0.063232421875,0.989501953125,-0.2080078125,-0.8544921278953552,-0.3662109076976776,0.4577636420726776,100.0,255296.0,1.0
15:07:11.098884,176449.0625,179272.890625,194311.40625,172076.171875,165522.1875,191156.0625,688757.75,174234.8125,0.065185546875,0.9892578125,-0.20751953125,-0.9155272841453552,-0.2441406100988388,0.2746581733226776,100.0,255297.0,1.0
15:07:11.104598,176523.453125,179289.609375,194329.734375,172071.15625,165526.828125,191215.34375,689029.0625,174234.09375,0.065185546875,0.988037109375,-0.21044921875,-0.8850097060203552,-0.3051757514476776,0.3662109076976776,100.0,255298.0,1.0
15:07:11.112764,176482.234375,179286.921875,194319.90625,172069.546875,165524.515625,191210.59375,689167.875,174230.609375,0.0634765625,0.990478515625,-0.208740234375,-0.9460448622703552,-0.2746581733226776,0.3662109076976776,100.0,255299.0,1.0
15:07:11.112837,176413.03125,179259.484375,194289.0625,172060.421875,165504.296875,191138.71875,688997.125,174220.953125,0.061767578125,0.98779296875,-0.210693359375,-0.9460448622703552,-0.3051757514476776,0.3662109076976776,100.0,255300.0,1.0
15:07:11.115139,176425.8125,179266.1875,194295.5,172063.5625,165506.71875,191145.78125,688754.625,174224.078125,0.06201171875,0.988525390625,-0.211181640625,-0.9765624403953552,-0.2746581733226776,0.3967284858226776,100.0,255301.0,1.0
15:07:11.115210,176510.390625,179277.265625,194318.5625,172064.09375,165515.03125,191200.765625,688968.625,174230.421875,0.06201171875,0.991455078125,-0.2099609375,-1.0375975370407104,-0.2441406100988388,0.4272460639476776,100.0,255302.0,1.0
15:07:11.124543,176484.109375,179275.390625,194315.171875,172066.78125,165518.34375,191208.09375,689154.3125,174234.453125,0.064697265625,0.99072265625,-0.210693359375,-1.0070799589157104,-0.2746581733226776,0.4882812201976776,100.0,255303.0,1.0
15:07:11.128887,176422.6875,179255.359375,194295.5,172071.15625,165509.671875,191143.90625,689046.1875,174236.59375,0.06298828125,0.989013671875,-0.211669921875,-1.0070799589157104,-0.1220703050494194,0.4272460639476776,100.0,255304.0,1.0
15:07:11.128905,176417.234375,179259.125,194297.734375,172078.21875,165512.34375,191136.578125,688787.5625,174241.0625,0.061767578125,0.989501953125,-0.2109375,-1.0375975370407104,-0.2441406100988388,0.4577636420726776,100.0,255305.0,1.0
15:07:11.138231,176502.34375,179272.71875,194314.359375,172073.03125,165516.109375,191189.140625,688926.9375,174240.265625,0.0615234375,0.99072265625,-0.2109375,-1.1291502714157104,-0.2441406100988388,0.3051757514476776,100.0,255306.0,1.0
15:07:11.143794,176492.328125,179276.734375,194312.3125,172067.84375,165518.609375,191210.328125,689157.0625,174234.8125,0.060546875,0.989013671875,-0.210205078125,-1.1596678495407104,-0.2136230319738388,0.4577636420726776,100.0,255307.0,1.0
15:07:11.143806,176432.4375,179261.796875,194295.3125,172070.078125,165511.1875,191154.09375,689076.625,174235.171875,0.063232421875,0.98828125,-0.210205078125,-1.2512205839157104,-0.1220703050494194,0.4577636420726776,100.0,255308.0,1.0
15:07:11.145804,176409.09375,179261.265625,194291.75,172070.265625,165509.578125,191132.09375,688811.9375,174232.921875,0.0625,0.99072265625,-0.209228515625,-1.1901854276657104,-0.0610351525247097,0.4272460639476776,100.0,255309.0,1.0
15:07:11.152021,176492.59375,179276.203125,194311.59375,172064.984375,165514.5,191182.171875,688868.625,174231.59375,0.0625,0.98974609375,-0.2109375,-1.2817381620407104,-0.0610351525247097,0.3967284858226776,100.0,255310.0,1.0
15:07:11.160179,176510.296875,179287.90625,194322.859375,172068.75,165525.046875,191221.0625,689137.1875,174233.90625,0.061767578125,0.989501953125,-0.209228515625,-1.1901854276657104,-0.1220703050494194,0.4577636420726776,100.0,255311.0,1.0
15:07:11.160203,176455.046875,179274.046875,194311.765625,172076.96875,165524.0625,191175.1875,689109.3125,174238.921875,0.0625,0.99072265625,-0.20849609375,-1.2207030057907104,-0.0610351525247097,0.4577636420726776,100.0,255312.0,1.0
15:07:11.161990,176418.21875,179264.671875,194304.265625,172080.015625,165522.1875,191135.234375,688855.9375,174240.078125,0.063232421875,0.989990234375,-0.207275390625,-1.4038084745407104,0.0,0.4882812201976776,100.0,255313.0,1.0
15:07:11.168325,176486.078125,179277.890625,194321.0625,172077.953125,165527.109375,191177.15625,688824.375,174240.703125,0.0625,0.990478515625,-0.209228515625,-1.3122557401657104,-0.0610351525247097,0.5798339247703552,100.0,255314.0,1.0
15:07:11.172630,176530.0625,179299.0,194341.1875,172084.125,165542.296875,191233.046875,689129.375,174246.96875,0.06298828125,0.989990234375,-0.21142578125,-1.4038084745407104,-0.03051757626235485,0.5798339247703552,100.0,255315.0,1.0
15:07:11.172641,176481.875,179296.40625,194334.03125,172094.9375,165542.921875,191204.34375,689151.5,174254.46875,0.061767578125,0.9892578125,-0.2099609375,-1.4953612089157104,0.0915527269244194,0.4577636420726776,100.0,255316.0,1.0
15:07:11.182072,176431.984375,179282.640625,194314.90625,172094.21875,165529.703125,191150.96875,688914.0625,174249.921875,0.061767578125,0.98974609375,-0.210693359375,-1.5258787870407104,0.0915527269244194,0.5493163466453552,100.0,255317.0,1.0
15:07:11.186317,176479.015625,179289.4375,194324.5625,172090.921875,165528.0,191177.703125,688795.0625,174247.953125,0.061279296875,0.989990234375,-0.21142578125,-1.5258787870407104,0.0610351525247097,0.4272460639476776,100.0,255318.0,1.0
15:07:11.186323,176534.171875,179301.59375,194337.515625,172086.09375,165530.671875,191228.75,689088.25,174244.46875,0.060546875,0.99169921875,-0.20947265625,-1.6174315214157104,0.0,0.3051757514476776,100.0,255319.0,1.0
15:07:11.195781,176484.375,179293.8125,194322.859375,172083.9375,165523.96875,191203.453125,689170.8125,174239.453125,0.061767578125,0.991943359375,-0.208251953125,-1.6479490995407104,0.0,0.3662109076976776,100.0,255320.0,1.0
15:07:11.200070,176423.40625,179268.421875,194295.953125,172074.90625,165505.203125,191135.40625,688966.4375,174229.265625,0.06005859375,0.9912109375,-0.206787109375,-1.8005369901657104,-0.0915527269244194,0.4577636420726776,100.0,255321.0,1.0
15:07:11.200079,176445.65625,179267.796875,194295.046875,172060.875,165497.859375,191147.65625,688787.5625,174219.703125,0.06005859375,0.99169921875,-0.209228515625,-1.8310545682907104,-0.0610351525247097,0.4577636420726776,100.0,255322.0,1.0
15:07:11.210198,176514.140625,179279.859375,194310.78125,172053.71875,165501.359375,191201.21875,689067.125,174216.296875,0.059814453125,0.992431640625,-0.2109375,-1.8615721464157104,0.03051757626235485,0.5798339247703552,100.0,255323.0,1.0
15:07:11.210224,176476.15625,179277.8125,194305.0625,172059.09375,165505.640625,191196.921875,689209.5625,174220.40625,0.06201171875,0.990966796875,-0.208251953125,-1.8920897245407104,0.0915527269244194,0.5187987685203552,100.0,255324.0,1.0
15:07:11.212627,176416.34375,179259.484375,194287.453125,172064.71875,165500.015625,191134.96875,689037.8125,174226.765625,0.060546875,0.9892578125,-0.20849609375,-1.9531248807907104,0.0610351525247097,0.4882812201976776,100.0,255325.0,1.0
15:07:11.212635,176421.4375,179262.15625,194289.515625,172064.984375,165499.296875,191138.984375,688805.25,174228.453125,0.061767578125,0.98974609375,-0.211181640625,-2.014159917831421,0.1220703050494194,0.5493163466453552,100.0,255326.0,1.0
15:07:11.222130,176493.578125,179266.625,194298.71875,172055.0625,165497.234375,191185.75,689010.375,174223.625,0.06201171875,0.98974609375,-0.2080078125,-1.9836424589157104,0.03051757626235485,0.5187987685203552,100.0,255327.0,1.0
15:07:11.226537,176470.96875,179271.546875,194299.609375,172059.984375,165506.0,191201.390625,689200.1875,174227.03125,0.0615234375,0.989990234375,-0.20751953125,-2.044677495956421,0.03051757626235485,0.5187987685203552,100.0,255328.0,1.0
15:07:11.226572,176411.59375,179253.671875,194281.640625,172062.75,165500.015625,191141.40625,689063.8125,174227.46875,0.0634765625,0.98876953125,-0.209228515625,-2.075195074081421,0.0915527269244194,0.5493163466453552,100.0,255329.0,1.0
15:07:11.235765,176406.953125,179256.890625,194286.640625,172067.765625,165503.953125,191133.265625,688796.5625,174232.21875,0.061279296875,0.989501953125,-0.206298828125,-2.044677495956421,0.0610351525247097,0.6713866591453552,100.0,255330.0,1.0
15:07:11.238834,176493.3125,179271.1875,194307.390625,172061.59375,165510.296875,191189.859375,688936.0625,174232.921875,0.060546875,0.9873046875,-0.20703125,-2.075195074081421,0.1220703050494194,0.6408690810203552,100.0,255331.0,1.0
15:07:11.238842,176490.90625,179282.375,194313.921875,172062.484375,165521.46875,191221.6875,689165.4375,174232.65625,0.061279296875,0.98828125,-0.2080078125,-2.014159917831421,0.0915527269244194,0.6103515028953552,100.0,255332.0,1.0
15:07:11.244551,176426.0,179262.875,194292.734375,172059.0,165511.90625,191162.953125,689078.5625,174227.03125,0.060791015625,0.9873046875,-0.20556640625,-2.014159917831421,0.1525878757238388,0.5798339247703552,100.0,255333.0,1.0
15:07:11.280153,176401.9375,179262.703125,194291.03125,172063.109375,165512.4375,191140.328125,688811.25,174229.4375,0.061767578125,0.987548828125,-0.205810546875,-2.014159917831421,0.1220703050494194,0.6408690810203552,100.0,255334.0,1.0
15:07:11.280176,176489.46875,179281.296875,194316.234375,172067.40625,165523.4375,191191.828125,688865.125,174235.703125,0.060791015625,0.989990234375,-0.204833984375,-1.9531248807907104,0.03051757626235485,0.6408690810203552,100.0,255335.0,1.0
15:07:11.282739,176506.90625,179288.890625,194325.625,172071.421875,165532.28125,191225.53125,689130.4375,174238.390625,0.06103515625,0.9912109375,-0.206298828125,-1.9226073026657104,0.0,0.6103515028953552,100.0,255336.0,1.0
15:07:11.282762,176456.03125,179277.71875,194316.78125,172082.78125,165532.203125,191179.484375,689111.9375,174246.34375,0.061767578125,0.99072265625,-0.207275390625,-2.044677495956421,0.0,0.7019042372703552,100.0,255337.0,1.0
15:07:11.284626,176423.40625,179276.5625,194312.671875,172089.484375,165532.203125,191145.6875,688870.0,174248.84375,0.061767578125,0.9921875,-0.2109375,-2.014159917831421,0.03051757626235485,0.6713866591453552,100.0,255338.0,1.0
15:07:11.287146,176498.328125,179294.796875,194333.5,172089.046875,165540.25,191191.734375,688836.1875,174251.34375,0.0615234375,0.990966796875,-0.207275390625,-1.9836424589157104,0.1220703050494194,0.7019042372703552,100.0,255339.0,1.0
15:07:11.289619,176536.40625,179307.40625,194345.5625,172085.46875,165546.6875,191238.859375,689123.1875,174248.671875,0.062744140625,0.989990234375,-0.205078125,-1.9836424589157104,0.1525878757238388,0.7324218153953552,100.0,255340.0,1.0
15:07:11.292039,176479.90625,179294.4375,194329.65625,172083.671875,165538.546875,191199.78125,689154.5,174242.765625,0.064453125,0.989013671875,-0.204833984375,-2.044677495956421,0.1525878757238388,0.7629393935203552,100.0,255341.0,1.0
15:07:11.294583,176432.875,179287.1875,194317.578125,172085.546875,165531.578125,191152.125,688923.25,174241.0625,0.067138671875,0.986328125,-0.205810546875,-2.044677495956421,0.1220703050494194,0.7629393935203552,100.0,255342.0,1.0
15:07:11.297064,176484.734375,179300.703125,194332.15625,172084.75,165534.078125,191184.40625,688807.125,174242.578125,0.067626953125,0.98681640625,-0.206298828125,-2.044677495956421,0.0610351525247097,0.7019042372703552,100.0,255343.0,1.0
15:07:11.299635,176539.8125,179312.5,194346.1875,172084.21875,165539.4375,191234.734375,689098.75,174242.859375,0.064697265625,0.985595703125,-0.205322265625,-1.9836424589157104,0.0,0.7324218153953552,100.0,255344.0,1.0
15:07:11.302112,176488.578125,179299.265625,194334.03125,172087.609375,165535.5,191205.765625,689175.9375,174244.109375,0.064208984375,0.98388671875,-0.2060546875,-1.9226073026657104,0.0915527269244194,0.7629393935203552,100.0,255345.0,1.0
15:07:11.304509,176433.140625,179276.90625,194314.359375,172088.328125,165522.0,191138.453125,688962.625,174241.515625,0.0625,0.982666015625,-0.2080078125,-1.9531248807907104,0.1831054538488388,0.6103515028953552,100.0,255346.0,1.0
15:07:11.307710,176465.59375,179285.859375,194323.125,172087.96875,165521.203125,191154.0,688770.9375,174240.625,0.0634765625,0.982177734375,-0.2080078125,-1.8310545682907104,0.3356933295726776,0.4882812201976776,100.0,255347.0,1.0
15:07:11.307719,176537.84375,179298.1875,194339.125,172086.0,165524.15625,191207.921875,689028.75,174240.96875,0.0625,0.98291015625,-0.207763671875,-1.8615721464157104,0.4577636420726776,0.4882812201976776,100.0,255348.0,1.0
15:07:11.309554,176498.234375,179294.171875,194330.1875,172089.484375,165523.078125,191201.21875,689173.875,174240.96875,0.0634765625,0.979736328125,-0.205322265625,-1.7395018339157104,0.3356933295726776,0.4272460639476776,100.0,255349.0,1.0
15:07:11.314047,176442.171875,179280.578125,194314.28125,172095.46875,165515.65625,191141.484375,689018.5625,174246.703125,0.063720703125,0.98095703125,-0.209228515625,-1.6174315214157104,0.2136230319738388,0.4882812201976776,100.0,255350.0,1.0
15:07:11.314059,176447.0,179283.4375,194313.640625,172095.75,165514.234375,191146.859375,688777.0,174248.3125,0.06298828125,0.982421875,-0.2080078125,-1.6479490995407104,0.2441406100988388,0.4577636420726776,100.0,255351.0,1.0
15:07:11.323324,176519.953125,179287.46875,194325.0,172086.53125,165513.6875,191201.390625,688983.8125,174245.359375,0.06201171875,0.983642578125,-0.208984375,-1.4953612089157104,0.3356933295726776,0.4882812201976776,100.0,255352.0,1.0
15:07:11.327695,176494.5625,179290.6875,194322.59375,172085.90625,165518.34375,191214.890625,689174.75,174247.328125,0.06396484375,0.9892578125,-0.207763671875,-1.4953612089157104,0.3662109076976776,0.3967284858226776,100.0,255353.0,1.0
15:07:11.327705,176436.625,179271.640625,194303.640625,172087.25,165512.625,191154.265625,689054.3125,174249.109375,0.066162109375,0.991943359375,-0.210205078125,-1.3732908964157104,0.3662109076976776,0.4882812201976776,100.0,255354.0,1.0
15:07:11.336380,176422.0625,179271.109375,194299.609375,172082.875,165511.09375,191145.0625,688793.0,174245.796875,0.066162109375,0.99365234375,-0.21044921875,-1.3732908964157104,0.3662109076976776,0.4882812201976776,100.0,255355.0,1.0
15:07:11.336393,176503.0625,179281.203125,194315.34375,172075.625,165513.25,191196.921875,688938.5625,174243.125,0.065185546875,0.990966796875,-0.20703125,-1.2817381620407104,0.4272460639476776,0.4882812201976776,100.0,255356.0,1.0
15:07:11.338842,176493.3125,179283.984375,194316.0625,172072.5,165516.546875,191220.796875,689165.375,174236.5,0.064453125,0.988037109375,-0.209228515625,-1.3122557401657104,0.4882812201976776,0.6103515028953552,100.0,255357.0,1.0
15:07:11.338850,176434.75,179265.109375,194298.0,172073.921875,165509.765625,191164.734375,689084.375,174234.625,0.061767578125,0.98681640625,-0.211669921875,-1.3427733182907104,0.5187987685203552,0.5493163466453552,100.0,255358.0,1.0
15:07:11.348773,176405.25,179258.40625,194289.328125,172071.0625,165504.84375,191135.140625,688818.3125,174230.34375,0.06103515625,0.98388671875,-0.2119140625,-1.2512205839157104,0.4577636420726776,0.3662109076976776,100.0,255359.0,1.0
15:07:11.352628,176484.015625,179269.578125,194306.765625,172066.0625,165509.125,191182.171875,688865.75,174230.609375,0.05712890625,0.986328125,-0.2109375,-1.0681151151657104,0.2746581733226776,0.3356933295726776,100.0,255360.0,1.0
15:07:11.352649,176502.25,179280.578125,194317.5,172069.453125,165521.03125,191221.5,689135.8125,174236.140625,0.05517578125,0.9873046875,-0.20947265625,-1.1291502714157104,0.2746581733226776,0.1831054538488388,100.0,255361.0,1.0
15:07:11.358222,176449.421875,179272.265625,194306.234375,172074.734375,165522.359375,191180.921875,689121.5,174241.78125,0.053955078125,0.989013671875,-0.208251953125,-1.1291502714157104,0.1220703050494194,0.0915527269244194,100.0,255362.0,1.0
15:07:11.363865,176413.46875,179264.9375,194299.34375,172076.078125,165519.6875,191143.015625,688877.0625,174240.890625,0.052490234375,0.991455078125,-0.20556640625,-1.0681151151657104,0.0610351525247097,-0.0610351525247097,100.0,255363.0,1.0
15:07:11.363874,176480.265625,179276.5625,194314.71875,172071.78125,165518.78125,191179.390625,688827.625,174233.90625,0.05126953125,0.995361328125,-0.205078125,-1.3122557401657104,-0.1220703050494194,-0.1831054538488388,100.0,255364.0,1.0
15:07:11.405907,176520.5,179291.9375,194329.03125,172072.953125,165526.828125,191225.359375,689115.5625,174232.390625,0.0517578125,0.996337890625,-0.20654296875,-1.4038084745407104,-0.2441406100988388,-0.2746581733226776,100.0,255365.0,1.0
15:07:11.408954,176469.265625,179280.484375,194320.078125,172082.421875,165526.390625,191187.984375,689147.5625,174239.015625,0.055419921875,0.99951171875,-0.204345703125,-1.5869139432907104,-0.4577636420726776,-0.2746581733226776,100.0,255366.0,1.0
15:07:11.408976,176421.4375,179266.0,194306.5,172085.546875,165517.8125,191132.71875,688912.625,174240.078125,0.05712890625,0.99951171875,-0.2041015625,-1.7395018339157104,-0.5493163466453552,-0.2136230319738388,100.0,255367.0,1.0
15:07:11.408980,176469.796875,179274.046875,194314.984375,172079.296875,165513.875,191159.453125,688787.0,174235.171875,0.05810546875,0.99951171875,-0.203857421875,-1.9226073026657104,-0.6103515028953552,-0.1525878757238388,100.0,255368.0,1.0
15:07:11.412576,176524.15625,179287.46875,194327.140625,172076.171875,165516.375,191211.5,689081.875,174232.921875,0.05908203125,1.001220703125,-0.203125,-1.9531248807907104,-0.6713866591453552,0.0915527269244194,100.0,255369.0,1.0
15:07:11.412598,176478.03125,179287.015625,194316.59375,172081.796875,165514.5,191190.9375,689169.75,174236.421875,0.060546875,1.0,-0.20458984375,-2.136230230331421,-0.6103515028953552,0.2441406100988388,100.0,255370.0,1.0
15:07:11.412602,176410.53125,179253.3125,194286.640625,172072.859375,165492.328125,191117.171875,688966.625,174225.0625,0.06298828125,0.997802734375,-0.20166015625,-2.288818120956421,-0.6103515028953552,0.3967284858226776,100.0,255371.0,1.0
15:07:11.412606,176441.1875,179260.015625,194295.859375,172074.28125,165493.578125,191132.28125,688771.8125,174226.671875,0.063720703125,0.9970703125,-0.20458984375,-2.380370855331421,-0.6408690810203552,0.5493163466453552,100.0,255372.0,1.0
15:07:11.415148,176510.296875,179270.65625,194311.59375,172071.15625,165497.515625,191185.921875,689029.0625,174226.578125,0.0634765625,0.994873046875,-0.201171875,-2.563476324081421,-0.5187987685203552,0.6713866591453552,100.0,255373.0,1.0
15:07:11.415170,176478.03125,179276.734375,194310.703125,172080.015625,165506.09375,191191.46875,689171.4375,174233.28125,0.061279296875,0.99365234375,-0.2001953125,-2.563476324081421,-0.4272460639476776,0.7629393935203552,100.0,255374.0,1.0
15:07:11.415174,176423.484375,179260.640625,194295.140625,172085.546875,165502.421875,191134.328125,689019.0,174235.96875,0.061767578125,0.990234375,-0.20263671875,-2.624511480331421,-0.3662109076976776,0.9155272841453552,100.0,255375.0,1.0
15:07:11.417021,176437.34375,179271.640625,194303.640625,172089.3125,165508.328125,191146.671875,688785.6875,174239.71875,0.060546875,0.990478515625,-0.203125,-2.777099370956421,-0.4272460639476776,0.9155272841453552,100.0,255376.0,1.0
15:07:11.419659,176513.515625,179282.546875,194317.765625,172079.921875,165510.5625,191201.5625,688992.1875,174236.0625,0.058837890625,0.98974609375,-0.199462890625,-2.899169683456421,-0.3967284858226776,0.9155272841453552,100.0,255377.0,1.0
15:07:11.421989,176485.359375,179278.703125,194312.125,172080.1875,165512.796875,191208.90625,689183.6875,174235.703125,0.059814453125,0.98828125,-0.2021484375,-2.838134527206421,-0.4577636420726776,1.0375975370407104,100.0,255378.0,1.0
15:07:11.450113,176423.21875,179256.4375,194289.328125,172079.921875,165501.71875,191143.015625,689060.3125,174235.078125,0.060302734375,0.98974609375,-0.20263671875,-2.746581792831421,-0.4577636420726776,1.1291502714157104,100.0,255379.0,1.0
15:07:11.450134,176414.109375,179258.140625,194287.71875,172080.71875,165502.0625,191132.375,688797.5,174234.890625,0.06201171875,0.9892578125,-0.201416015625,-2.838134527206421,-0.4577636420726776,1.1596678495407104,100.0,255380.0,1.0
15:07:11.450136,176499.484375,179272.984375,194306.3125,172075.0,165507.078125,191186.90625,688931.5,174232.84375,0.06103515625,0.989013671875,-0.200439453125,-2.868652105331421,-0.4577636420726776,1.0986326932907104,100.0,255381.0,1.0
15:07:11.450138,176505.828125,179290.59375,194322.5,172083.5,165525.671875,191224.015625,689172.375,174241.6875,0.0615234375,0.9853515625,-0.199462890625,-2.929687261581421,-0.4577636420726776,1.0986326932907104,100.0,255382.0,1.0
15:07:11.451979,176450.3125,179279.234375,194310.34375,172089.046875,165526.03125,191173.9375,689102.0,174247.59375,0.064453125,0.98583984375,-0.202392578125,-2.929687261581421,-0.4272460639476776,1.0070799589157104,100.0,255383.0,1.0
15:07:11.454867,176430.375,179288.53125,194312.9375,172095.390625,165533.0,191160.0,688839.0625,174251.609375,0.063720703125,0.986572265625,-0.202880859375,-2.868652105331421,-0.4272460639476776,0.9155272841453552,100.0,255384.0,1.0
15:07:11.457068,176514.140625,179304.890625,194337.078125,172095.65625,165544.8125,191217.125,688890.4375,174256.265625,0.064697265625,0.984375,-0.202392578125,-2.777099370956421,-0.3967284858226776,0.8239745497703552,100.0,255385.0,1.0
15:07:11.459493,176525.5,179307.765625,194341.28125,172091.90625,165548.109375,191247.703125,689156.0,174252.421875,0.06689453125,0.982421875,-0.199951171875,-2.746581792831421,-0.3051757514476776,0.7934569716453552,100.0,255386.0,1.0
15:07:11.462023,176466.578125,179292.5625,194323.75,172094.40625,165542.65625,191198.265625,689126.9375,174252.6875,0.068359375,0.98291015625,-0.202880859375,-2.624511480331421,-0.2136230319738388,0.7629393935203552,100.0,255387.0,1.0
15:07:11.464503,176427.953125,179283.0,194313.5625,172097.078125,165536.484375,191154.265625,688867.9375,174251.25,0.067138671875,0.983642578125,-0.199951171875,-2.563476324081421,-0.0915527269244194,0.6103515028953552,100.0,255388.0,1.0
15:07:11.476391,176499.484375,179297.125,194332.609375,172095.296875,165540.421875,191192.71875,688835.5625,174250.28125,0.06884765625,0.984130859375,-0.202392578125,-2.471923589706421,-0.0610351525247097,0.5798339247703552,100.0,255389.0,1.0
15:07:11.476404,176535.34375,179307.3125,194343.875,172090.375,165544.1875,191234.65625,689123.0625,174245.265625,0.06982421875,0.980712890625,-0.201416015625,-2.349853277206421,0.1220703050494194,0.4577636420726776,100.0,255390.0,1.0
15:07:11.490749,176482.859375,179292.5625,194332.421875,172097.0,165541.859375,191193.171875,689155.1875,174249.296875,0.069091796875,0.98046875,-0.202880859375,-2.136230230331421,0.3051757514476776,0.5493163466453552,100.0,255391.0,1.0
15:07:11.493841,176434.21875,179277.71875,194315.171875,172098.421875,165529.609375,191136.125,688926.9375,174247.859375,0.069091796875,0.982421875,-0.203369140625,-1.9836424589157104,0.4577636420726776,0.5493163466453552,100.0,255392.0,1.0
15:07:11.493852,176484.90625,179289.4375,194325.09375,172097.625,165527.546875,191167.234375,688812.875,174249.203125,0.0703125,0.984375,-0.205322265625,-1.8615721464157104,0.5493163466453552,0.5798339247703552,100.0,255393.0,1.0
15:07:11.496997,176527.65625,179289.875,194325.1875,172085.46875,165518.25,191208.546875,689098.5625,174237.3125,0.0703125,0.983642578125,-0.205078125,-1.6784666776657104,0.6713866591453552,0.5798339247703552,100.0,255394.0,1.0
15:07:11.497011,176479.453125,179283.4375,194316.328125,172092.25,165519.859375,191191.28125,689186.5625,174242.046875,0.067138671875,0.98291015625,-0.202392578125,-1.5563963651657104,0.7324218153953552,0.5493163466453552,100.0,255395.0,1.0
15:07:11.497013,176425.90625,179266.546875,194299.078125,172092.171875,165513.421875,191133.265625,688977.1875,174241.78125,0.064697265625,0.98291015625,-0.202392578125,-1.4038084745407104,0.8544921278953552,0.5798339247703552,100.0,255396.0,1.0
15:07:11.499498,176458.453125,179280.484375,194310.78125,172091.90625,165519.6875,191156.515625,688785.6875,174245.171875,0.064697265625,0.98388671875,-0.204833984375,-1.2512205839157104,0.7934569716453552,0.6103515028953552,100.0,255397.0,1.0
15:07:11.502007,176532.203125,179299.984375,194330.640625,172086.625,165528.09375,191218.28125,689053.0,174244.734375,0.063232421875,0.984130859375,-0.2060546875,-1.1291502714157104,0.9155272841453552,0.4882812201976776,100.0,255398.0,1.0
15:07:11.508227,176492.328125,179292.46875,194323.75,172088.5,165530.234375,191212.296875,689179.4375,174245.359375,0.06103515625,0.984130859375,-0.203857421875,-1.0070799589157104,0.9460448622703552,0.4272460639476776,100.0,255399.0,1.0
15:07:11.512904,176436.453125,179275.75,194305.78125,172092.171875,165524.328125,191153.640625,689007.375,174247.59375,0.057861328125,0.98486328125,-0.201904296875,-0.8850097060203552,0.9460448622703552,0.4577636420726776,100.0,255400.0,1.0
15:07:11.512915,176448.53125,179281.828125,194311.6875,172094.046875,165528.0,191158.921875,688770.3125,174250.09375,0.058349609375,0.98583984375,-0.20263671875,-0.7019042372703552,0.8850097060203552,0.4882812201976776,100.0,255401.0,1.0
15:07:11.519499,176527.65625,179291.3125,194327.953125,172088.59375,165531.484375,191212.296875,688982.125,174249.828125,0.05615234375,0.9873046875,-0.201416015625,-0.7019042372703552,0.8239745497703552,0.4577636420726776,100.0,255402.0,1.0
15:07:11.527686,176498.234375,179287.015625,194321.875,172089.484375,165533.546875,191220.609375,689171.875,174251.25,0.055908203125,0.987060546875,-0.202880859375,-0.5798339247703552,0.7629393935203552,0.3662109076976776,100.0,255403.0,1.0
15:07:11.527700,176432.96875,179261.359375,194297.734375,172089.3125,165521.65625,191154.625,689051.8125,174251.890625,0.054443359375,0.987060546875,-0.204833984375,-0.4577636420726776,0.6713866591453552,0.4272460639476776,100.0,255404.0,1.0
15:07:11.533834,176420.8125,179262.25,194296.03125,172088.328125,165520.3125,191143.90625,688785.3125,174251.34375,0.055908203125,0.988525390625,-0.205810546875,-0.4272460639476776,0.5187987685203552,0.3051757514476776,100.0,255405.0,1.0
15:07:11.533843,176509.765625,179279.0625,194319.546875,172084.84375,165527.90625,191198.890625,688933.625,174253.578125,0.057373046875,0.990478515625,-0.204345703125,-0.3356933295726776,0.4272460639476776,0.3967284858226776,100.0,255406.0,1.0
15:07:11.535815,176507.265625,179286.84375,194324.5625,172085.46875,165534.609375,191222.140625,689167.6875,174251.25,0.05859375,0.990478515625,-0.204833984375,-0.3662109076976776,0.3967284858226776,0.5493163466453552,100.0,255407.0,1.0
15:07:11.544501,176442.09375,179264.671875,194298.53125,172080.359375,165518.78125,191156.421875,689087.125,174242.671875,0.058349609375,0.994384765625,-0.2060546875,-0.3356933295726776,0.2441406100988388,0.5187987685203552,100.0,255408.0,1.0
15:07:11.548223,176422.328125,179269.21875,194299.609375,172087.875,165521.46875,191137.546875,688831.4375,174248.390625,0.058349609375,0.992431640625,-0.20654296875,-0.4272460639476776,0.2441406100988388,0.5493163466453552,100.0,255409.0,1.0
15:07:11.552545,176505.828125,179285.765625,194321.515625,172086.171875,165527.90625,191190.03125,688885.1875,174248.671875,0.057861328125,0.994384765625,-0.207763671875,-0.4882812201976776,0.1220703050494194,0.5798339247703552,100.0,255410.0,1.0
15:07:11.552553,176517.453125,179292.375,194325.265625,172081.078125,165531.3125,191223.203125,689154.625,174241.953125,0.0595703125,0.99609375,-0.207763671875,-0.5187987685203552,0.1831054538488388,0.6408690810203552,100.0,255411.0,1.0
15:07:11.559546,176453.078125,179272.0,194303.359375,172076.875,165520.84375,191168.125,689124.5,174235.703125,0.05859375,0.995361328125,-0.203125,-0.5798339247703552,0.1220703050494194,0.6713866591453552,100.0,255412.0,1.0
15:07:11.566305,176411.953125,179257.953125,194290.40625,172077.0625,165511.1875,191120.203125,688870.8125,174231.59375,0.05712890625,0.9951171875,-0.205810546875,-0.6103515028953552,0.0610351525247097,0.7629393935203552,100.0,255413.0,1.0
15:07:11.566322,176484.546875,179271.375,194309.09375,172078.40625,165513.953125,191157.40625,688821.6875,174235.25,0.059814453125,0.99560546875,-0.20263671875,-0.7324218153953552,-0.03051757626235485,0.7934569716453552,100.0,255414.0,1.0
15:07:11.578321,176529.265625,179284.953125,194327.328125,172083.765625,165523.609375,191203.171875,689113.0625,174241.78125,0.058837890625,0.996337890625,-0.205810546875,-0.8239745497703552,-0.1831054538488388,0.8239745497703552,100.0,255415.0,1.0
15:07:11.582038,176464.4375,179263.5,194302.65625,172078.75,165507.171875,191156.515625,689143.5625,174232.75,0.060302734375,0.995849609375,-0.203369140625,-0.9765624403953552,-0.2441406100988388,0.7019042372703552,100.0,255416.0,1.0
15:07:11.582049,176412.140625,179249.640625,194282.53125,172075.890625,165492.6875,191103.046875,688912.375,174225.0625,0.059814453125,0.995361328125,-0.20361328125,-1.0986326932907104,-0.1831054538488388,0.7934569716453552,100.0,255417.0,1.0
15:07:11.582052,176460.59375,179262.609375,194293.53125,172069.734375,165491.34375,191134.0625,688790.9375,174221.390625,0.06005859375,0.9931640625,-0.204345703125,-1.0681151151657104,-0.2441406100988388,0.9155272841453552,100.0,255418.0,1.0
15:07:11.584460,176516.65625,179278.078125,194306.9375,172067.84375,165496.34375,191189.59375,689087.625,174221.390625,0.059326171875,0.989013671875,-0.20263671875,-1.1901854276657104,-0.2746581733226776,0.9765624403953552,100.0,255419.0,1.0
15:07:11.587127,176470.421875,179276.015625,194298.453125,172074.734375,165497.78125,191177.15625,689180.25,174226.21875,0.05908203125,0.986328125,-0.20947265625,-1.2817381620407104,-0.3051757514476776,0.8850097060203552,100.0,255420.0,1.0
15:07:11.590752,176415.890625,179261.0,194282.53125,172079.203125,165491.875,191122.09375,688982.125,174228.375,0.0615234375,0.98681640625,-0.209716796875,-1.3732908964157104,-0.3662109076976776,0.9765624403953552,100.0,255421.0,1.0
15:07:11.600784,176448.171875,179274.765625,194294.15625,172076.609375,165499.125,191147.03125,688780.5625,174228.015625,0.063720703125,0.989990234375,-0.2109375,-1.4343260526657104,-0.2136230319738388,1.0986326932907104,100.0,255422.0,1.0
15:07:11.607553,176520.046875,179291.21875,194313.296875,172070.078125,165508.953125,191211.84375,689040.6875,174226.765625,0.06494140625,0.99072265625,-0.208740234375,-1.4953612089157104,-0.1525878757238388,1.0681151151657104,100.0,255423.0,1.0
15:07:11.607567,176481.421875,179285.5,194309.453125,172076.515625,165515.484375,191211.21875,689181.5625,174233.28125,0.068115234375,0.992431640625,-0.20654296875,-1.6174315214157104,-0.2136230319738388,1.1901854276657104,100.0,255424.0,1.0
15:07:11.611298,176424.828125,179268.421875,194292.015625,172080.1875,165510.390625,191152.390625,689023.0625,174238.109375,0.06640625,0.988525390625,-0.207763671875,-1.7395018339157104,-0.2136230319738388,1.0681151151657104,100.0,255425.0,1.0
15:07:11.611304,176433.40625,179267.609375,194297.828125,172082.609375,165516.109375,191155.96875,688783.625,174244.375,0.06494140625,0.98583984375,-0.20849609375,-1.8310545682907104,-0.1525878757238388,0.9765624403953552,100.0,255426.0,1.0
15:07:11.620792,176512.0,179279.234375,194313.296875,172074.828125,165517.453125,191206.75,688998.375,174240.890625,0.062744140625,0.9814453125,-0.207763671875,-1.7700194120407104,-0.03051757626235485,0.9765624403953552,100.0,255427.0,1.0
15:07:11.625154,176486.609375,179279.421875,194309.0,172076.171875,165518.703125,191214.984375,689177.0625,174240.53125,0.06298828125,0.980224609375,-0.21044921875,-1.8615721464157104,-0.0610351525247097,1.0070799589157104,100.0,255428.0,1.0
15:07:11.625168,176427.25,179259.296875,194288.703125,172079.46875,165508.78125,191149.984375,689049.6875,174241.78125,0.062744140625,0.983642578125,-0.210205078125,-1.8005369901657104,-0.1220703050494194,0.8239745497703552,100.0,255429.0,1.0
15:07:11.632054,176428.5,179271.8125,194300.328125,172091.8125,165520.390625,191150.609375,688792.5625,174250.71875,0.061767578125,0.987060546875,-0.20947265625,-1.7700194120407104,-0.1220703050494194,0.6713866591453552,100.0,255430.0,1.0
15:07:11.636446,176517.015625,179287.640625,194323.21875,172089.3125,165529.0625,191207.203125,688930.9375,174251.25,0.062255859375,0.9892578125,-0.20703125,-1.7395018339157104,0.0,0.5493163466453552,100.0,255431.0,1.0
15:07:11.636456,176508.6875,179289.25,194321.609375,172084.5625,165531.390625,191228.21875,689161.1875,174244.8125,0.0615234375,0.98974609375,-0.21044921875,-1.8005369901657104,0.03051757626235485,0.4272460639476776,100.0,255432.0,1.0
15:07:11.650723,176445.9375,179268.953125,194300.421875,172083.046875,165521.734375,191169.390625,689085.6875,174241.609375,0.064697265625,0.989013671875,-0.209228515625,-1.8310545682907104,0.0610351525247097,0.2746581733226776,100.0,255433.0,1.0
15:07:11.653272,176424.921875,179272.984375,194301.40625,172087.96875,165525.765625,191151.328125,688828.875,174243.921875,0.06396484375,0.989013671875,-0.21044921875,-1.8920897245407104,-0.03051757626235485,0.2746581733226776,100.0,255434.0,1.0
15:07:11.655766,176512.0,179294.265625,194327.328125,172085.546875,165537.46875,191208.453125,688879.4375,174245.796875,0.06298828125,0.9892578125,-0.21142578125,-1.7700194120407104,-0.0610351525247097,0.1831054538488388,100.0,255435.0,1.0
15:07:11.658216,176535.34375,179309.375,194341.8125,172091.0,165550.96875,191249.671875,689155.4375,174251.890625,0.0634765625,0.9892578125,-0.2109375,-1.7395018339157104,-0.03051757626235485,0.1831054538488388,100.0,255436.0,1.0
15:07:11.660735,176484.828125,179300.875,194333.765625,172102.1875,165552.5,191206.21875,689144.5625,174262.796875,0.064453125,0.9912109375,-0.2080078125,-1.8005369901657104,0.0,0.3051757514476776,100.0,255437.0,1.0
15:07:11.663220,176435.015625,179280.765625,194314.0,172096.640625,165536.3125,191151.59375,688885.5625,174256.359375,0.0634765625,0.990234375,-0.204833984375,-1.8920897245407104,-0.03051757626235485,0.2136230319738388,100.0,255438.0,1.0
15:07:11.673853,176497.25,179283.078125,194322.40625,172091.0,165528.796875,191179.671875,688829.5,174253.21875,0.06396484375,0.989501953125,-0.20556640625,-1.9836424589157104,0.1220703050494194,0.1525878757238388,100.0,255439.0,1.0
15:07:11.673866,176539.71875,179297.03125,194338.765625,172098.0625,165537.390625,191226.0625,689120.125,174259.84375,0.064208984375,0.99072265625,-0.206787109375,-1.8920897245407104,0.1220703050494194,0.3051757514476776,100.0,255440.0,1.0
15:07:11.676334,176469.4375,179266.0,194309.453125,172090.109375,165516.734375,191170.71875,689148.1875,174249.5625,0.0654296875,0.989990234375,-0.207763671875,-1.9531248807907104,0.1220703050494194,0.3051757514476776,100.0,255441.0,1.0
15:07:11.676346,176415.4375,179245.984375,194287.453125,172086.796875,165499.03125,191108.671875,688914.75,174242.859375,0.06298828125,0.989990234375,-0.20556640625,-1.8005369901657104,0.1220703050494194,0.3356933295726776,100.0,255442.0,1.0
15:07:11.687067,176457.734375,179249.46875,194291.46875,172076.34375,165490.0,191128.4375,688788.25,174233.5625,0.062744140625,0.99267578125,-0.20654296875,-1.8920897245407104,0.1831054538488388,0.4272460639476776,100.0,255443.0,1.0
15:07:11.690181,176515.9375,179264.03125,194307.921875,172075.984375,165495.359375,191181.546875,689082.3125,174235.875,0.06298828125,0.990966796875,-0.20751953125,-1.8920897245407104,0.2136230319738388,0.4882812201976776,100.0,255444.0,1.0
15:07:11.690245,176468.46875,179259.921875,194298.453125,172078.75,165495.28125,191165.625,689169.875,174236.328125,0.061767578125,0.9921875,-0.2060546875,-1.9226073026657104,0.0610351525247097,0.4882812201976776,100.0,255445.0,1.0
15:07:11.695770,176418.03125,179247.234375,194283.875,172079.5625,165489.109375,191110.015625,688974.875,174234.1875,0.0595703125,0.989501953125,-0.207275390625,-1.8920897245407104,0.1831054538488388,0.5798339247703552,100.0,255446.0,1.0
15:07:11.700122,176451.03125,179265.734375,194296.21875,172078.484375,165494.375,191138.984375,688789.6875,174233.90625,0.056640625,0.98828125,-0.206787109375,-1.8920897245407104,0.1831054538488388,0.5187987685203552,100.0,255447.0,1.0
15:07:11.700147,176522.46875,179282.8125,194314.71875,172074.203125,165501.359375,191202.28125,689057.75,174233.015625,0.05859375,0.988037109375,-0.20654296875,-1.9531248807907104,0.1525878757238388,0.6713866591453552,100.0,255448.0,1.0
15:07:11.709561,176482.40625,179282.28125,194306.3125,172072.5,165502.421875,191201.65625,689191.375,174229.078125,0.060546875,0.987060546875,-0.203125,-2.014159917831421,0.0610351525247097,0.6408690810203552,100.0,255449.0,1.0
15:07:11.713934,176420.0,179262.15625,194283.078125,172067.84375,165492.40625,191139.703125,689019.9375,174225.421875,0.059326171875,0.988037109375,-0.20263671875,-2.044677495956421,-0.03051757626235485,0.6408690810203552,100.0,255450.0,1.0
15:07:11.714001,176431.0,179271.1875,194291.5625,172073.390625,165502.515625,191151.6875,688781.1875,174233.734375,0.059326171875,0.98779296875,-0.203857421875,-2.044677495956421,0.03051757626235485,0.5493163466453552,100.0,255451.0,1.0
15:07:11.720819,176511.375,179282.546875,194310.078125,172068.921875,165510.65625,191210.953125,688994.625,174234.359375,0.058837890625,0.9892578125,-0.201416015625,-2.014159917831421,0.0,0.5493163466453552,100.0,255452.0,1.0
15:07:11.727724,176492.328125,179289.4375,194313.640625,172074.90625,165521.296875,191229.46875,689186.6875,174239.1875,0.058837890625,0.991455078125,-0.20166015625,-2.044677495956421,-0.0915527269244194,0.5493163466453552,100.0,255453.0,1.0
15:07:11.727792,176436.28125,179272.71875,194298.8125,172081.703125,165518.25,191169.921875,689059.0625,174243.84375,0.060546875,0.990234375,-0.199951171875,-2.105712652206421,-0.1831054538488388,0.4882812201976776,100.0,255454.0,1.0
15:07:11.752666,176425.640625,179274.328125,194299.25,172082.6875,165520.21875,191159.453125,688795.0625,174243.125,0.06201171875,0.988525390625,-0.202392578125,-2.075195074081421,-0.2441406100988388,0.5493163466453552,100.0,255455.0,1.0
15:07:11.752742,176516.921875,179295.78125,194324.109375,172081.703125,165531.75,191220.34375,688924.6875,174246.96875,0.0625,0.98828125,-0.204345703125,-2.166747808456421,-0.2136230319738388,0.4882812201976776,100.0,255456.0,1.0
15:07:11.783340,176512.984375,179304.1875,194329.46875,172082.875,165540.25,191247.796875,689167.0,174247.765625,0.061767578125,0.9873046875,-0.20361328125,-2.197265386581421,-0.2441406100988388,0.4577636420726776,100.0,255457.0,1.0
15:07:11.788331,176453.890625,179287.1875,194311.953125,172086.359375,165535.421875,191191.109375,689093.875,174250.453125,0.06298828125,0.990234375,-0.202880859375,-2.166747808456421,-0.2746581733226776,0.5187987685203552,100.0,255458.0,1.0
15:07:11.792091,176421.34375,179278.171875,194302.46875,172083.5,165529.96875,191160.53125,688822.25,174245.984375,0.0634765625,0.98974609375,-0.20166015625,-2.227782964706421,-0.3051757514476776,0.3967284858226776,100.0,255459.0,1.0
15:07:11.794554,176499.21875,179289.703125,194319.640625,172080.546875,165533.71875,191207.5625,688869.6875,174247.6875,0.063720703125,0.9892578125,-0.205078125,-2.288818120956421,-0.2136230319738388,0.3967284858226776,100.0,255460.0,1.0
15:07:11.797085,176522.015625,179304.0,194333.765625,172086.359375,165547.125,191249.21875,689144.4375,174253.40625,0.064697265625,0.98974609375,-0.20263671875,-2.288818120956421,-0.1220703050494194,0.4577636420726776,100.0,255461.0,1.0
15:07:11.799591,176461.484375,179281.65625,194312.9375,172086.359375,165536.578125,191191.375,689121.3125,174249.828125,0.067138671875,0.98681640625,-0.20263671875,-2.288818120956421,-0.0610351525247097,0.3662109076976776,100.0,255462.0,1.0
15:07:11.802160,176423.3125,179272.0,194302.109375,172087.96875,165529.15625,191147.65625,688876.9375,174248.84375,0.066162109375,0.98828125,-0.202880859375,-2.349853277206421,0.0,0.3662109076976776,100.0,255463.0,1.0
15:07:11.804513,176491.96875,179285.859375,194320.171875,172087.34375,165533.0,191188.15625,688837.25,174253.671875,0.0654296875,0.98828125,-0.2041015625,-2.349853277206421,0.0915527269244194,0.3967284858226776,100.0,255464.0,1.0
15:07:11.807077,176528.984375,179295.78125,194330.8125,172084.125,165535.421875,191231.96875,689134.8125,174251.34375,0.065185546875,0.987548828125,-0.204345703125,-2.227782964706421,0.0915527269244194,0.4272460639476776,100.0,255465.0,1.0
15:07:11.809474,176465.421875,179274.859375,194306.40625,172078.40625,165518.609375,191184.765625,689159.1875,174242.140625,0.0634765625,0.986328125,-0.200927734375,-2.227782964706421,0.0915527269244194,0.3051757514476776,100.0,255466.0,1.0
15:07:11.812056,176417.5,179261.0,194289.78125,172081.53125,165506.265625,191129.859375,688932.5625,174242.9375,0.06298828125,0.98583984375,-0.20263671875,-2.166747808456421,0.1525878757238388,0.3051757514476776,100.0,255467.0,1.0
15:07:11.814501,176459.25,179262.25,194292.1875,172072.140625,165496.078125,191149.71875,688792.9375,174235.078125,0.0625,0.985107421875,-0.2041015625,-2.105712652206421,0.2136230319738388,0.3051757514476776,100.0,255468.0,1.0
15:07:11.817571,176506.28125,179263.59375,194295.3125,172061.40625,165489.015625,191190.390625,689069.875,174225.421875,0.06201171875,0.986083984375,-0.205322265625,-2.044677495956421,0.2441406100988388,0.3662109076976776,100.0,255469.0,1.0
15:07:11.817595,176459.15625,179256.96875,194284.234375,172067.21875,165487.140625,191168.484375,689163.875,174228.546875,0.061279296875,0.9853515625,-0.20458984375,-1.8920897245407104,0.2441406100988388,0.3051757514476776,100.0,255470.0,1.0
15:07:11.820152,176409.71875,179243.921875,194270.90625,172074.828125,165482.578125,191110.46875,688966.0,174235.078125,0.06396484375,0.984619140625,-0.203857421875,-1.8310545682907104,0.2441406100988388,0.2136230319738388,100.0,255471.0,1.0
15:07:11.820224,176429.921875,179244.28125,194271.625,172064.546875,165476.765625,191118.0625,688760.25,174226.765625,0.0615234375,0.984619140625,-0.20166015625,-1.7700194120407104,0.2136230319738388,0.2441406100988388,100.0,255472.0,1.0
15:07:11.820251,176502.34375,179259.125,194290.3125,172060.78125,165483.296875,191176.09375,689024.5,174225.6875,0.060302734375,0.986083984375,-0.20166015625,-1.6784666776657104,0.2441406100988388,0.3356933295726776,100.0,255473.0,1.0
15:07:11.822618,176471.328125,179268.6875,194293.796875,172068.296875,165495.625,191185.921875,689167.1875,174231.859375,0.06005859375,0.985595703125,-0.201171875,-1.6784666776657104,0.3051757514476776,0.3662109076976776,100.0,255474.0,1.0
15:07:11.822679,176417.328125,179258.859375,194280.5625,172072.046875,165494.5625,191134.96875,689014.8125,174233.28125,0.06005859375,0.986572265625,-0.201904296875,-1.6784666776657104,0.3051757514476776,0.4272460639476776,100.0,255475.0,1.0
15:07:11.825136,176429.75,179266.71875,194287.453125,172073.75,165500.28125,191145.0625,688772.6875,174233.015625,0.057861328125,0.986572265625,-0.202880859375,-1.5563963651657104,0.2746581733226776,0.4272460639476776,100.0,255476.0,1.0
15:07:11.825194,176513.796875,179282.8125,194309.625,172071.515625,165510.921875,191209.34375,688977.1875,174232.65625,0.056640625,0.9853515625,-0.19921875,-1.4953612089157104,0.1831054538488388,0.4577636420726776,100.0,255477.0,1.0
15:07:11.827044,176497.25,179293.546875,194315.890625,172078.9375,165524.234375,191231.15625,689185.3125,174238.203125,0.05615234375,0.986083984375,-0.201416015625,-1.4648436307907104,0.0915527269244194,0.3662109076976776,100.0,255478.0,1.0
15:07:11.829516,176444.046875,179281.921875,194304.171875,172086.171875,165525.3125,191176.171875,689076.0,174245.984375,0.057373046875,0.98779296875,-0.20166015625,-1.4953612089157104,0.1525878757238388,0.4272460639476776,100.0,255479.0,1.0
15:07:11.834119,176425.015625,179275.296875,194295.3125,172077.421875,165519.953125,191158.75,688798.875,174237.9375,0.056640625,0.98779296875,-0.20166015625,-1.3122557401657104,0.1220703050494194,0.5187987685203552,100.0,255480.0,1.0
15:07:11.834171,176504.40625,179282.640625,194310.703125,172067.578125,165521.921875,191207.5625,688921.9375,174236.234375,0.05859375,0.98974609375,-0.2001953125,-1.3122557401657104,0.1220703050494194,0.4882812201976776,100.0,255481.0,1.0
15:07:11.843341,176507.359375,179293.984375,194322.234375,172074.90625,165536.765625,191241.359375,689166.8125,174245.625,0.058349609375,0.98828125,-0.2041015625,-1.3427733182907104,-0.0610351525247097,0.4882812201976776,100.0,255482.0,1.0
15:07:11.847596,176444.328125,179271.015625,194302.03125,172076.078125,165527.8125,191180.375,689089.8125,174246.078125,0.059326171875,0.990478515625,-0.202880859375,-1.3122557401657104,-0.0610351525247097,0.5798339247703552,100.0,255483.0,1.0
15:07:11.847624,176418.65625,179269.5,194296.84375,172079.46875,165525.40625,191155.703125,688822.3125,174246.421875,0.060791015625,0.98974609375,-0.207275390625,-1.2512205839157104,-0.0610351525247097,0.6713866591453552,100.0,255484.0,1.0
15:07:11.847634,176496.265625,179279.78125,194311.859375,172073.921875,165525.765625,191200.234375,688866.3125,174245.796875,0.06005859375,0.99072265625,-0.20751953125,-1.2512205839157104,-0.0610351525247097,0.7629393935203552,100.0,255485.0,1.0
15:07:11.854560,176519.953125,179299.796875,194328.671875,172082.0625,165539.171875,191245.296875,689141.3125,174253.765625,0.0595703125,0.990966796875,-0.207275390625,-1.2207030057907104,0.03051757626235485,0.7019042372703552,100.0,255486.0,1.0
15:07:11.858299,176466.5,179287.734375,194318.125,172091.359375,165537.390625,191200.234375,689119.25,174258.953125,0.06005859375,0.991455078125,-0.203125,-1.1596678495407104,0.0,0.7324218153953552,100.0,255487.0,1.0
15:07:11.868891,176424.828125,179269.765625,194305.25,172091.28125,165526.5625,191151.5,688860.5,174254.46875,0.059326171875,0.98974609375,-0.203369140625,-1.2207030057907104,-0.0610351525247097,0.8544921278953552,100.0,255488.0,1.0
15:07:11.868908,176492.78125,179283.4375,194320.078125,172086.171875,165526.75,191188.609375,688816.125,174250.984375,0.060791015625,0.991455078125,-0.201171875,-1.2817381620407104,-0.2136230319738388,0.8239745497703552,100.0,255489.0,1.0
15:07:11.870737,176533.453125,179299.53125,194333.140625,172087.34375,165534.4375,191235.71875,689108.625,174253.3125,0.060546875,0.98974609375,-0.201904296875,-1.1901854276657104,-0.1831054538488388,0.9765624403953552,100.0,255490.0,1.0
15:07:11.881522,176476.15625,179284.0625,194314.546875,172087.875,165524.875,191195.125,689146.6875,174251.53125,0.060791015625,0.99072265625,-0.2021484375,-1.2512205839157104,-0.1220703050494194,0.8850097060203552,100.0,255491.0,1.0
15:07:11.881545,176418.296875,179260.28125,194289.0625,172081.703125,165506.0,191132.8125,688915.9375,174241.328125,0.059326171875,0.9892578125,-0.204345703125,-1.2207030057907104,-0.1831054538488388,0.7934569716453552,100.0,255492.0,1.0
15:07:11.883399,176462.46875,179266.90625,194295.953125,172076.078125,165502.0625,191157.3125,688782.8125,174236.328125,0.062255859375,0.9892578125,-0.204345703125,-1.3427733182907104,-0.2136230319738388,0.7934569716453552,100.0,255493.0,1.0
15:07:11.887386,176509.765625,179269.765625,194301.125,172066.78125,165497.234375,191198.890625,689067.75,174229.53125,0.062744140625,0.989013671875,-0.20556640625,-1.2207030057907104,-0.2746581733226776,0.8239745497703552,100.0,255494.0,1.0
15:07:11.918890,176452.90625,179254.65625,194283.078125,172060.78125,165487.859375,191172.328125,689158.6875,174221.84375,0.06103515625,0.990478515625,-0.202880859375,-1.2512205839157104,-0.1220703050494194,0.7019042372703552,100.0,255495.0,1.0
15:07:11.918909,176395.59375,179237.03125,194264.203125,172061.5,165479.0,191111.984375,688966.4375,174223.0,0.063232421875,0.990478515625,-0.201904296875,-1.2207030057907104,-0.1831054538488388,0.7324218153953552,100.0,255496.0,1.0
15:07:11.922193,176417.953125,179240.703125,194265.546875,172053.28125,165474.625,191124.5,688757.6875,174216.484375,0.063720703125,0.988525390625,-0.203857421875,-1.2207030057907104,-0.1525878757238388,0.7019042372703552,100.0,255497.0,1.0
15:07:11.922203,176485.625,179250.8125,194276.90625,172043.890625,165474.359375,191178.6875,689009.5625,174208.96875,0.063232421875,0.990966796875,-0.203857421875,-1.2512205839157104,-0.0915527269244194,0.8544921278953552,100.0,255498.0,1.0
15:07:11.922205,176453.0,179254.296875,194275.375,172051.578125,165481.859375,191183.0625,689160.0,174212.28125,0.06201171875,0.990478515625,-0.2041015625,-1.2817381620407104,-0.0915527269244194,0.7629393935203552,100.0,255499.0,1.0
15:07:11.922206,176399.703125,179244.375,194260.453125,172057.125,165479.53125,191127.8125,689008.3125,174216.5625,0.064208984375,0.989013671875,-0.203857421875,-1.2817381620407104,-0.1220703050494194,0.8239745497703552,100.0,255500.0,1.0
15:07:11.922208,176415.53125,179259.03125,194274.484375,172063.921875,165490.796875,191141.484375,688769.5,174225.234375,0.06494140625,0.98828125,-0.20751953125,-1.3122557401657104,-0.0610351525247097,0.7934569716453552,100.0,255501.0,1.0
15:07:11.924474,176501.546875,179275.84375,194297.375,172062.671875,165502.34375,191202.734375,688987.75,174230.609375,0.063720703125,0.98681640625,-0.205078125,-1.2207030057907104,0.03051757626235485,0.7324218153953552,100.0,255502.0,1.0
15:07:11.927013,176479.015625,179278.171875,194298.0,172065.609375,165512.34375,191215.0625,689175.0625,174234.0,0.06298828125,0.986572265625,-0.20556640625,-1.2512205839157104,-0.0610351525247097,0.7629393935203552,100.0,255503.0,1.0
15:07:11.929538,176415.890625,179255.71875,194278.78125,172066.78125,165506.625,191150.421875,689051.8125,174234.453125,0.064208984375,0.988037109375,-0.205078125,-1.2817381620407104,0.1525878757238388,0.7019042372703552,100.0,255504.0,1.0
15:07:11.932011,176420.984375,179273.96875,194296.390625,172083.859375,165525.046875,191153.828125,688796.6875,174250.984375,0.065673828125,0.987548828125,-0.20458984375,-1.3427733182907104,0.1525878757238388,0.7324218153953552,100.0,255505.0,1.0
15:07:11.938867,176514.5,179298.015625,194327.0625,172089.578125,165540.6875,191216.328125,688930.9375,174262.34375,0.06396484375,0.98974609375,-0.205322265625,-1.3122557401657104,0.0915527269244194,0.7019042372703552,100.0,255506.0,1.0
15:07:11.938880,176509.140625,179302.484375,194329.828125,172087.875,165545.609375,191241.0,689169.375,174260.375,0.0625,0.98828125,-0.208251953125,-1.3122557401657104,0.0915527269244194,0.7629393935203552,100.0,255507.0,1.0
15:07:11.953828,176456.21875,179290.0625,194316.234375,172096.109375,165542.75,191189.140625,689100.0,174267.078125,0.0625,0.988525390625,-0.206787109375,-1.4343260526657104,0.0915527269244194,0.7019042372703552,100.0,255508.0,1.0
15:07:11.953840,176424.203125,179283.625,194304.96875,172090.015625,165533.984375,191158.828125,688825.0,174258.765625,0.0634765625,0.9873046875,-0.205322265625,-1.3427733182907104,0.1525878757238388,0.6713866591453552,100.0,255509.0,1.0
15:07:11.953845,176495.015625,179285.859375,194314.359375,172075.8125,165528.171875,191196.5625,688873.3125,174249.734375,0.0625,0.98828125,-0.207763671875,-1.3732908964157104,0.2136230319738388,0.7324218153953552,100.0,255510.0,1.0
15:07:11.955699,176515.484375,179297.03125,194326.171875,172079.65625,165539.53125,191237.78125,689155.25,174253.578125,0.06201171875,0.9892578125,-0.204345703125,-1.3427733182907104,0.3356933295726776,0.5798339247703552,100.0,255511.0,1.0
15:07:11.958337,176457.546875,179282.71875,194310.078125,172082.609375,165534.796875,191190.03125,689133.9375,174255.1875,0.061279296875,0.989013671875,-0.205322265625,-1.4038084745407104,0.2746581733226776,0.6103515028953552,100.0,255512.0,1.0
15:07:11.965173,176415.078125,179268.6875,194295.046875,172079.5625,165521.46875,191141.046875,688876.125,174247.765625,0.0625,0.98876953125,-0.20654296875,-1.3427733182907104,0.3356933295726776,0.6103515028953552,100.0,255513.0,1.0
15:07:11.965190,176483.484375,179282.09375,194312.21875,172080.359375,165523.96875,191182.25,688832.1875,174250.984375,0.06103515625,0.9892578125,-0.208740234375,-1.4343260526657104,0.3662109076976776,0.6103515028953552,100.0,255514.0,1.0
15:07:11.970819,176522.734375,179295.421875,194324.46875,172082.515625,165529.703125,191228.75,689119.0,174252.0625,0.06298828125,0.9912109375,-0.2060546875,-1.3732908964157104,0.2746581733226776,0.7019042372703552,100.0,255515.0,1.0
15:07:11.978855,176464.4375,179280.21875,194306.3125,172079.828125,165521.921875,191190.21875,689148.75,174247.953125,0.06201171875,0.990966796875,-0.2041015625,-1.4343260526657104,0.2746581733226776,0.6713866591453552,100.0,255516.0,1.0
15:07:11.978866,176423.3125,179273.0625,194299.796875,172087.15625,165521.65625,191146.40625,688923.625,174253.140625,0.060791015625,0.990478515625,-0.204833984375,-1.4343260526657104,0.3356933295726776,0.6408690810203552,100.0,255517.0,1.0
15:07:11.985149,176473.5625,179283.625,194313.015625,172084.21875,165523.703125,191173.5,688791.0625,174250.8125,0.06201171875,0.988525390625,-0.207763671875,-1.4953612089157104,0.2441406100988388,0.6713866591453552,100.0,255518.0,1.0
15:07:11.985161,176526.9375,179290.59375,194323.125,172076.609375,165524.59375,191223.109375,689074.1875,174243.65625,0.0595703125,0.987548828125,-0.205810546875,-1.3732908964157104,0.2441406100988388,0.7019042372703552,100.0,255519.0,1.0
15:07:11.987994,176476.515625,179278.25,194308.90625,172076.96875,165519.328125,191198.53125,689172.4375,174239.71875,0.06201171875,0.987060546875,-0.208740234375,-1.4343260526657104,0.2746581733226776,0.6103515028953552,100.0,255520.0,1.0
15:07:11.996998,176413.65625,179250.71875,194282.265625,172071.34375,165500.109375,191126.734375,688983.0625,174230.15625,0.0615234375,0.988037109375,-0.209228515625,-1.4953612089157104,0.2746581733226776,0.6713866591453552,100.0,255521.0,1.0
15:07:12.002419,176449.59375,179268.59375,194300.140625,172079.109375,165508.78125,191153.375,688795.5,174238.390625,0.062744140625,0.989013671875,-0.2080078125,-1.4038084745407104,0.3356933295726776,0.6103515028953552,100.0,255522.0,1.0
15:07:12.002433,176513.609375,179274.671875,194307.75,172064.8125,165504.484375,191202.546875,689044.0625,174227.828125,0.061767578125,0.98876953125,-0.209228515625,-1.4343260526657104,0.3051757514476776,0.5493163466453552,100.0,255523.0,1.0
15:07:12.008292,176473.375,179270.125,194298.1875,172060.96875,165504.125,191197.1875,689191.75,174223.625,0.06201171875,0.988525390625,-0.207275390625,-1.4343260526657104,0.3051757514476776,0.5493163466453552,100.0,255524.0,1.0
15:07:12.017577,176406.234375,179246.421875,194274.3125,172056.5,165492.59375,191131.5625,689025.75,174220.59375,0.062744140625,0.988037109375,-0.2060546875,-1.4953612089157104,0.2746581733226776,0.6103515028953552,100.0,255525.0,1.0
15:07:12.017588,176404.171875,179242.484375,194270.734375,172048.71875,165488.84375,191130.3125,688770.3125,174216.5625,0.062255859375,0.9873046875,-0.210205078125,-1.4953612089157104,0.3967284858226776,0.6713866591453552,100.0,255526.0,1.0
15:07:12.025246,176488.046875,179255.546875,194290.046875,172044.328125,165496.25,191186.015625,688976.75,174218.796875,0.06298828125,0.987548828125,-0.20556640625,-1.4953612089157104,0.4577636420726776,0.6103515028953552,100.0,255527.0,1.0
15:07:12.025254,176473.921875,179264.84375,194297.90625,172057.203125,165511.375,191206.3125,689176.125,174230.78125,0.06298828125,0.989013671875,-0.203125,-1.4648436307907104,0.5187987685203552,0.7019042372703552,100.0,255528.0,1.0
15:07:12.027673,176416.15625,179245.359375,194281.640625,172061.59375,165506.09375,191142.828125,689053.625,174234.0,0.06396484375,0.99072265625,-0.20654296875,-1.4648436307907104,0.4882812201976776,0.7019042372703552,100.0,255529.0,1.0
15:07:12.027681,176408.734375,179247.859375,194286.46875,172069.015625,165511.015625,191130.3125,688788.6875,174240.0,0.0634765625,0.990966796875,-0.20654296875,-1.4953612089157104,0.4272460639476776,0.7934569716453552,100.0,255530.0,1.0
15:07:12.037009,176499.390625,179265.203125,194311.859375,172073.65625,165521.734375,191184.671875,688919.25,174247.59375,0.0634765625,0.990966796875,-0.204345703125,-1.4953612089157104,0.3356933295726776,0.7019042372703552,100.0,255531.0,1.0
15:07:12.041344,176504.046875,179278.796875,194325.0,172084.390625,165537.5625,191218.203125,689173.25,174255.90625,0.06298828125,0.9912109375,-0.205810546875,-1.4953612089157104,0.3967284858226776,0.6103515028953552,100.0,255532.0,1.0
15:07:12.041351,176438.421875,179256.4375,194302.03125,172081.96875,165525.3125,191156.859375,689099.9375,174251.796875,0.0615234375,0.9892578125,-0.2080078125,-1.4953612089157104,0.5187987685203552,0.6713866591453552,100.0,255533.0,1.0
15:07:12.050751,176407.3125,179251.703125,194291.75,172076.515625,165516.734375,191128.53125,688831.625,174244.28125,0.06103515625,0.990966796875,-0.208740234375,-1.6479490995407104,0.4882812201976776,0.6713866591453552,100.0,255534.0,1.0
15:07:12.053833,176485.71875,179263.5,194308.375,172071.25,165520.21875,191175.90625,688867.625,174243.84375,0.06103515625,0.98974609375,-0.207763671875,-1.5869139432907104,0.4882812201976776,0.7019042372703552,100.0,255535.0,1.0
15:07:12.053841,176507.078125,179277.890625,194320.171875,172073.390625,165529.15625,191219.984375,689145.8125,174244.109375,0.063232421875,0.989013671875,-0.203125,-1.4953612089157104,0.3967284858226776,0.6713866591453552,100.0,255536.0,1.0
15:07:12.059559,176448.609375,179261.796875,194302.46875,172074.90625,165520.75,191172.421875,689129.0625,174241.875,0.06298828125,0.98876953125,-0.203125,-1.5563963651657104,0.5187987685203552,0.6713866591453552,100.0,255537.0,1.0
15:07:12.066313,176416.78125,179262.25,194298.53125,172083.3125,165521.296875,191140.421875,688877.75,174245.984375,0.0625,0.990478515625,-0.205078125,-1.5869139432907104,0.4577636420726776,0.4577636420726776,100.0,255538.0,1.0
15:07:12.066321,176482.5,179273.875,194311.40625,172077.6875,165521.03125,191179.671875,688828.5625,174241.78125,0.0625,0.987060546875,-0.206787109375,-1.4953612089157104,0.4882812201976776,0.6103515028953552,100.0,255539.0,1.0
15:07:12.075822,176524.4375,179287.640625,194326.171875,172078.125,165530.859375,191229.640625,689128.625,174241.78125,0.063720703125,0.988525390625,-0.206787109375,-1.5258787870407104,0.3662109076976776,0.5798339247703552,100.0,255540.0,1.0
15:07:12.080171,176474.984375,179282.90625,194321.25,172085.1875,165535.0625,191202.546875,689169.25,174249.375,0.06298828125,0.98876953125,-0.2041015625,-1.5869139432907104,0.3662109076976776,0.7324218153953552,100.0,255541.0,1.0
15:07:12.080185,176427.78125,179271.375,194307.5625,172086.359375,165528.984375,191149.171875,688929.0,174247.953125,0.0625,0.98828125,-0.205322265625,-1.6174315214157104,0.3662109076976776,0.4882812201976776,100.0,255542.0,1.0
15:07:12.087658,176481.421875,179287.109375,194324.203125,172085.734375,165534.609375,191182.796875,688800.9375,174250.09375,0.063720703125,0.988525390625,-0.204345703125,-1.5869139432907104,0.2136230319738388,0.6103515028953552,100.0,255543.0,1.0
15:07:12.087671,176532.5625,179293.71875,194332.609375,172076.515625,165533.984375,191229.734375,689092.125,174243.75,0.0625,0.9892578125,-0.202880859375,-1.5258787870407104,0.2441406100988388,0.6408690810203552,100.0,255544.0,1.0
15:07:12.089518,176479.8125,179283.4375,194317.40625,172074.109375,165527.28125,191204.78125,689178.1875,174238.828125,0.060791015625,0.99072265625,-0.203369140625,-1.5563963651657104,0.3051757514476776,0.5493163466453552,100.0,255545.0,1.0
15:07:12.118912,176419.203125,179263.140625,194294.609375,172071.609375,165512.0,191139.078125,688968.5,174235.703125,0.060546875,0.98876953125,-0.204833984375,-1.7089842557907104,0.2136230319738388,0.5798339247703552,100.0,255546.0,1.0
15:07:12.118987,176442.171875,179266.453125,194297.90625,172068.03125,165507.515625,191149.359375,688771.25,174232.84375,0.061767578125,0.98681640625,-0.204345703125,-1.5869139432907104,0.2441406100988388,0.6103515028953552,100.0,255547.0,1.0
15:07:12.151355,176510.75,179273.421875,194309.09375,172062.3125,165509.40625,191199.609375,689038.5,174232.125,0.062744140625,0.9873046875,-0.206298828125,-1.5258787870407104,0.3051757514476776,0.5493163466453552,100.0,255548.0,1.0
15:07:12.151387,176471.234375,179268.515625,194299.4375,172064.625,165509.40625,191192.890625,689184.6875,174232.75,0.060791015625,0.987060546875,-0.205322265625,-1.4953612089157104,0.2441406100988388,0.5187987685203552,100.0,255549.0,1.0
15:07:12.153259,176408.375,179242.40625,194276.640625,172064.984375,165497.421875,191122.890625,689021.1875,174233.203125,0.060791015625,0.9873046875,-0.2060546875,-1.4953612089157104,0.2136230319738388,0.5187987685203552,100.0,255550.0,1.0
15:07:12.155754,176413.03125,179246.25,194280.390625,172063.5625,165498.40625,191124.765625,688773.0625,174235.34375,0.062255859375,0.988525390625,-0.206787109375,-1.4648436307907104,0.1831054538488388,0.5187987685203552,100.0,255551.0,1.0
15:07:12.158275,176495.8125,179261.0,194301.125,172059.171875,165504.65625,191179.671875,688978.0,174235.4375,0.06201171875,0.98828125,-0.202392578125,-1.4343260526657104,0.1220703050494194,0.4882812201976776,100.0,255552.0,1.0
15:07:12.160786,176479.90625,179268.0625,194305.59375,172066.6875,165516.109375,191197.09375,689177.4375,174242.40625,0.063232421875,0.988037109375,-0.20556640625,-1.5563963651657104,0.1220703050494194,0.5493163466453552,100.0,255553.0,1.0
15:07:12.163286,176420.546875,179247.953125,194285.9375,172068.125,165507.96875,191130.765625,689057.1875,174241.328125,0.063232421875,0.988525390625,-0.20166015625,-1.5258787870407104,0.1220703050494194,0.5798339247703552,100.0,255554.0,1.0
15:07:12.165761,176414.453125,179253.484375,194290.140625,172073.578125,165511.453125,191122.359375,688796.75,174245.53125,0.06298828125,0.990234375,-0.20166015625,-1.4953612089157104,0.1831054538488388,0.5187987685203552,100.0,255555.0,1.0
15:07:12.168211,176505.828125,179274.046875,194315.609375,172075.53125,165521.828125,191184.671875,688926.75,174253.21875,0.0615234375,0.989013671875,-0.201171875,-1.5869139432907104,0.1525878757238388,0.4577636420726776,100.0,255556.0,1.0
15:07:12.170731,176502.25,179278.96875,194317.40625,172076.078125,165526.75,191211.9375,689170.3125,174253.671875,0.060302734375,0.990234375,-0.202392578125,-1.6174315214157104,0.0915527269244194,0.4577636420726776,100.0,255557.0,1.0
15:07:12.173282,176438.328125,179258.9375,194294.96875,172074.828125,165516.734375,191153.46875,689097.5,174251.53125,0.06103515625,0.98974609375,-0.202392578125,-1.5869139432907104,0.0915527269244194,0.4882812201976776,100.0,255558.0,1.0
15:07:12.175705,176413.65625,179259.921875,194291.03125,172078.3125,165515.84375,191129.421875,688829.9375,174252.328125,0.060791015625,0.98828125,-0.2021484375,-1.6174315214157104,0.1525878757238388,0.4882812201976776,100.0,255559.0,1.0
15:07:12.178287,176492.78125,179273.34375,194306.578125,172072.3125,165513.875,191176.359375,688876.0,174248.84375,0.060791015625,0.986328125,-0.204833984375,-1.5563963651657104,0.0610351525247097,0.5798339247703552,100.0,255560.0,1.0
15:07:12.180719,176515.578125,179289.25,194318.65625,172076.96875,165522.90625,191219.1875,689156.0625,174251.96875,0.0625,0.987060546875,-0.202392578125,-1.5869139432907104,0.1220703050494194,0.5493163466453552,100.0,255561.0,1.0
15:07:12.183324,176465.953125,179281.65625,194310.25,172085.828125,165522.8125,191179.484375,689141.5,174256.171875,0.0634765625,0.987548828125,-0.20361328125,-1.6784666776657104,0.1220703050494194,0.4577636420726776,100.0,255562.0,1.0
15:07:12.186420,176428.9375,179272.4375,194302.03125,172086.984375,165519.859375,191140.765625,688886.4375,174253.578125,0.064208984375,0.98974609375,-0.2021484375,-1.6479490995407104,0.1831054538488388,0.6408690810203552,100.0,255563.0,1.0
15:07:12.186449,176492.6875,179282.1875,194316.328125,172081.53125,165522.09375,191180.015625,688828.25,174250.359375,0.061767578125,0.989990234375,-0.201171875,-1.6174315214157104,0.03051757626235485,0.5798339247703552,100.0,255564.0,1.0
15:07:12.186461,176535.703125,179300.15625,194332.78125,172083.671875,165533.09375,191234.921875,689121.3125,174251.96875,0.061767578125,0.99072265625,-0.20361328125,-1.6174315214157104,0.0610351525247097,0.5187987685203552,100.0,255565.0,1.0
15:07:12.188277,176479.015625,179288.796875,194316.515625,172084.125,165529.0625,191201.921875,689160.5625,174250.453125,0.062744140625,0.991455078125,-0.202880859375,-1.7700194120407104,0.0,0.4882812201976776,100.0,255566.0,1.0
15:07:12.191435,176433.859375,179283.171875,194306.671875,172087.515625,165525.765625,191156.15625,688934.6875,174251.890625,0.062744140625,0.990234375,-0.2001953125,-1.6784666776657104,0.0610351525247097,0.6408690810203552,100.0,255567.0,1.0
15:07:12.191453,176486.078125,179295.875,194324.5625,172087.078125,165533.546875,191189.140625,688816.5,174254.5625,0.062255859375,0.989501953125,-0.20068359375,-1.7395018339157104,0.0610351525247097,0.6408690810203552,100.0,255568.0,1.0
15:07:12.193327,176549.28125,179313.578125,194347.265625,172091.984375,165548.65625,191248.953125,689123.375,174260.28125,0.061767578125,0.9892578125,-0.203125,-1.6784666776657104,0.1831054538488388,0.7324218153953552,100.0,255569.0,1.0
15:07:12.195722,176509.859375,179314.015625,194346.90625,172105.671875,165556.96875,191237.25,689219.375,174271.90625,0.061767578125,0.9892578125,-0.202392578125,-1.7089842557907104,0.03051757626235485,0.7934569716453552,100.0,255570.0,1.0
15:07:12.198850,176451.46875,179293.09375,194325.0,172102.984375,165542.21875,191172.609375,689005.0,174268.421875,0.06201171875,0.988525390625,-0.207763671875,-1.7395018339157104,0.03051757626235485,0.7629393935203552,100.0,255571.0,1.0
15:07:12.198855,176476.859375,179297.203125,194329.296875,172098.515625,165538.09375,191182.171875,688802.1875,174265.390625,0.063232421875,0.98876953125,-0.206787109375,-1.7395018339157104,0.1220703050494194,0.7019042372703552,100.0,255572.0,1.0
15:07:12.223915,176542.84375,179303.734375,194338.765625,172088.59375,165536.40625,191228.75,689044.25,174260.28125,0.063720703125,0.989013671875,-0.204833984375,-1.7700194120407104,0.1220703050494194,0.6713866591453552,100.0,255573.0,1.0
15:07:12.223993,176500.296875,179294.609375,194326.96875,172089.046875,165532.921875,191218.28125,689182.1875,174258.40625,0.062744140625,0.989990234375,-0.203369140625,-1.6784666776657104,0.0,0.7324218153953552,100.0,255574.0,1.0
15:07:12.226380,176432.078125,179262.25,194297.375,172083.671875,165512.703125,191139.515625,689018.3125,174252.515625,0.0625,0.990966796875,-0.20458984375,-1.6479490995407104,0.1220703050494194,0.5798339247703552,100.0,255575.0,1.0
15:07:12.226441,176438.15625,179264.390625,194300.953125,172084.5625,165514.5,191140.328125,688771.5625,174257.25,0.065673828125,0.98876953125,-0.202392578125,-1.6479490995407104,0.1831054538488388,0.8850097060203552,100.0,255576.0,1.0
15:07:12.226469,176518.34375,179271.640625,194317.5,172079.03125,165518.25,191192.71875,688980.5,174258.765625,0.0634765625,0.98974609375,-0.202880859375,-1.5869139432907104,0.2136230319738388,0.7629393935203552,100.0,255577.0,1.0
15:07:12.228623,176486.4375,179264.03125,194308.546875,172073.484375,165516.109375,191196.46875,689167.875,174253.40625,0.0634765625,0.98876953125,-0.204833984375,-1.6479490995407104,0.2136230319738388,0.7629393935203552,100.0,255578.0,1.0
15:07:12.230718,176422.234375,179244.734375,194287.90625,172072.3125,165507.875,191133.53125,689050.125,174250.984375,0.063720703125,0.98828125,-0.203369140625,-1.5869139432907104,0.1220703050494194,0.8544921278953552,100.0,255579.0,1.0
15:07:12.233278,176415.078125,179250.625,194290.484375,172073.65625,165509.125,191126.46875,688788.875,174248.9375,0.061767578125,0.9873046875,-0.201171875,-1.4953612089157104,0.1220703050494194,0.7324218153953552,100.0,255580.0,1.0
15:07:12.237565,176501.09375,179266.546875,194308.90625,172067.671875,165510.921875,191180.5625,688917.8125,174247.5,0.06201171875,0.98779296875,-0.204345703125,-1.5258787870407104,0.0915527269244194,0.7629393935203552,100.0,255581.0,1.0
15:07:12.237594,176502.4375,179279.5,194317.578125,172073.84375,165520.84375,191211.9375,689166.25,174251.25,0.063720703125,0.989501953125,-0.203369140625,-1.3427733182907104,0.0610351525247097,0.7934569716453552,100.0,255582.0,1.0
15:07:12.243365,176442.4375,179262.703125,194298.0,172073.390625,165510.734375,191154.0,689100.75,174248.3125,0.062744140625,0.989013671875,-0.202880859375,-1.3122557401657104,0.0915527269244194,0.7324218153953552,100.0,255583.0,1.0
15:07:12.253858,176421.515625,179270.296875,194298.265625,172080.1875,165513.421875,191135.859375,688845.75,174253.5,0.061767578125,0.9892578125,-0.2021484375,-1.4038084745407104,0.0610351525247097,0.7629393935203552,100.0,255584.0,1.0
15:07:12.253886,176505.125,179291.125,194320.53125,172080.1875,165521.375,191192.8125,688880.0,174256.171875,0.064453125,0.987060546875,-0.204833984375,-1.4648436307907104,0.0,0.6713866591453552,100.0,255585.0,1.0
15:07:12.256429,176518.625,179293.90625,194324.109375,172075.0,165523.4375,191229.375,689154.5,174249.375,0.06298828125,0.98681640625,-0.204345703125,-1.3427733182907104,0.1525878757238388,0.6103515028953552,100.0,255586.0,1.0
15:07:12.256454,176450.84375,179268.78125,194297.640625,172069.1875,165508.59375,191176.171875,689140.6875,174241.328125,0.0625,0.985595703125,-0.20654296875,-1.2512205839157104,0.1831054538488388,0.6713866591453552,100.0,255587.0,1.0
15:07:12.265730,176402.5625,179256.796875,194278.78125,172062.21875,165496.171875,191132.09375,688887.3125,174231.671875,0.063720703125,0.9853515625,-0.20654296875,-1.1901854276657104,0.2136230319738388,0.6713866591453552,100.0,255588.0,1.0
15:07:12.270095,176465.515625,179266.984375,194293.0,172058.015625,165498.9375,191169.390625,688835.75,174232.65625,0.0654296875,0.984375,-0.20458984375,-1.1596678495407104,0.1220703050494194,0.5798339247703552,100.0,255589.0,1.0
15:07:12.270118,176514.234375,179288.171875,194313.015625,172064.90625,165515.65625,191225.703125,689134.625,174242.40625,0.06494140625,0.986083984375,-0.203125,-1.0375975370407104,0.0610351525247097,0.6408690810203552,100.0,255590.0,1.0
15:07:12.279526,176461.75,179276.109375,194298.71875,172065.171875,165514.3125,191191.28125,689174.125,174241.6875,0.0654296875,0.987060546875,-0.20654296875,-1.0070799589157104,0.1220703050494194,0.6408690810203552,100.0,255591.0,1.0
15:07:12.282629,176409.984375,179260.015625,194282.53125,172064.625,165506.09375,191137.640625,688933.875,174238.390625,0.064453125,0.9873046875,-0.20654296875,-0.9155272841453552,0.0915527269244194,0.6408690810203552,100.0,255592.0,1.0
15:07:12.282663,176463.359375,179276.109375,194300.0625,172067.046875,165512.34375,191171.53125,688803.5625,174242.671875,0.0654296875,0.987548828125,-0.20849609375,-0.9460448622703552,0.1831054538488388,0.7324218153953552,100.0,255593.0,1.0
15:07:12.288393,176529.265625,179294.609375,194323.484375,172071.875,165524.421875,191229.203125,689101.1875,174250.09375,0.06396484375,0.987548828125,-0.2080078125,-0.9460448622703552,0.2136230319738388,0.7934569716453552,100.0,255594.0,1.0
15:07:12.295172,176482.765625,179287.734375,194314.984375,172077.234375,165523.96875,191210.0625,689192.1875,174251.890625,0.064453125,0.987548828125,-0.20556640625,-0.8544921278953552,0.2441406100988388,0.7934569716453552,100.0,255595.0,1.0
15:07:12.295213,176423.578125,179264.84375,194292.8125,172074.5625,165509.84375,191142.375,688986.125,174245.71875,0.064453125,0.98681640625,-0.205810546875,-0.8544921278953552,0.3356933295726776,0.8239745497703552,100.0,255596.0,1.0
15:07:12.301383,176460.765625,179279.78125,194310.25,172082.953125,165520.390625,191165.8125,688787.8125,174253.9375,0.06396484375,0.9853515625,-0.206787109375,-0.8544921278953552,0.3967284858226776,0.8239745497703552,100.0,255597.0,1.0
15:07:12.301413,176535.96875,179292.734375,194328.21875,172078.21875,165525.9375,191221.421875,689053.0,174250.71875,0.06201171875,0.9833984375,-0.205322265625,-0.7934569716453552,0.3662109076976776,0.7934569716453552,100.0,255598.0,1.0
15:07:12.307072,176509.140625,179300.15625,194332.6875,172089.484375,165539.625,191228.21875,689207.25,174261.71875,0.06201171875,0.98583984375,-0.207763671875,-0.7324218153953552,0.2746581733226776,0.7629393935203552,100.0,255599.0,1.0
15:07:12.320152,176452.640625,179282.28125,194316.328125,172092.890625,165531.578125,191166.25,689038.3125,174263.0625,0.062744140625,0.988525390625,-0.206787109375,-0.6408690810203552,0.2136230319738388,0.7629393935203552,100.0,255600.0,1.0
15:07:12.320181,176456.484375,179283.890625,194316.59375,172089.84375,165529.34375,191167.5,688793.375,174261.546875,0.065185546875,0.990478515625,-0.208984375,-0.5493163466453552,0.2746581733226776,0.6408690810203552,100.0,255601.0,1.0
15:07:12.322630,176529.4375,179288.984375,194325.265625,172077.5,165524.875,191215.96875,688981.5,174255.1875,0.067138671875,0.994140625,-0.20849609375,-0.6103515028953552,0.3662109076976776,0.6713866591453552,100.0,255602.0,1.0
15:07:12.322658,176496.796875,179280.484375,194313.46875,172072.953125,165520.046875,191218.734375,689188.0,174251.609375,0.067138671875,0.9951171875,-0.211181640625,-0.6408690810203552,0.3051757514476776,0.7934569716453552,100.0,255603.0,1.0
15:07:12.324508,176428.234375,179251.96875,194284.765625,172070.0,165502.875,191146.578125,689074.4375,174250.546875,0.06640625,0.992431640625,-0.20458984375,-0.7019042372703552,0.3051757514476776,0.7019042372703552,100.0,255604.0,1.0
15:07:12.334548,176411.59375,179250.09375,194279.40625,172069.546875,165498.671875,191129.859375,688806.6875,174249.921875,0.065185546875,0.99072265625,-0.206787109375,-0.7324218153953552,0.3662109076976776,0.6408690810203552,100.0,255605.0,1.0
15:07:12.338823,176492.15625,179261.359375,194293.53125,172059.453125,165496.703125,191176.984375,688922.75,174243.921875,0.063232421875,0.990234375,-0.207763671875,-0.7324218153953552,0.3967284858226776,0.6103515028953552,100.0,255606.0,1.0
15:07:12.338848,176492.59375,179269.578125,194300.5,172063.375,165504.484375,191203.890625,689170.125,174246.703125,0.061767578125,0.9912109375,-0.206787109375,-0.6713866591453552,0.4272460639476776,0.6103515028953552,100.0,255607.0,1.0
15:07:12.340739,176434.671875,179253.75,194282.625,172064.90625,165497.0625,191149.265625,689112.4375,174244.90625,0.060546875,0.991455078125,-0.2041015625,-0.7019042372703552,0.3356933295726776,0.4882812201976776,100.0,255608.0,1.0
15:07:12.353306,176404.171875,179250.1875,194274.84375,172061.5,165492.859375,191123.875,688850.5,174239.8125,0.05908203125,0.991455078125,-0.2001953125,-0.8239745497703552,0.2746581733226776,0.2441406100988388,100.0,255609.0,1.0
15:07:12.357581,176481.609375,179266.359375,194295.3125,172056.3125,165500.1875,191177.15625,688877.875,174240.796875,0.06005859375,0.992431640625,-0.20166015625,-0.9765624403953552,0.2136230319738388,0.1525878757238388,100.0,255610.0,1.0
15:07:12.357609,176501.359375,179280.046875,194307.84375,172058.1875,165513.421875,191219.8125,689154.75,174244.375,0.06005859375,0.996337890625,-0.203857421875,-1.2207030057907104,0.1525878757238388,0.2136230319738388,100.0,255611.0,1.0
15:07:12.357616,176444.5,179266.90625,194292.375,172061.328125,165510.03125,191175.109375,689142.0625,174246.703125,0.060791015625,0.99658203125,-0.20458984375,-1.3122557401657104,0.0915527269244194,0.0610351525247097,100.0,255612.0,1.0
15:07:12.364523,176408.109375,179262.25,194283.421875,172064.0,165506.625,191139.703125,688888.8125,174246.25,0.061279296875,0.99853515625,-0.204345703125,-1.3122557401657104,0.1220703050494194,0.0,100.0,255613.0,1.0
15:07:12.371325,176475.171875,179277.71875,194300.234375,172061.40625,165511.28125,191182.890625,688848.0625,174246.703125,0.063720703125,0.998046875,-0.205322265625,-1.4953612089157104,0.0610351525247097,0.03051757626235485,100.0,255614.0,1.0
15:07:12.371351,176513.171875,179287.90625,194312.578125,172059.171875,165517.453125,191228.21875,689141.9375,174245.53125,0.067138671875,0.998046875,-0.20556640625,-1.6174315214157104,0.0915527269244194,0.0915527269244194,100.0,255615.0,1.0
15:07:12.381531,176454.421875,179271.375,194295.765625,172058.109375,165511.375,191190.390625,689170.125,174242.671875,0.067626953125,0.996337890625,-0.2041015625,-1.7395018339157104,0.2746581733226776,0.1831054538488388,100.0,255616.0,1.0
15:07:12.381559,176407.578125,179259.03125,194283.515625,172062.484375,165505.90625,191137.828125,688935.875,174244.1875,0.06787109375,0.993408203125,-0.203857421875,-1.9531248807907104,0.2441406100988388,0.3967284858226776,100.0,255617.0,1.0
15:07:12.383862,176452.1875,179265.015625,194292.640625,172057.203125,165504.21875,191162.234375,688805.0,174240.890625,0.0673828125,0.990966796875,-0.201416015625,-2.105712652206421,0.4272460639476776,0.4882812201976776,100.0,255618.0,1.0
15:07:12.383888,176512.53125,179280.125,194310.34375,172055.78125,165512.4375,191217.484375,689103.25,174241.15625,0.0654296875,0.990966796875,-0.2001953125,-2.166747808456421,0.4272460639476776,0.4577636420726776,100.0,255619.0,1.0
15:07:12.393372,176472.390625,179279.859375,194308.1875,172065.796875,165519.5,191204.34375,689199.0,174248.03125,0.06298828125,0.98876953125,-0.20068359375,-2.227782964706421,0.3967284858226776,0.4882812201976776,100.0,255620.0,1.0
15:07:12.396373,176426.890625,179275.03125,194300.328125,172077.234375,165520.578125,191152.484375,688994.25,174257.34375,0.05908203125,0.98583984375,-0.20263671875,-2.136230230331421,0.4272460639476776,0.6408690810203552,100.0,255621.0,1.0
15:07:12.396397,176455.234375,179280.9375,194308.734375,172077.234375,165520.671875,191164.828125,688791.1875,174256.796875,0.059326171875,0.98583984375,-0.200439453125,-2.105712652206421,0.3662109076976776,0.5187987685203552,100.0,255622.0,1.0
15:07:12.403254,176530.15625,179291.84375,194324.5625,172071.6875,165523.53125,191217.3125,689048.5,174252.328125,0.05859375,0.98486328125,-0.200927734375,-2.075195074081421,0.2746581733226776,0.5493163466453552,100.0,255623.0,1.0
15:07:12.411532,176498.0625,179293.28125,194321.78125,172076.34375,165528.71875,191217.125,689209.25,174254.75,0.0556640625,0.98291015625,-0.201416015625,-2.166747808456421,0.2136230319738388,0.5798339247703552,100.0,255624.0,1.0
15:07:12.411618,176445.65625,179279.59375,194308.90625,172085.28125,165526.03125,191160.0,689047.25,174260.375,0.058349609375,0.9853515625,-0.202392578125,-2.105712652206421,0.1525878757238388,0.5493163466453552,100.0,255625.0,1.0
15:07:12.418974,176453.4375,179285.859375,194314.546875,172086.796875,165528.890625,191166.25,688805.875,174262.609375,0.058837890625,0.984375,-0.20166015625,-2.075195074081421,0.03051757626235485,0.5798339247703552,100.0,255626.0,1.0
15:07:12.419053,176532.5625,179296.578125,194328.21875,172080.546875,165530.328125,191218.734375,689019.0,174261.0,0.056884765625,0.984619140625,-0.20166015625,-2.014159917831421,-0.0915527269244194,0.4882812201976776,100.0,255627.0,1.0
15:07:12.431854,176506.734375,179294.96875,194321.0625,172078.125,165529.25,191226.609375,689221.1875,174257.15625,0.05615234375,0.982666015625,-0.204833984375,-1.9836424589157104,-0.1831054538488388,0.5798339247703552,100.0,255628.0,1.0
15:07:12.431938,176438.515625,179269.40625,194295.59375,172073.921875,165515.21875,191159.640625,689097.9375,174252.6875,0.059326171875,0.981201171875,-0.203125,-1.8615721464157104,-0.2441406100988388,0.4577636420726776,100.0,255629.0,1.0
15:07:12.438435,176429.125,179273.34375,194297.109375,172077.421875,165520.390625,191151.953125,688835.75,174257.6875,0.059326171875,0.981201171875,-0.203369140625,-1.7395018339157104,-0.2746581733226776,0.3662109076976776,100.0,255630.0,1.0
15:07:12.441468,176511.203125,179285.9375,194314.0,172070.0,165525.046875,191205.140625,688948.5625,174255.8125,0.0595703125,0.981201171875,-0.204345703125,-1.6479490995407104,-0.3662109076976776,0.2746581733226776,100.0,255631.0,1.0
15:07:12.441540,176511.640625,179295.6875,194320.890625,172075.453125,165534.703125,191237.25,689201.5625,174260.90625,0.060546875,0.980712890625,-0.202880859375,-1.5869139432907104,-0.3356933295726776,0.1831054538488388,100.0,255632.0,1.0
15:07:12.443937,176444.59375,179269.84375,194295.140625,172071.875,165519.234375,191174.21875,689126.5625,174255.8125,0.063232421875,0.982177734375,-0.201904296875,-1.4038084745407104,-0.4272460639476776,0.2136230319738388,100.0,255633.0,1.0
15:07:12.444071,176407.75,179258.859375,194280.296875,172065.171875,165507.171875,191138.625,688849.4375,174246.875,0.06494140625,0.980712890625,-0.203125,-1.1901854276657104,-0.3356933295726776,0.2746581733226776,100.0,255634.0,1.0
15:07:12.457021,176484.734375,179273.609375,194295.234375,172057.125,165506.265625,191185.390625,688891.875,174241.328125,0.064697265625,0.98193359375,-0.203125,-1.1291502714157104,-0.3662109076976776,0.2746581733226776,100.0,255635.0,1.0
15:07:12.460132,176501.28125,179282.375,194302.03125,172055.0625,165512.0,191222.671875,689173.0625,174239.28125,0.064208984375,0.981689453125,-0.20458984375,-1.0070799589157104,-0.3051757514476776,0.2746581733226776,100.0,255636.0,1.0
15:07:12.460148,176440.484375,179265.734375,194284.140625,172055.875,165504.75,191175.1875,689154.8125,174238.734375,0.06591796875,0.98486328125,-0.20654296875,-0.8544921278953552,-0.3051757514476776,0.3051757514476776,100.0,255637.0,1.0
15:07:12.462019,176407.484375,179264.578125,194280.921875,172066.328125,165508.328125,191140.953125,688901.875,174247.859375,0.06689453125,0.984375,-0.206298828125,-0.7934569716453552,-0.1831054538488388,0.3662109076976776,100.0,255638.0,1.0
15:07:12.488833,176479.453125,179280.484375,194301.3125,172068.46875,165518.34375,191183.328125,688851.5625,174253.21875,0.067626953125,0.985595703125,-0.20556640625,-0.7019042372703552,-0.1220703050494194,0.3662109076976776,100.0,255639.0,1.0
15:07:12.488853,176509.765625,179281.203125,194304.078125,172056.3125,165515.5625,191221.5,689127.9375,174241.328125,0.067626953125,0.987060546875,-0.205810546875,-0.5187987685203552,-0.03051757626235485,0.3662109076976776,100.0,255640.0,1.0
15:07:12.513292,176454.875,179269.140625,194290.578125,172057.921875,165511.8125,191186.1875,689172.1875,174240.625,0.0673828125,0.986572265625,-0.204833984375,-0.5187987685203552,0.0610351525247097,0.4577636420726776,100.0,255641.0,1.0
15:07:12.518284,176409.28125,179260.90625,194278.78125,172061.5,165506.71875,191136.390625,688944.8125,174240.625,0.06591796875,0.984619140625,-0.208740234375,-0.5187987685203552,-0.03051757626235485,0.3967284858226776,100.0,255642.0,1.0
15:07:12.520894,176459.25,179272.890625,194293.890625,172062.84375,165511.453125,191166.703125,688802.0,174243.5625,0.065673828125,0.98583984375,-0.207275390625,-0.3662109076976776,0.03051757626235485,0.4882812201976776,100.0,255643.0,1.0
15:07:12.523382,176519.421875,179288.09375,194311.0625,172061.328125,165520.21875,191222.140625,689094.125,174244.109375,0.064697265625,0.98486328125,-0.20654296875,-0.2136230319738388,0.1220703050494194,0.5187987685203552,100.0,255644.0,1.0
15:07:12.525904,176475.171875,179285.234375,194304.53125,172066.6875,165524.15625,191207.375,689181.75,174247.765625,0.06396484375,0.987548828125,-0.2080078125,-0.1220703050494194,0.2136230319738388,0.4882812201976776,100.0,255645.0,1.0
15:07:12.528389,176423.125,179271.546875,194290.40625,172071.96875,165520.390625,191148.90625,688990.6875,174252.421875,0.062255859375,0.98828125,-0.2080078125,-0.0610351525247097,0.1831054538488388,0.3967284858226776,100.0,255646.0,1.0
15:07:12.559590,176450.578125,179280.21875,194301.3125,172073.21875,165525.140625,191163.484375,688774.75,174254.75,0.060791015625,0.98876953125,-0.210205078125,0.03051757626235485,0.1525878757238388,0.2746581733226776,100.0,255647.0,1.0
15:07:12.561970,176530.59375,179297.03125,194325.265625,172075.8125,165535.59375,191221.59375,689041.625,174259.75,0.0615234375,0.989501953125,-0.211181640625,0.0,0.1831054538488388,0.3051757514476776,100.0,255648.0,1.0
15:07:12.564841,176497.609375,179299.359375,194321.609375,172080.90625,165538.640625,191222.9375,689190.25,174261.453125,0.06103515625,0.990234375,-0.211181640625,0.03051757626235485,0.0915527269244194,0.2441406100988388,100.0,255649.0,1.0
15:07:12.567005,176443.34375,179286.390625,194305.953125,172086.171875,165532.28125,191164.734375,689036.5625,174264.40625,0.05908203125,0.9921875,-0.2099609375,0.0,0.1220703050494194,0.2441406100988388,100.0,255650.0,1.0
15:07:12.569559,176450.40625,179295.515625,194310.25,172084.65625,165532.375,191170.90625,688783.1875,174261.0,0.0595703125,0.9912109375,-0.210693359375,0.03051757626235485,0.0915527269244194,0.3051757514476776,100.0,255651.0,1.0
15:07:12.572066,176531.5,179309.8125,194328.671875,172078.484375,165535.328125,191227.765625,688978.4375,174256.359375,0.060546875,0.990478515625,-0.208984375,0.03051757626235485,0.0915527269244194,0.3051757514476776,100.0,255652.0,1.0
15:07:12.575067,176507.796875,179306.78125,194325.09375,172078.578125,165537.390625,191236.890625,689178.8125,174253.9375,0.05908203125,0.9931640625,-0.20947265625,-0.03051757626235485,0.0,0.2136230319738388,100.0,255653.0,1.0
15:07:12.575073,176441.015625,179281.109375,194300.421875,172076.796875,165522.546875,191170.71875,689059.0625,174250.1875,0.05908203125,0.99267578125,-0.207763671875,-0.1220703050494194,-0.03051757626235485,0.2441406100988388,100.0,255654.0,1.0
15:07:12.575075,176437.53125,179292.015625,194308.734375,172086.796875,165531.9375,191166.796875,688797.375,174260.90625,0.0595703125,0.993896484375,-0.207275390625,-0.1525878757238388,0.0,0.3662109076976776,100.0,255655.0,1.0
15:07:12.577676,176516.109375,179300.703125,194322.140625,172076.171875,165531.03125,191214.625,688929.625,174256.71875,0.060302734375,0.9921875,-0.206298828125,-0.2136230319738388,-0.0915527269244194,0.3356933295726776,100.0,255656.0,1.0
15:07:12.577682,176510.03125,179304.0,194320.796875,172071.96875,165531.390625,191238.234375,689173.0,174253.671875,0.06103515625,0.991455078125,-0.2080078125,-0.2136230319738388,-0.0610351525247097,0.3356933295726776,100.0,255657.0,1.0
15:07:12.577685,176447.890625,179282.28125,194298.359375,172072.5,165521.46875,191177.875,689103.6875,174254.921875,0.0625,0.9931640625,-0.208984375,-0.2746581733226776,-0.0610351525247097,0.4272460639476776,100.0,255658.0,1.0
15:07:12.580150,176419.109375,179279.421875,194291.5625,172073.03125,165517.625,191150.34375,688833.5,174255.109375,0.0615234375,0.991943359375,-0.209228515625,-0.4272460639476776,-0.03051757626235485,0.4577636420726776,100.0,255659.0,1.0
15:07:12.580164,176492.421875,179287.1875,194303.640625,172064.984375,165516.203125,191192.1875,688867.75,174250.984375,0.060791015625,0.991943359375,-0.208984375,-0.5798339247703552,-0.03051757626235485,0.4272460639476776,100.0,255660.0,1.0
15:07:12.580168,176513.4375,179299.984375,194314.546875,172068.65625,165527.28125,191235.1875,689149.0,174254.46875,0.06103515625,0.991943359375,-0.20751953125,-0.6713866591453552,0.0,0.4577636420726776,100.0,255661.0,1.0
15:07:12.582617,176444.59375,179275.484375,194288.609375,172062.84375,165514.3125,191178.6875,689124.9375,174246.875,0.06103515625,0.9892578125,-0.21044921875,-0.7934569716453552,-0.0610351525247097,0.5798339247703552,100.0,255662.0,1.0
15:07:12.582633,176405.34375,179266.0,194279.40625,172065.796875,165511.640625,191136.65625,688871.9375,174246.25,0.06005859375,0.9873046875,-0.2109375,-0.7934569716453552,-0.0915527269244194,0.7019042372703552,100.0,255663.0,1.0
15:07:12.582637,176472.390625,179277.453125,194296.484375,172060.078125,165513.25,191174.125,688810.1875,174244.109375,0.063232421875,0.9853515625,-0.21044921875,-0.9155272841453552,-0.1525878757238388,0.7629393935203552,100.0,255664.0,1.0
15:07:12.584523,176509.953125,179284.78125,194306.3125,172055.515625,165516.375,191217.03125,689095.9375,174241.328125,0.063232421875,0.989013671875,-0.21044921875,-0.8544921278953552,-0.0915527269244194,0.7324218153953552,100.0,255665.0,1.0
15:07:12.587723,176458.8125,179273.6875,194295.953125,172062.484375,165516.28125,191182.4375,689144.875,174247.40625,0.0654296875,0.990478515625,-0.2109375,-0.8850097060203552,-0.03051757626235485,0.7019042372703552,100.0,255666.0,1.0
15:07:12.587740,176413.390625,179262.34375,194285.484375,172068.296875,165513.609375,191130.21875,688928.625,174250.90625,0.064697265625,0.990478515625,-0.208740234375,-1.0070799589157104,0.03051757626235485,0.8239745497703552,100.0,255667.0,1.0
15:07:12.589540,176469.171875,179281.109375,194307.5625,172075.984375,165525.765625,191166.703125,688783.0625,174260.734375,0.066650390625,0.9892578125,-0.20751953125,-1.1291502714157104,0.0610351525247097,0.7934569716453552,100.0,255668.0,1.0
15:07:12.592771,176529.53125,179292.5625,194323.484375,172074.5625,165532.828125,191217.484375,689068.5625,174259.9375,0.0654296875,0.98681640625,-0.211669921875,-1.2512205839157104,0.0610351525247097,0.8544921278953552,100.0,255669.0,1.0
15:07:12.592795,176481.6875,179285.046875,194312.484375,172078.21875,165532.375,191198.703125,689159.9375,174259.65625,0.065185546875,0.98388671875,-0.212158203125,-1.3427733182907104,0.0610351525247097,0.8239745497703552,100.0,255670.0,1.0
15:07:12.594551,176424.203125,179267.609375,194292.640625,172076.703125,165521.46875,191138.890625,688967.4375,174255.453125,0.0625,0.983154296875,-0.211669921875,-1.2817381620407104,0.1831054538488388,0.8850097060203552,100.0,255671.0,1.0
15:07:12.597103,176456.21875,179280.84375,194306.046875,172079.203125,165527.109375,191158.65625,688766.25,174257.96875,0.06103515625,0.98583984375,-0.20947265625,-1.1596678495407104,0.1525878757238388,0.7324218153953552,100.0,255672.0,1.0
15:07:12.607016,176535.421875,179298.375,194325.1875,172077.0625,165533.09375,191218.734375,689037.4375,174257.78125,0.06103515625,0.98828125,-0.21044921875,-1.2512205839157104,0.0915527269244194,0.7629393935203552,100.0,255673.0,1.0
15:07:12.610077,176501.359375,179298.015625,194319.8125,172082.25,165536.140625,191218.28125,689184.9375,174258.5,0.062255859375,0.989501953125,-0.2080078125,-1.4038084745407104,-0.0610351525247097,0.5798339247703552,100.0,255674.0,1.0
15:07:12.610091,176437.4375,179268.859375,194293.984375,172079.296875,165519.234375,191143.546875,689025.125,174252.859375,0.060302734375,0.987548828125,-0.20751953125,-1.4038084745407104,0.0,0.4577636420726776,100.0,255675.0,1.0
15:07:12.615734,176446.375,179277.453125,194298.71875,172079.46875,165518.515625,191147.296875,688781.375,174251.34375,0.06103515625,0.987548828125,-0.209716796875,-1.4953612089157104,-0.0915527269244194,0.3967284858226776,100.0,255676.0,1.0
15:07:12.623843,176540.4375,179305.4375,194328.125,172082.953125,165532.015625,191219.8125,688991.375,174255.90625,0.062255859375,0.986328125,-0.210693359375,-1.6479490995407104,0.03051757626235485,0.3356933295726776,100.0,255677.0,1.0
15:07:12.623857,176524.25,179315.625,194330.90625,172087.34375,165539.53125,191241.984375,689203.5625,174256.71875,0.0625,0.986328125,-0.2109375,-1.5258787870407104,-0.03051757626235485,0.2441406100988388,100.0,255678.0,1.0
15:07:12.626320,176465.59375,179298.109375,194312.671875,172090.375,165530.671875,191184.40625,689090.1875,174257.421875,0.0634765625,0.985595703125,-0.210205078125,-1.5869139432907104,-0.0610351525247097,0.2441406100988388,100.0,255679.0,1.0
15:07:12.626334,176451.46875,179297.75,194310.25,172091.28125,165528.0,191171.703125,688824.9375,174257.15625,0.06298828125,0.984130859375,-0.2109375,-1.4953612089157104,-0.03051757626235485,0.3356933295726776,100.0,255680.0,1.0
15:07:12.635728,176526.125,179300.703125,194319.015625,172080.09375,165521.828125,191214.171875,688942.3125,174250.28125,0.063232421875,0.98583984375,-0.209716796875,-1.5869139432907104,0.03051757626235485,0.3356933295726776,100.0,255681.0,1.0
15:07:12.642708,176514.328125,179296.5,194313.296875,172074.5625,165518.515625,191231.078125,689179.25,174245.796875,0.06591796875,0.98583984375,-0.2099609375,-1.5869139432907104,0.03051757626235485,0.2746581733226776,100.0,255682.0,1.0
15:07:12.642727,176444.234375,179266.09375,194283.78125,172068.125,165499.75,191162.5,689104.25,174239.71875,0.06689453125,0.985595703125,-0.209228515625,-1.5869139432907104,0.0610351525247097,0.3356933295726776,100.0,255683.0,1.0
15:07:12.654507,176414.1875,179259.03125,194274.125,172067.84375,165496.171875,191130.9375,688843.8125,174240.703125,0.065673828125,0.986328125,-0.21044921875,-1.5869139432907104,0.1220703050494194,0.3356933295726776,100.0,255684.0,1.0
15:07:12.657005,176490.8125,179271.375,194291.5625,172064.09375,165502.34375,191177.078125,688878.8125,174242.578125,0.0634765625,0.986083984375,-0.210205078125,-1.5563963651657104,0.1831054538488388,0.3662109076976776,100.0,255685.0,1.0
15:07:12.659594,176506.015625,179275.65625,194298.0,172061.328125,165507.875,191211.671875,689154.1875,174239.8125,0.06298828125,0.988525390625,-0.209716796875,-1.4953612089157104,0.1525878757238388,0.3967284858226776,100.0,255686.0,1.0
15:07:12.661982,176442.796875,179255.359375,194277.34375,172057.84375,165499.46875,191160.171875,689134.0625,174234.890625,0.0615234375,0.98876953125,-0.20556640625,-1.4953612089157104,0.1831054538488388,0.4882812201976776,100.0,255687.0,1.0
15:07:12.664559,176406.765625,179252.5,194270.28125,172061.40625,165498.21875,191124.046875,688878.375,174235.171875,0.058349609375,0.98974609375,-0.207275390625,-1.4953612089157104,0.1831054538488388,0.5187987685203552,100.0,255688.0,1.0
15:07:12.667660,176468.015625,179261.09375,194283.15625,172056.140625,165497.59375,191159.8125,688825.1875,174233.015625,0.060791015625,0.990966796875,-0.2080078125,-1.5258787870407104,0.1220703050494194,0.5493163466453552,100.0,255689.0,1.0
15:07:12.667668,176506.640625,179270.203125,194295.765625,172054.890625,165505.640625,191206.125,689121.6875,174234.890625,0.060302734375,0.98974609375,-0.20703125,-1.5563963651657104,0.03051757626235485,0.5493163466453552,100.0,255690.0,1.0
15:07:12.676986,176446.015625,179253.21875,194277.703125,172052.921875,165499.65625,191168.671875,689160.75,174231.765625,0.060302734375,0.990478515625,-0.207275390625,-1.5563963651657104,0.03051757626235485,0.6713866591453552,100.0,255691.0,1.0
15:07:12.680047,176395.859375,179239.1875,194264.296875,172056.40625,165494.640625,191115.203125,688930.75,174234.09375,0.060546875,0.99169921875,-0.205810546875,-1.6784666776657104,0.0,0.5187987685203552,100.0,255692.0,1.0
15:07:12.680051,176449.59375,179255.640625,194283.421875,172061.40625,165504.65625,191149.359375,688792.3125,174242.40625,0.060791015625,0.98974609375,-0.20947265625,-1.7089842557907104,0.03051757626235485,0.4882812201976776,100.0,255693.0,1.0
15:07:12.687000,176508.875,179268.953125,194298.71875,172057.03125,165510.203125,191202.46875,689079.375,174240.171875,0.06005859375,0.990478515625,-0.208984375,-1.7089842557907104,0.0610351525247097,0.4882812201976776,100.0,255694.0,1.0
15:07:12.695067,176466.140625,179264.390625,194291.5625,172064.453125,165513.515625,191187.078125,689179.5,174245.359375,0.0625,0.9892578125,-0.208984375,-1.7089842557907104,-0.03051757626235485,0.3662109076976776,100.0,255695.0,1.0
15:07:12.695075,176408.109375,179244.1875,194269.125,172063.203125,165501.078125,191120.5625,688980.75,174242.046875,0.061767578125,0.99072265625,-0.206298828125,-1.7089842557907104,0.03051757626235485,0.4272460639476776,100.0,255696.0,1.0
15:07:12.696963,176441.109375,179259.75,194281.640625,172065.796875,165505.28125,191143.640625,688780.75,174244.375,0.062744140625,0.99072265625,-0.2060546875,-1.6479490995407104,0.0610351525247097,0.2441406100988388,100.0,255697.0,1.0
15:07:12.710086,176519.15625,179275.390625,194299.15625,172061.859375,165508.328125,191203.09375,689044.5,174240.171875,0.0634765625,0.9892578125,-0.206787109375,-1.7395018339157104,0.0,0.2746581733226776,100.0,255698.0,1.0
15:07:12.710100,176481.34375,179274.234375,194291.5625,172062.3125,165506.265625,191201.03125,689195.75,174234.984375,0.0634765625,0.988525390625,-0.210205078125,-1.7395018339157104,0.0915527269244194,0.3967284858226776,100.0,255699.0,1.0
15:07:12.715060,176426.171875,179259.203125,194273.421875,172064.0,165497.0625,191140.859375,689034.5625,174232.390625,0.06396484375,0.988525390625,-0.207763671875,-1.7700194120407104,0.0610351525247097,0.2746581733226776,100.0,255700.0,1.0
15:07:12.715066,176437.171875,179268.515625,194281.90625,172069.546875,165502.515625,191148.109375,688791.6875,174237.3125,0.064697265625,0.9892578125,-0.208251953125,-1.8920897245407104,0.03051757626235485,0.3356933295726776,100.0,255701.0,1.0
15:07:12.717035,176522.734375,179288.53125,194306.5,172067.578125,165511.640625,191210.6875,688982.125,174238.828125,0.06298828125,0.9892578125,-0.207763671875,-1.8310545682907104,0.1525878757238388,0.3051757514476776,100.0,255702.0,1.0
15:07:12.724711,176506.734375,179296.9375,194312.484375,172073.21875,165521.296875,191231.078125,689194.6875,174242.671875,0.0615234375,0.989013671875,-0.2060546875,-1.8310545682907104,0.1220703050494194,0.4272460639476776,100.0,255703.0,1.0
15:07:12.731512,176440.484375,179274.328125,194287.984375,172069.640625,165507.796875,191166.703125,689081.6875,174236.59375,0.06640625,0.9873046875,-0.203857421875,-1.8310545682907104,0.1525878757238388,0.3967284858226776,100.0,255704.0,1.0
15:07:12.731522,176428.9375,179273.875,194287.984375,172072.5,165508.6875,191153.296875,688819.375,174238.828125,0.064697265625,0.986083984375,-0.2060546875,-1.8615721464157104,0.1525878757238388,0.3662109076976776,100.0,255705.0,1.0
15:07:12.741376,176511.734375,179284.515625,194304.53125,172066.515625,165511.375,191203.453125,688935.1875,174238.5625,0.0634765625,0.9853515625,-0.206787109375,-1.8615721464157104,0.2441406100988388,0.2441406100988388,100.0,255706.0,1.0
15:07:12.741386,176509.765625,179292.109375,194309.453125,172066.6875,165521.921875,191234.296875,689188.6875,174240.96875,0.06396484375,0.98583984375,-0.2080078125,-1.9226073026657104,0.3662109076976776,0.2136230319738388,100.0,255707.0,1.0
15:07:12.743300,176445.390625,179270.65625,194289.234375,172066.78125,165515.65625,191175.90625,689123.25,174242.859375,0.063720703125,0.98486328125,-0.208251953125,-1.8615721464157104,0.3051757514476776,0.2441406100988388,100.0,255708.0,1.0
15:07:12.748233,176406.5,179255.90625,194274.125,172059.171875,165505.109375,191136.21875,688846.0,174235.515625,0.0625,0.984375,-0.20556640625,-1.8005369901657104,0.4272460639476776,0.1525878757238388,100.0,255709.0,1.0
15:07:12.752699,176480.265625,179264.21875,194287.984375,172051.3125,165504.578125,191177.609375,688865.3125,174232.390625,0.062744140625,0.983642578125,-0.2041015625,-1.7700194120407104,0.3662109076976776,0.1831054538488388,100.0,255710.0,1.0
15:07:12.752767,176500.828125,179273.875,194298.1875,172053.546875,165512.53125,191215.609375,689142.25,174233.734375,0.0634765625,0.985595703125,-0.2060546875,-1.7395018339157104,0.3051757514476776,0.1831054538488388,100.0,255711.0,1.0
15:07:12.762007,176445.65625,179260.8125,194284.140625,172060.25,165509.84375,191170.09375,689126.0625,174238.109375,0.06103515625,0.984130859375,-0.2060546875,-1.7089842557907104,0.3662109076976776,0.1525878757238388,100.0,255712.0,1.0
15:07:12.765095,176405.703125,179248.484375,194274.21875,172061.59375,165504.03125,191125.03125,688866.9375,174238.03125,0.061279296875,0.98486328125,-0.205810546875,-1.6479490995407104,0.3356933295726776,0.0915527269244194,100.0,255713.0,1.0
15:07:12.765101,176470.609375,179257.25,194290.671875,172060.609375,165508.78125,191161.96875,688813.375,174240.703125,0.0595703125,0.988037109375,-0.204833984375,-1.6784666776657104,0.3662109076976776,0.1220703050494194,100.0,255714.0,1.0
15:07:12.770859,176517.8125,179275.84375,194310.078125,172066.328125,165523.890625,191216.5,689116.9375,174248.21875,0.059814453125,0.98779296875,-0.20703125,-1.6479490995407104,0.3967284858226776,0.1525878757238388,100.0,255715.0,1.0
15:07:12.777787,176470.34375,179272.53125,194304.53125,172077.0625,165528.359375,191191.640625,689164.9375,174256.359375,0.05908203125,0.987060546875,-0.203125,-1.5869139432907104,0.3356933295726776,0.1220703050494194,100.0,255716.0,1.0
15:07:12.777810,176416.34375,179253.671875,194286.828125,172075.71875,165515.03125,191133.4375,688938.125,174251.796875,0.05859375,0.988037109375,-0.2060546875,-1.5869139432907104,0.3356933295726776,0.1220703050494194,100.0,255717.0,1.0
15:07:12.783266,176469.4375,179272.171875,194303.90625,172078.578125,165520.125,191167.140625,688796.5625,174255.453125,0.0576171875,0.986083984375,-0.20751953125,-1.5869139432907104,0.2746581733226776,0.0915527269244194,100.0,255718.0,1.0
15:07:12.791320,176523.09375,179279.59375,194311.59375,172069.375,165516.375,191212.125,689080.4375,174247.40625,0.05615234375,0.987548828125,-0.20556640625,-1.5869139432907104,0.3356933295726776,0.1220703050494194,100.0,255719.0,1.0
15:07:12.791348,176469.984375,179268.515625,194294.6875,172065.53125,165506.546875,191189.234375,689169.5,174240.4375,0.05712890625,0.987548828125,-0.20458984375,-1.5563963651657104,0.2441406100988388,0.1831054538488388,100.0,255720.0,1.0
15:07:12.797673,176414.375,179255.1875,194274.84375,172063.828125,165494.375,191131.46875,688978.6875,174234.1875,0.057373046875,0.9892578125,-0.20556640625,-1.5869139432907104,0.1525878757238388,0.2136230319738388,100.0,255721.0,1.0
15:07:12.797681,176437.53125,179258.046875,194277.4375,172058.28125,165488.390625,191140.859375,688772.8125,174227.5625,0.057861328125,0.98828125,-0.205078125,-1.5258787870407104,0.1220703050494194,0.2746581733226776,100.0,255722.0,1.0
15:07:12.804527,176508.34375,179266.453125,194288.796875,172049.796875,165485.703125,191192.265625,689025.75,174220.953125,0.057861328125,0.99072265625,-0.20458984375,-1.4953612089157104,0.0610351525247097,0.3356933295726776,100.0,255723.0,1.0
15:07:12.811337,176470.15625,179261.53125,194280.828125,172050.328125,165482.671875,191188.6875,689181.5625,174218.265625,0.05615234375,0.98974609375,-0.2080078125,-1.4953612089157104,0.03051757626235485,0.3662109076976776,100.0,255724.0,1.0
15:07:12.811347,176410.53125,179240.96875,194258.84375,172052.296875,165468.8125,191121.546875,689031.25,174217.640625,0.05712890625,0.988037109375,-0.205810546875,-1.5869139432907104,-0.03051757626235485,0.3356933295726776,100.0,255725.0,1.0
15:07:12.817623,176419.5625,179250.984375,194266.078125,172057.5625,165473.375,191127.8125,688787.75,174223.984375,0.0576171875,0.98876953125,-0.205810546875,-1.5869139432907104,-0.0915527269244194,0.3967284858226776,100.0,255726.0,1.0
15:07:12.817632,176505.125,179266.8125,194286.109375,172053.28125,165479.53125,191186.8125,688980.6875,174225.59375,0.0595703125,0.9892578125,-0.20556640625,-1.5258787870407104,-0.2136230319738388,0.3967284858226776,100.0,255727.0,1.0
15:07:12.823952,176480.359375,179266.09375,194284.40625,172050.765625,165484.8125,191200.234375,689187.4375,174223.71875,0.059814453125,0.9892578125,-0.2060546875,-1.5563963651657104,-0.1220703050494194,0.3967284858226776,100.0,255728.0,1.0
15:07:12.823965,176418.484375,179246.6875,194267.609375,172054.703125,165482.75,191139.703125,689078.5625,174228.90625,0.0595703125,0.989013671875,-0.2041015625,-1.5563963651657104,-0.1220703050494194,0.5187987685203552,100.0,255729.0,1.0
15:07:12.825963,176406.140625,179249.640625,194268.671875,172056.5,165489.109375,191129.15625,688814.5625,174231.046875,0.0595703125,0.989990234375,-0.204833984375,-1.5563963651657104,-0.1831054538488388,0.5493163466453552,100.0,255730.0,1.0
15:07:12.853278,176490.015625,179264.84375,194288.53125,172052.03125,165498.21875,191185.75,688937.375,174233.46875,0.059326171875,0.98974609375,-0.20751953125,-1.4953612089157104,-0.2136230319738388,0.6103515028953552,100.0,255731.0,1.0
15:07:12.882658,176489.921875,179275.578125,194293.796875,172053.015625,165509.046875,191218.109375,689184.625,174235.25,0.061767578125,0.98974609375,-0.205322265625,-1.5258787870407104,-0.2441406100988388,0.7324218153953552,100.0,255732.0,1.0
15:07:12.882673,176431.53125,179259.203125,194278.0625,172054.171875,165505.734375,191164.5625,689115.125,174235.515625,0.060791015625,0.988525390625,-0.204345703125,-1.5258787870407104,-0.2441406100988388,0.7019042372703552,100.0,255733.0,1.0
15:07:12.890743,176411.59375,179261.171875,194280.296875,172063.203125,165513.15625,191142.109375,688861.6875,174244.015625,0.06005859375,0.9892578125,-0.2060546875,-1.4953612089157104,-0.2136230319738388,0.5493163466453552,100.0,255734.0,1.0
15:07:12.893320,176495.28125,179278.515625,194303.984375,172063.5625,165522.71875,191192.984375,688896.4375,174250.09375,0.060546875,0.988525390625,-0.204833984375,-1.5258787870407104,-0.3051757514476776,0.7019042372703552,100.0,255735.0,1.0
15:07:12.895884,176511.5625,179283.703125,194308.734375,172061.140625,165527.1875,191228.03125,689171.25,174246.875,0.06201171875,0.9892578125,-0.20849609375,-1.5258787870407104,-0.2746581733226776,0.6408690810203552,100.0,255736.0,1.0
15:07:12.898298,176451.921875,179268.515625,194292.90625,172063.375,165522.8125,191180.734375,689151.625,174245.984375,0.0625,0.98779296875,-0.209228515625,-1.5258787870407104,-0.3356933295726776,0.6713866591453552,100.0,255737.0,1.0
15:07:12.900877,176413.65625,179260.90625,194285.9375,172067.40625,165520.578125,191138.1875,688896.625,174247.765625,0.062255859375,0.98828125,-0.210693359375,-1.4648436307907104,-0.2746581733226776,0.6408690810203552,100.0,255738.0,1.0
15:07:12.903265,176482.046875,179275.9375,194305.15625,172069.09375,165527.109375,191178.859375,688847.0,174253.671875,0.0634765625,0.98876953125,-0.210693359375,-1.5258787870407104,-0.2441406100988388,0.6408690810203552,100.0,255739.0,1.0
15:07:12.905771,176524.609375,179288.359375,194318.5625,172070.984375,165533.359375,191228.296875,689138.8125,174256.53125,0.06591796875,0.989013671875,-0.210693359375,-1.4953612089157104,-0.2746581733226776,0.6408690810203552,100.0,255740.0,1.0
15:07:12.908333,176470.25,179275.21875,194304.96875,172075.890625,165527.8125,191193.609375,689178.6875,174257.421875,0.06494140625,0.989013671875,-0.21142578125,-1.4953612089157104,-0.1220703050494194,0.6713866591453552,100.0,255741.0,1.0
15:07:12.910774,176412.21875,179252.953125,194278.15625,172068.125,165505.46875,191130.484375,688943.3125,174243.5625,0.06494140625,0.988037109375,-0.2080078125,-1.5869139432907104,-0.03051757626235485,0.7629393935203552,100.0,255742.0,1.0
15:07:12.913405,176458.0,179261.71875,194285.578125,172063.109375,165499.828125,191154.453125,688804.6875,174238.65625,0.06640625,0.988525390625,-0.208984375,-1.5258787870407104,0.03051757626235485,0.6713866591453552,100.0,255743.0,1.0
15:07:12.915851,176514.0625,179270.46875,194296.484375,172058.015625,165499.828125,191204.609375,689090.875,174235.4375,0.06494140625,0.98828125,-0.206787109375,-1.6174315214157104,0.0915527269244194,0.6103515028953552,100.0,255744.0,1.0
15:07:12.918309,176466.5,179260.640625,194287.546875,172064.71875,165498.9375,191185.296875,689189.5,174238.828125,0.067626953125,0.9892578125,-0.209228515625,-1.6174315214157104,-0.03051757626235485,0.5798339247703552,100.0,255745.0,1.0
15:07:12.920811,176410.34375,179244.09375,194268.9375,172066.6875,165488.65625,191125.125,688985.3125,174237.046875,0.064208984375,0.986083984375,-0.209228515625,-1.5869139432907104,0.0610351525247097,0.7019042372703552,100.0,255746.0,1.0
15:07:12.923482,176436.90625,179254.203125,194277.4375,172064.8125,165489.828125,191140.953125,688780.9375,174235.796875,0.063720703125,0.986572265625,-0.20751953125,-1.5869139432907104,0.1525878757238388,0.5798339247703552,100.0,255747.0,1.0
15:07:12.927621,176503.515625,179259.03125,194285.484375,172051.9375,165486.15625,191188.0625,689025.125,174227.828125,0.0654296875,0.987548828125,-0.205810546875,-1.5869139432907104,0.2136230319738388,0.5493163466453552,100.0,255748.0,1.0
15:07:12.927691,176465.15625,179255.1875,194276.359375,172052.828125,165483.921875,191184.578125,689183.25,174225.859375,0.064697265625,0.9873046875,-0.207275390625,-1.5869139432907104,0.3051757514476776,0.5493163466453552,100.0,255749.0,1.0
15:07:12.927717,176403.546875,179232.484375,194253.296875,172054.34375,165468.453125,191115.109375,689020.875,174225.15625,0.063720703125,0.98779296875,-0.210693359375,-1.5563963651657104,0.3662109076976776,0.7019042372703552,100.0,255750.0,1.0
15:07:12.927792,176411.328125,179240.703125,194260.546875,172056.9375,165469.4375,191118.6875,688781.625,174228.453125,0.063232421875,0.989013671875,-0.20849609375,-1.5258787870407104,0.3662109076976776,0.5187987685203552,100.0,255751.0,1.0
15:07:12.929492,176495.734375,179258.40625,194283.421875,172052.203125,165477.75,191179.84375,688994.4375,174228.546875,0.0634765625,0.98876953125,-0.207763671875,-1.5869139432907104,0.3967284858226776,0.4882812201976776,100.0,255752.0,1.0
15:07:12.932573,176479.546875,179267.34375,194287.984375,172056.40625,165488.296875,191200.765625,689203.1875,174232.390625,0.06298828125,0.98779296875,-0.208251953125,-1.6479490995407104,0.3356933295726776,0.4882812201976776,100.0,255753.0,1.0
15:07:12.932589,176424.5625,179255.90625,194275.203125,172061.40625,165487.234375,191146.859375,689088.5,174238.109375,0.063720703125,0.987060546875,-0.209716796875,-1.6174315214157104,0.4577636420726776,0.5798339247703552,100.0,255754.0,1.0
15:07:12.934493,176411.515625,179256.265625,194274.21875,172062.03125,165487.671875,191134.515625,688824.125,174239.28125,0.062744140625,0.986083984375,-0.20458984375,-1.6174315214157104,0.5187987685203552,0.4882812201976776,100.0,255755.0,1.0
15:07:12.937028,176488.75,179264.9375,194287.71875,172052.46875,165488.5625,191182.703125,688939.6875,174235.703125,0.064208984375,0.9892578125,-0.2060546875,-1.6479490995407104,0.6408690810203552,0.5493163466453552,100.0,255756.0,1.0
15:07:12.947677,176491.53125,179274.765625,194295.140625,172056.40625,165497.953125,191211.765625,689188.875,174238.46875,0.0615234375,0.990234375,-0.206787109375,-1.7089842557907104,0.6408690810203552,0.5187987685203552,100.0,255757.0,1.0
15:07:12.947699,176435.109375,179258.40625,194278.328125,172059.890625,165492.859375,191156.59375,689118.0625,174241.15625,0.0625,0.9892578125,-0.2080078125,-1.7089842557907104,0.6103515028953552,0.5798339247703552,100.0,255758.0,1.0
15:07:12.950171,176403.46875,179250.53125,194270.90625,172059.53125,165490.265625,191124.953125,688848.25,174240.53125,0.06201171875,0.987548828125,-0.208740234375,-1.8615721464157104,0.6103515028953552,0.5187987685203552,100.0,255759.0,1.0
15:07:12.950182,176478.921875,179262.703125,194286.921875,172054.4375,165493.3125,191170.359375,688894.125,174240.890625,0.0595703125,0.9873046875,-0.207275390625,-1.8005369901657104,0.5798339247703552,0.4577636420726776,100.0,255760.0,1.0
15:07:12.952073,176498.140625,179274.046875,194295.046875,172052.734375,165501.796875,191211.671875,689176.9375,174239.359375,0.06005859375,0.988525390625,-0.206298828125,-1.8005369901657104,0.6713866591453552,0.5493163466453552,100.0,255761.0,1.0
15:07:12.958248,176438.328125,179259.921875,194279.21875,172052.375,165497.59375,191168.9375,689157.0625,174235.875,0.0615234375,0.989013671875,-0.20654296875,-1.7700194120407104,0.6713866591453552,0.5493163466453552,100.0,255762.0,1.0
15:07:12.968894,176397.828125,179250.71875,194270.109375,172054.703125,165495.546875,191129.421875,688893.125,174236.78125,0.062744140625,0.98876953125,-0.2060546875,-1.7700194120407104,0.6408690810203552,0.5798339247703552,100.0,255763.0,1.0
15:07:12.968916,176464.265625,179262.421875,194285.21875,172051.3125,165498.5,191168.40625,688837.8125,174236.328125,0.062744140625,0.98974609375,-0.20703125,-1.8310545682907104,0.6408690810203552,0.7019042372703552,100.0,255764.0,1.0
15:07:12.971408,176503.6875,179273.34375,194294.515625,172047.828125,165502.421875,191216.140625,689126.3125,174230.15625,0.06201171875,0.991455078125,-0.20556640625,-1.8005369901657104,0.6103515028953552,0.6103515028953552,100.0,255765.0,1.0
15:07:12.971459,176449.859375,179261.09375,194280.828125,172051.671875,165499.296875,191181.28125,689166.875,174231.765625,0.060791015625,0.9912109375,-0.205322265625,-1.8310545682907104,0.4577636420726776,0.5798339247703552,100.0,255766.0,1.0
15:07:12.979644,176401.5,179247.234375,194266.796875,172055.0625,165492.859375,191127.625,688939.0,174231.59375,0.062744140625,0.989013671875,-0.207275390625,-1.7395018339157104,0.4882812201976776,0.6103515028953552,100.0,255767.0,1.0
15:07:12.990172,176443.609375,179254.390625,194275.296875,172051.484375,165491.96875,191151.953125,688795.0625,174230.421875,0.0634765625,0.987060546875,-0.205810546875,-1.7700194120407104,0.5187987685203552,0.7019042372703552,100.0,255768.0,1.0
15:07:12.990181,176508.96875,179272.265625,194295.953125,172052.375,165502.15625,191210.875,689081.625,174233.734375,0.060302734375,0.987548828125,-0.20703125,-1.7700194120407104,0.4882812201976776,0.7629393935203552,100.0,255769.0,1.0
15:07:12.992677,176468.640625,179268.859375,194292.734375,172059.453125,165507.4375,191195.9375,689184.9375,174238.296875,0.0625,0.987548828125,-0.20556640625,-1.7089842557907104,0.5493163466453552,0.7934569716453552,100.0,255770.0,1.0
15:07:12.992683,176411.859375,179253.046875,194273.5,172058.46875,165495.0,191132.90625,689000.6875,174233.828125,0.0615234375,0.9873046875,-0.20751953125,-1.7700194120407104,0.4882812201976776,0.8239745497703552,100.0,255771.0,1.0
15:07:12.998440,176439.578125,179264.484375,194282.09375,172058.1875,165494.203125,191150.15625,688792.375,174234.0,0.06005859375,0.986328125,-0.209228515625,-1.7700194120407104,0.3967284858226776,0.7324218153953552,100.0,255772.0,1.0
15:07:13.005111,176511.015625,179276.5625,194296.21875,172049.96875,165492.40625,191202.546875,689056.0625,174227.203125,0.06005859375,0.986328125,-0.208251953125,-1.8310545682907104,0.4272460639476776,0.8239745497703552,100.0,255773.0,1.0
15:07:13.005121,176478.921875,179277.546875,194292.90625,172055.328125,165496.53125,191203.984375,689200.25,174230.15625,0.060791015625,0.987060546875,-0.20654296875,-1.8615721464157104,0.3967284858226776,0.7629393935203552,100.0,255774.0,1.0
15:07:13.020153,176425.8125,179263.140625,194276.90625,172063.375,165491.34375,191146.40625,689036.0,174237.578125,0.05908203125,0.98828125,-0.205810546875,-1.8310545682907104,0.4272460639476776,0.7019042372703552,100.0,255775.0,1.0
15:07:13.020179,176427.78125,179264.03125,194277.703125,172060.96875,165489.546875,191143.28125,688790.125,174236.859375,0.0615234375,0.988525390625,-0.2041015625,-1.8310545682907104,0.3967284858226776,0.8239745497703552,100.0,255776.0,1.0
15:07:13.022665,176509.046875,179278.171875,194296.65625,172057.390625,165495.71875,191198.703125,688984.625,174238.5625,0.0625,0.98828125,-0.205322265625,-1.8615721464157104,0.2441406100988388,0.6408690810203552,100.0,255777.0,1.0
