Timestamp,Fz,FC3,FCz,FC4,Cz,C3,C4
18:21:01.791907,128140.859375,141215.828125,155512.625,153356.578125,163132.34375,161103.15625,686009.875,125356.6328125,0.102294921875,1.013671875,-0.06494140625,-1.0375975370407104,-0.4882812201976776,1.7089842557907104,86.66667175292969,197899.0,1.0
18:21:01.791934,128154.09375,141229.0625,155536.046875,153370.34375,163161.578125,161131.859375,685719.25,125370.1328125,0.102294921875,1.0126953125,-0.060791015625,-1.2817381620407104,-0.7019042372703552,1.5258787870407104,86.66667175292969,197900.0,1.0
18:21:01.791940,128139.609375,141206.53125,155522.90625,153369.0,163145.21875,161111.921875,685578.5625,125370.4921875,0.10693359375,1.011474609375,-0.058349609375,-1.4038084745407104,-0.8544921278953552,1.2817381620407104,86.66667175292969,197901.0,1.0
18:21:01.791945,128117.703125,141182.125,155493.40625,153345.046875,163111.78125,161078.484375,685844.375,125347.515625,0.106689453125,1.0087890625,-0.058349609375,-1.5258787870407104,-0.9460448622703552,1.2207030057907104,86.66667175292969,197902.0,1.0
18:21:01.798625,128135.5859375,141208.84375,155507.265625,153353.71875,163125.8125,161094.65625,685980.6875,125352.2578125,0.109375,1.009033203125,-0.062255859375,-1.6784666776657104,-1.0681151151657104,1.1291502714157104,86.66667175292969,197903.0,1.0
18:21:01.805423,128151.140625,141228.25,155532.03125,153368.015625,163155.9375,161126.84375,685788.9375,125368.171875,0.110595703125,1.00830078125,-0.062255859375,-1.8310545682907104,-1.0986326932907104,1.0986326932907104,86.66667175292969,197904.0,1.0
18:21:01.805459,128141.84375,141214.125,155528.09375,153369.28125,163152.0,161120.234375,685543.3125,125371.921875,0.111083984375,1.00830078125,-0.060302734375,-2.014159917831421,-1.2207030057907104,1.0375975370407104,86.66667175292969,197905.0,1.0
18:21:01.815552,128131.6484375,141197.40625,155509.140625,153363.015625,163127.0625,161094.65625,685833.6875,125365.0390625,0.11181640625,1.00732421875,-0.059326171875,-2.136230230331421,-1.2512205839157104,0.9155272841453552,86.66667175292969,197906.0,1.0
18:21:01.815639,128138.1796875,141211.265625,155509.9375,153359.171875,163128.765625,161099.3125,685968.75,125362.359375,0.1123046875,1.007080078125,-0.06103515625,-2.197265386581421,-1.3732908964157104,0.8850097060203552,86.66667175292969,197907.0,1.0
18:21:01.817970,128149.796875,141225.5625,155527.375,153364.359375,163150.671875,161122.46875,685862.625,125365.0390625,0.11083984375,1.007568359375,-0.059326171875,-2.349853277206421,-1.4038084745407104,0.8544921278953552,86.66667175292969,197908.0,1.0
18:21:01.818058,128149.890625,141225.484375,155537.578125,153372.84375,163163.1875,161136.328125,685531.25,125374.875,0.113037109375,1.008544921875,-0.057861328125,-2.471923589706421,-1.4343260526657104,0.8850097060203552,86.66667175292969,197909.0,1.0
18:21:01.829788,128125.4765625,141192.671875,155505.5625,153355.953125,163125.359375,161094.9375,685777.75,125360.9296875,0.113525390625,1.005126953125,-0.0595703125,-2.471923589706421,-1.4038084745407104,0.8544921278953552,86.66667175292969,197910.0,1.0
18:21:01.833083,128140.59375,141214.9375,155515.3125,153361.671875,163132.96875,161106.109375,685944.5,125364.59375,0.114990234375,1.002685546875,-0.060791015625,-2.471923589706421,-1.2512205839157104,0.8239745497703552,86.66667175292969,197911.0,1.0
18:21:01.833096,128159.09375,141236.828125,155534.703125,153371.859375,163156.75,161128.8125,685925.625,125372.90625,0.115966796875,1.00244140625,-0.0576171875,-2.471923589706421,-1.2817381620407104,0.8544921278953552,86.66667175292969,197912.0,1.0
18:21:01.836907,128160.9765625,141238.71875,155548.5625,153382.5,163175.515625,161147.859375,685551.375,125388.1953125,0.116455078125,1.0048828125,-0.060302734375,-2.563476324081421,-1.2512205839157104,0.7324218153953552,86.66667175292969,197913.0,1.0
18:21:01.851708,128136.2109375,141206.53125,155517.546875,153365.78125,163138.328125,161109.328125,685737.0,125371.5703125,0.115234375,1.005615234375,-0.059814453125,-2.502441167831421,-1.2512205839157104,0.6103515028953552,86.66667175292969,197914.0,1.0
18:21:01.851740,128141.9296875,141217.703125,155517.453125,153365.703125,163138.234375,161108.609375,685904.0,125369.9609375,0.114501953125,1.00830078125,-0.058349609375,-2.502441167831421,-1.1901854276657104,0.6103515028953552,86.66667175292969,197915.0,1.0
18:21:01.854788,128159.2734375,141242.296875,155533.90625,153371.515625,163155.84375,161129.265625,685940.75,125372.546875,0.116943359375,1.0068359375,-0.056640625,-2.593993902206421,-1.1291502714157104,0.4882812201976776,86.66667175292969,197916.0,1.0
18:21:01.854815,128164.8203125,141245.328125,155552.328125,153380.890625,163179.0,161151.796875,685563.1875,125383.1875,0.116943359375,1.007568359375,-0.05615234375,-2.716064214706421,-1.1596678495407104,0.4577636420726776,86.66667175292969,197917.0,1.0
18:21:01.854825,128141.75,141213.046875,155525.046875,153369.71875,163143.609375,161115.046875,685637.125,125373.9765625,0.114990234375,1.00634765625,-0.056640625,-2.593993902206421,-1.0070799589157104,0.2441406100988388,86.66667175292969,197918.0,1.0
18:21:01.857317,128137.7265625,141208.140625,155513.515625,153361.859375,163129.03125,161100.5625,685840.875,125363.609375,0.11279296875,1.0048828125,-0.056640625,-2.563476324081421,-0.9765624403953552,0.1220703050494194,86.66667175292969,197919.0,1.0
18:21:01.873601,128151.40625,141226.28125,155524.609375,153366.765625,163141.90625,161112.546875,685921.0625,125368.5234375,0.1123046875,1.00341796875,-0.058349609375,-2.471923589706421,-0.9460448622703552,0.0,86.66667175292969,197920.0,1.0
18:21:01.876731,128165.0,141240.046875,155551.421875,153384.109375,163175.15625,161144.46875,685590.0,125387.8359375,0.112548828125,1.002685546875,-0.056884765625,-2.441406011581421,-0.9155272841453552,-0.0610351525247097,86.66667175292969,197921.0,1.0
18:21:01.876752,128151.3203125,141217.53125,155535.421875,153376.609375,163154.328125,161121.3125,685566.1875,125383.3671875,0.115966796875,1.00048828125,-0.05517578125,-2.502441167831421,-0.8239745497703552,-0.2136230319738388,86.66667175292969,197922.0,1.0
18:21:01.879203,128146.7578125,141214.125,155523.359375,153371.234375,163138.421875,161106.015625,685799.1875,125377.6484375,0.120361328125,1.001220703125,-0.053955078125,-2.532958745956421,-0.7019042372703552,-0.2441406100988388,86.66667175292969,197923.0,1.0
18:21:01.879235,128150.9609375,141227.8125,155522.90625,153364.625,163138.421875,161109.234375,685883.625,125367.3671875,0.119873046875,1.00146484375,-0.06103515625,-2.410888433456421,-0.5798339247703552,-0.3051757514476776,86.66667175292969,197924.0,1.0
18:21:01.891092,128167.0546875,141245.421875,155550.359375,153382.328125,163173.640625,161143.296875,685629.3125,125388.375,0.121337890625,1.001953125,-0.060791015625,-2.319335699081421,-0.5187987685203552,-0.3051757514476776,86.66667175292969,197925.0,1.0
18:21:01.898530,128142.734375,141214.390625,155529.53125,153370.96875,163149.5,161116.5625,685458.625,125375.859375,0.118896484375,1.002197265625,-0.0576171875,-2.227782964706421,-0.2746581733226776,-0.2441406100988388,86.66667175292969,197926.0,1.0
18:21:01.898549,128123.515625,141193.109375,155501.546875,153351.21875,163118.03125,161085.359375,685715.5,125353.234375,0.11865234375,1.00048828125,-0.05810546875,-2.105712652206421,-0.1220703050494194,-0.3051757514476776,86.66667175292969,197927.0,1.0
18:21:01.898553,128141.3046875,141219.9375,155513.609375,153358.71875,163130.90625,161102.625,685822.1875,125357.796875,0.1171875,1.0,-0.05615234375,-1.9226073026657104,0.0,-0.3967284858226776,86.66667175292969,197928.0,1.0
18:21:01.901176,128160.703125,141240.5,155540.96875,153375.53125,163163.546875,161136.5,685681.375,125377.9140625,0.116455078125,0.999267578125,-0.057373046875,-1.7700194120407104,0.1831054538488388,-0.3051757514476776,86.66667175292969,197929.0,1.0
18:21:01.905384,128149.6171875,141223.25,155536.5,153373.5625,163159.0625,161129.984375,685410.375,125376.75,0.115234375,1.00048828125,-0.057861328125,-1.5563963651657104,0.2441406100988388,-0.3051757514476776,86.66667175292969,197930.0,1.0
18:21:01.918009,128127.265625,141195.0,155505.921875,153358.8125,163121.875,161092.15625,685680.5625,125359.671875,0.114990234375,1.000732421875,-0.06005859375,-1.5258787870407104,0.2746581733226776,-0.3967284858226776,86.66667175292969,197931.0,1.0
18:21:01.918035,128140.6796875,141214.65625,155513.96875,153363.1875,163129.03125,161100.03125,685779.5625,125361.28125,0.113525390625,0.9990234375,-0.05712890625,-1.4038084745407104,0.4882812201976776,-0.4272460639476776,86.66667175292969,197932.0,1.0
18:21:01.920384,128152.65625,141232.453125,155529.53125,153369.8125,163149.328125,161123.984375,685720.0625,125367.6328125,0.1123046875,0.997802734375,-0.05810546875,-1.2512205839157104,0.5187987685203552,-0.4272460639476776,86.66667175292969,197933.0,1.0
18:21:01.920407,128153.5546875,141230.21875,155541.328125,153381.34375,163162.015625,161137.671875,685382.125,125381.4921875,0.112060546875,0.995361328125,-0.060302734375,-0.9765624403953552,0.6408690810203552,-0.2441406100988388,86.66667175292969,197934.0,1.0
18:21:01.927373,128134.8671875,141200.359375,155514.6875,153370.796875,163127.953125,161098.234375,685637.0,125370.671875,0.11083984375,0.9951171875,-0.06201171875,-0.7934569716453552,0.7019042372703552,-0.5187987685203552,86.66667175292969,197935.0,1.0
18:21:01.937920,128139.3359375,141209.5625,155512.453125,153367.671875,163124.921875,161094.484375,685730.75,125365.3984375,0.107666015625,0.99365234375,-0.0615234375,-0.5798339247703552,0.7934569716453552,-0.4882812201976776,86.66667175292969,197936.0,1.0
18:21:01.937941,128151.140625,141227.359375,155526.3125,153373.03125,163141.015625,161113.96875,685734.3125,125371.296875,0.1064453125,0.993408203125,-0.0595703125,-0.3356933295726776,0.8239745497703552,-0.4577636420726776,86.66667175292969,197937.0,1.0
18:21:01.939816,128153.109375,141228.25,155539.71875,153380.0,163159.515625,161131.40625,685358.6875,125378.5390625,0.106689453125,0.99658203125,-0.05810546875,-0.2136230319738388,0.9155272841453552,-0.4272460639476776,86.66667175292969,197938.0,1.0
18:21:01.947901,128132.6328125,141198.5625,155513.25,153366.859375,163127.0625,161096.1875,685563.0,125369.421875,0.1064453125,0.998291015625,-0.056884765625,0.0,0.8544921278953552,-0.4882812201976776,86.66667175292969,197939.0,1.0
18:21:01.947918,128136.921875,141206.34375,155510.390625,153362.296875,163123.578125,161094.125,685698.6875,125362.359375,0.10546875,0.997802734375,-0.06103515625,0.1220703050494194,0.8239745497703552,-0.4272460639476776,86.66667175292969,197940.0,1.0
18:21:01.957943,128152.125,141225.296875,155522.734375,153369.0,163137.4375,161110.84375,685751.4375,125365.0390625,0.105224609375,0.996826171875,-0.06005859375,0.2746581733226776,0.8850097060203552,-0.4577636420726776,86.66667175292969,197941.0,1.0
18:21:01.957963,128157.3125,141231.375,155541.6875,153379.828125,163161.578125,161133.828125,685398.0625,125378.0,0.10498046875,0.99951171875,-0.060791015625,0.4577636420726776,0.9155272841453552,-0.3051757514476776,86.66667175292969,197942.0,1.0
18:21:01.960433,128128.0703125,141192.125,155508.609375,153361.234375,163122.0625,161090.1875,685482.4375,125361.1953125,0.104736328125,0.999267578125,-0.0595703125,0.5798339247703552,0.9460448622703552,-0.1525878757238388,86.66667175292969,197943.0,1.0
18:21:01.960453,128117.34375,141183.734375,155490.546875,153344.234375,163102.390625,161071.6875,685662.75,125348.859375,0.104736328125,0.99853515625,-0.059326171875,0.6103515028953552,0.9460448622703552,-0.1220703050494194,86.66667175292969,197944.0,1.0
18:21:01.987328,128129.5,141203.21875,155499.390625,153347.71875,163112.484375,161084.65625,685740.375,125348.0546875,0.102294921875,0.99853515625,-0.057373046875,0.6713866591453552,0.7934569716453552,-0.0610351525247097,86.66667175292969,197945.0,1.0
18:21:01.994135,128145.328125,141222.796875,155527.921875,153365.25,163148.34375,161121.75,685453.8125,125367.1875,0.102783203125,0.99951171875,-0.061279296875,0.7934569716453552,0.7324218153953552,0.1220703050494194,86.66667175292969,197946.0,1.0
18:21:01.994156,128127.1796875,141197.5,155510.65625,153358.09375,163127.515625,161098.234375,685417.4375,125362.8046875,0.103759765625,1.001953125,-0.0634765625,0.9155272841453552,0.6713866591453552,0.1831054538488388,86.66667175292969,197947.0,1.0
18:21:01.997232,128120.1171875,141191.421875,155496.265625,153348.890625,163109.890625,161082.59375,685679.875,125352.703125,0.10498046875,1.002197265625,-0.06591796875,0.8850097060203552,0.6103515028953552,0.3356933295726776,86.66667175292969,197948.0,1.0
18:21:01.997247,128136.390625,141212.78125,155507.171875,153355.5,163121.078125,161094.21875,685745.9375,125355.1171875,0.10205078125,1.00244140625,-0.06591796875,0.8850097060203552,0.5493163466453552,0.4577636420726776,86.66667175292969,197949.0,1.0
18:21:01.997251,128155.875,141233.4375,155536.671875,153375.53125,163157.375,161131.40625,685535.0,125376.390625,0.103759765625,1.00341796875,-0.06201171875,0.8544921278953552,0.4882812201976776,0.4577636420726776,86.66667175292969,197950.0,1.0
18:21:01.999777,128136.390625,141209.65625,155521.65625,153366.328125,163139.484375,161113.703125,685361.125,125370.4921875,0.1015625,1.00537109375,-0.061767578125,0.8239745497703552,0.3356933295726776,0.3967284858226776,86.66667175292969,197951.0,1.0
18:21:02.002288,128117.1640625,141185.6875,155494.921875,153348.265625,163108.640625,161080.984375,685645.3125,125356.453125,0.099365234375,1.007080078125,-0.058837890625,0.7019042372703552,0.2441406100988388,0.5187987685203552,86.66667175292969,197952.0,1.0
18:21:02.004877,128130.0390625,141207.421875,155503.0625,153349.328125,163115.890625,161091.359375,685731.25,125350.9140625,0.09716796875,1.006591796875,-0.063232421875,0.6713866591453552,0.1831054538488388,0.5493163466453552,86.66667175292969,197953.0,1.0
18:21:02.007278,128148.1875,141227.0,155529.25,153366.859375,163147.625,161123.359375,685623.5,125369.0625,0.09912109375,1.008544921875,-0.0595703125,0.5798339247703552,0.03051757626235485,0.5187987685203552,86.66667175292969,197954.0,1.0
18:21:02.009846,128139.7890625,141214.578125,155527.734375,153366.140625,163147.171875,161119.96875,685338.75,125369.328125,0.098388671875,1.011474609375,-0.064697265625,0.3967284858226776,-0.03051757626235485,0.5187987685203552,86.66667175292969,197955.0,1.0
18:21:02.012327,128121.0078125,141190.515625,155500.5625,153351.65625,163112.75,161086.4375,685630.375,125351.5390625,0.09912109375,1.010498046875,-0.067138671875,0.2136230319738388,-0.2136230319738388,0.5493163466453552,86.66667175292969,197956.0,1.0
18:21:02.016644,128133.3515625,141209.65625,155507.265625,153355.234375,163118.203125,161094.65625,685726.5,125351.625,0.099609375,1.01025390625,-0.06396484375,0.2441406100988388,-0.4272460639476776,0.5798339247703552,86.66667175292969,197957.0,1.0
18:21:02.016660,128154.265625,141232.8125,155530.953125,153371.515625,163145.5625,161123.8125,685697.75,125368.5234375,0.10009765625,1.010009765625,-0.06494140625,0.0915527269244194,-0.4272460639476776,0.6103515028953552,86.66667175292969,197958.0,1.0
18:21:02.042355,128150.421875,141226.640625,155537.03125,153375.703125,163154.0625,161130.875,685347.8125,125374.875,0.100830078125,1.0087890625,-0.064208984375,-0.0915527269244194,-0.5493163466453552,0.4577636420726776,86.66667175292969,197959.0,1.0
18:21:02.067893,128120.5625,141189.546875,155500.28125,153350.671875,163110.34375,161086.171875,685612.6875,125350.2890625,0.101806640625,1.009033203125,-0.065185546875,-0.1525878757238388,-0.6713866591453552,0.5187987685203552,86.66667175292969,197960.0,1.0
18:21:02.067914,128123.2421875,141197.234375,155497.421875,153347.09375,163106.40625,161083.046875,685729.5625,125342.8671875,0.101806640625,1.0107421875,-0.065185546875,-0.2746581733226776,-0.6408690810203552,0.4882812201976776,86.66667175292969,197961.0,1.0
18:21:02.083674,128138.3515625,141218.15625,155512.53125,153353.8125,163123.671875,161104.671875,685753.1875,125347.78125,0.1025390625,1.011474609375,-0.064208984375,-0.3662109076976776,-0.7019042372703552,0.6103515028953552,86.66667175292969,197962.0,1.0
18:21:02.086644,128149.3515625,141229.5,155535.421875,153371.515625,163151.203125,161132.296875,685393.125,125368.4375,0.103759765625,1.01025390625,-0.06787109375,-0.4882812201976776,-0.6713866591453552,0.5493163466453552,86.66667175292969,197963.0,1.0
18:21:02.088578,128120.5625,141190.875,155499.9375,153353.1875,163109.53125,161085.90625,685572.625,125353.1484375,0.104248046875,1.0087890625,-0.065185546875,-0.5798339247703552,-0.7324218153953552,0.5187987685203552,86.66667175292969,197964.0,1.0
18:21:02.094804,128117.5234375,141189.625,155490.09375,153341.828125,163097.734375,161073.828125,685730.875,125342.328125,0.105224609375,1.009521484375,-0.06787109375,-0.5493163466453552,-0.7019042372703552,0.6103515028953552,86.66667175292969,197965.0,1.0
18:21:02.100000,128133.8828125,141208.140625,155502.34375,153348.078125,163111.859375,161089.125,685799.9375,125345.28125,0.106689453125,1.010498046875,-0.06982421875,-0.6408690810203552,-0.7324218153953552,0.5798339247703552,86.66667175292969,197966.0,1.0
18:21:02.102316,128145.421875,141220.296875,155526.390625,153365.78125,163142.625,161119.703125,685462.0625,125368.2578125,0.107421875,1.010009765625,-0.06640625,-0.6713866591453552,-0.7629393935203552,0.6408690810203552,86.66667175292969,197967.0,1.0
18:21:02.104775,128119.4921875,141189.1875,155497.78125,153350.140625,163106.953125,161084.921875,685517.1875,125350.6484375,0.10546875,1.0078125,-0.068115234375,-0.7324218153953552,-0.7934569716453552,0.5798339247703552,86.66667175292969,197968.0,1.0
18:21:02.107322,128110.28125,141183.1875,155482.140625,153337.984375,163088.796875,161069.1875,685730.875,125335.984375,0.10400390625,1.00732421875,-0.069580078125,-0.8239745497703552,-0.8544921278953552,0.4882812201976776,86.66667175292969,197969.0,1.0
18:21:02.109794,128119.7578125,141198.921875,155487.6875,153338.15625,163096.125,161076.78125,685827.375,125334.015625,0.104248046875,1.006103515625,-0.070556640625,-0.8850097060203552,-0.7934569716453552,0.6103515028953552,86.66667175292969,197970.0,1.0
18:21:02.112640,128132.546875,141214.390625,155513.25,153352.203125,163129.125,161109.859375,685551.0,125351.625,0.106201171875,1.006591796875,-0.06396484375,-0.7934569716453552,-0.9155272841453552,0.6408690810203552,86.66667175292969,197971.0,1.0
18:21:02.114973,128119.671875,141191.6875,155501.71875,153352.375,163111.953125,161088.046875,685499.6875,125351.984375,0.1064453125,1.0087890625,-0.067138671875,-0.7934569716453552,-0.9155272841453552,0.5187987685203552,86.66667175292969,197972.0,1.0
18:21:02.117358,128104.9140625,141176.578125,155479.71875,153335.75,163084.765625,161062.5625,685757.375,125336.1640625,0.10595703125,1.006103515625,-0.06640625,-0.8544921278953552,-0.9155272841453552,0.4577636420726776,86.66667175292969,197973.0,1.0
18:21:02.119982,128123.421875,141202.234375,155491.609375,153342.09375,163097.375,161079.46875,685865.8125,125340.6328125,0.103759765625,1.009765625,-0.067138671875,-1.0070799589157104,-0.7934569716453552,0.3967284858226776,86.66667175292969,197974.0,1.0
18:21:02.122363,128140.6796875,141220.03125,155519.328125,153357.921875,163131.4375,161112.8125,685660.25,125356.8125,0.10693359375,1.009521484375,-0.06884765625,-1.0681151151657104,-0.7934569716453552,0.3967284858226776,86.66667175292969,197975.0,1.0
18:21:02.124775,128131.2890625,141204.46875,155515.21875,153359.078125,163125.984375,161102.703125,685471.375,125359.9453125,0.107177734375,1.01025390625,-0.067138671875,-1.1596678495407104,-0.7934569716453552,0.3967284858226776,86.66667175292969,197976.0,1.0
18:21:02.128100,128112.875,141182.921875,155489.734375,153346.03125,163096.484375,161070.875,685749.5625,125348.859375,0.10595703125,1.01123046875,-0.065185546875,-1.2817381620407104,-0.7629393935203552,0.3662109076976776,86.66667175292969,197977.0,1.0
18:21:02.128129,128123.15625,141198.296875,155494.5625,153344.15625,163101.484375,161076.328125,685852.9375,125344.4765625,0.105224609375,1.010986328125,-0.06494140625,-1.4343260526657104,-0.7324218153953552,0.3356933295726776,86.66667175292969,197978.0,1.0
18:21:02.130232,128139.7890625,141216.453125,155518.265625,153357.921875,163129.65625,161104.140625,685715.8125,125359.5859375,0.104736328125,1.010498046875,-0.063720703125,-1.3427733182907104,-0.7019042372703552,0.3051757514476776,86.66667175292969,197979.0,1.0
18:21:02.132284,128135.1328125,141207.328125,155521.203125,153365.078125,163133.5,161105.75,685417.25,125371.390625,0.10595703125,1.0087890625,-0.064697265625,-1.6174315214157104,-0.7324218153953552,0.2136230319738388,86.66667175292969,197980.0,1.0
18:21:02.135405,128105.0078125,141170.578125,155483.65625,153339.953125,163090.765625,161060.78125,685691.0,125345.3671875,0.10498046875,1.0087890625,-0.06689453125,-1.7395018339157104,-0.5798339247703552,0.1831054538488388,86.66667175292969,197981.0,1.0
18:21:02.135424,128111.625,141186.671875,155484.90625,153336.734375,163092.640625,161067.03125,685805.9375,125337.5,0.10693359375,1.011474609375,-0.064208984375,-1.8920897245407104,-0.5798339247703552,0.2441406100988388,86.66667175292969,197982.0,1.0
18:21:02.137874,128128.4296875,141207.421875,155505.828125,153347.71875,163116.15625,161093.59375,685765.0625,125347.0703125,0.107177734375,1.012451171875,-0.066162109375,-2.044677495956421,-0.5798339247703552,0.0915527269244194,86.66667175292969,197983.0,1.0
18:21:02.137902,128131.7421875,141207.234375,155519.59375,153359.890625,163132.421875,161107.625,685401.625,125360.3046875,0.107421875,1.01416015625,-0.06396484375,-2.197265386581421,-0.6103515028953552,0.1220703050494194,86.66667175292969,197984.0,1.0
18:21:02.142542,128110.90625,141178.984375,155489.65625,153345.765625,163096.390625,161070.96875,685629.875,125347.515625,0.105712890625,1.01318359375,-0.06640625,-2.410888433456421,-0.5187987685203552,0.1220703050494194,86.66667175292969,197985.0,1.0
18:21:02.145383,128120.828125,141194.71875,155494.03125,153347.546875,163099.703125,161075.890625,685774.5,125347.4296875,0.105712890625,1.012451171875,-0.064453125,-2.563476324081421,-0.4577636420726776,0.1220703050494194,86.66667175292969,197986.0,1.0
18:21:02.145402,128131.109375,141211.0,155506.1875,153352.109375,163113.65625,161091.171875,685799.75,125349.484375,0.10546875,1.0126953125,-0.064208984375,-2.716064214706421,-0.3662109076976776,0.1220703050494194,86.66667175292969,197987.0,1.0
18:21:02.147326,128144.96875,141222.703125,155532.03125,153371.515625,163144.765625,161119.703125,685420.5,125372.7265625,0.105224609375,1.01220703125,-0.06396484375,-2.899169683456421,-0.3356933295726776,0.1220703050494194,86.66667175292969,197988.0,1.0
18:21:02.150381,128117.4375,141184.71875,155499.21875,153352.46875,163104.171875,161075.4375,685560.75,125352.7890625,0.10546875,1.011962890625,-0.0625,-3.021239995956421,-0.3356933295726776,0.2136230319738388,86.66667175292969,197989.0,1.0
18:21:02.150399,128120.828125,141192.3125,155496.09375,153345.765625,163098.984375,161073.03125,685746.5625,125343.8515625,0.10693359375,1.011962890625,-0.064208984375,-3.082275152206421,-0.3356933295726776,0.2136230319738388,86.66667175292969,197990.0,1.0
18:21:02.152258,128136.390625,141214.03125,155509.671875,153349.78125,163116.0625,161091.625,685820.9375,125346.265625,0.10595703125,1.0068359375,-0.063232421875,-3.204345464706421,-0.1831054538488388,0.1525878757238388,86.66667175292969,197991.0,1.0
18:21:02.156163,128151.8515625,141230.671875,155539.453125,153372.21875,163153.890625,161128.640625,685477.25,125373.4453125,0.10693359375,1.004638671875,-0.062744140625,-3.204345464706421,-0.1831054538488388,0.2441406100988388,86.66667175292969,197992.0,1.0
18:21:02.162872,128128.1640625,141198.921875,155513.34375,153356.578125,163123.390625,161094.484375,685511.3125,125364.6796875,0.106201171875,1.005126953125,-0.064697265625,-3.234863042831421,-0.1220703050494194,0.3051757514476776,86.66667175292969,197993.0,1.0
18:21:02.162897,128118.0625,141190.875,155494.65625,153339.5,163102.5625,161075.265625,685735.125,125342.2421875,0.10546875,1.004638671875,-0.06640625,-3.265380620956421,0.0915527269244194,0.3662109076976776,86.66667175292969,197994.0,1.0
18:21:02.165408,128133.9765625,141215.109375,155505.65625,153347.71875,163113.734375,161091.265625,685829.25,125347.6015625,0.107177734375,1.004150390625,-0.061767578125,-3.265380620956421,0.0915527269244194,0.4272460639476776,86.66667175292969,197995.0,1.0
18:21:02.165432,128152.3046875,141235.5,155535.6875,153365.078125,163148.515625,161127.828125,685553.4375,125363.7890625,0.10791015625,1.003662109375,-0.064453125,-3.173827886581421,0.0915527269244194,0.5187987685203552,86.66667175292969,197996.0,1.0
18:21:02.178580,128134.6875,141208.84375,155516.828125,153358.28125,163124.734375,161101.1875,685456.6875,125355.921875,0.107177734375,1.004150390625,-0.064208984375,-3.234863042831421,0.2441406100988388,0.6103515028953552,86.66667175292969,197997.0,1.0
18:21:02.181666,128122.171875,141195.34375,155496.4375,153343.875,163099.609375,161077.859375,685722.75,125340.5390625,0.1064453125,1.00146484375,-0.063232421875,-3.204345464706421,0.2441406100988388,0.7019042372703552,86.66667175292969,197998.0,1.0
18:21:02.181678,128130.3984375,141209.484375,155499.21875,153342.0,163101.84375,161081.25,685831.0625,125336.609375,0.105224609375,0.999755859375,-0.0634765625,-3.112792730331421,0.3051757514476776,0.6103515028953552,86.66667175292969,197999.0,1.0
18:21:02.183693,128139.0703125,141218.328125,155516.203125,153347.1875,163124.828125,161104.671875,685631.5625,125344.8359375,0.104248046875,1.00146484375,-0.063232421875,-3.082275152206421,0.3356933295726776,0.6713866591453552,86.66667175292969,198000.0,1.0
18:21:02.199162,128131.2890625,141203.390625,155513.4375,153351.484375,163120.09375,161098.234375,685417.8125,125350.5546875,0.10595703125,1.002685546875,-0.06396484375,-3.112792730331421,0.3967284858226776,0.7934569716453552,86.66667175292969,198001.0,1.0
18:21:02.199190,128116.0,141181.046875,155490.359375,153339.859375,163091.828125,161065.96875,685715.875,125340.3671875,0.1064453125,1.0048828125,-0.0615234375,-3.051757574081421,0.5187987685203552,0.7019042372703552,86.66667175292969,198002.0,1.0
18:21:02.201686,128138.265625,141210.109375,155506.8125,153350.859375,163108.015625,161081.703125,685854.25,125347.6015625,0.105224609375,1.004638671875,-0.063720703125,-3.143310308456421,0.4882812201976776,0.7934569716453552,86.66667175292969,198003.0,1.0
18:21:02.201710,128150.421875,141225.921875,155525.953125,153359.625,163132.96875,161107.890625,685747.4375,125358.78125,0.1044921875,1.005126953125,-0.063232421875,-3.204345464706421,0.5493163466453552,0.7934569716453552,86.66667175292969,198004.0,1.0
18:21:02.203587,128143.09375,141214.65625,155528.1875,153361.40625,163136.984375,161108.96875,685433.0625,125362.4453125,0.104736328125,1.003662109375,-0.0615234375,-3.265380620956421,0.4882812201976776,0.7934569716453552,86.66667175292969,198005.0,1.0
18:21:02.213580,128113.9453125,141183.28125,155491.609375,153335.75,163095.046875,161068.375,685696.0,125337.59375,0.106201171875,1.004638671875,-0.060791015625,-3.204345464706421,0.5493163466453552,0.7324218153953552,86.66667175292969,198006.0,1.0
18:21:02.217872,128114.9296875,141193.109375,155487.953125,153330.109375,163093.4375,161069.1875,685834.625,125333.03125,0.107666015625,1.004638671875,-0.057373046875,-3.204345464706421,0.5493163466453552,0.7629393935203552,86.66667175292969,198007.0,1.0
18:21:02.217900,128134.8671875,141215.5625,155510.484375,153346.03125,163118.75,161094.75,685809.9375,125347.0703125,0.105712890625,1.005615234375,-0.0576171875,-3.082275152206421,0.5798339247703552,0.8544921278953552,86.66667175292969,198008.0,1.0
18:21:02.219940,128144.2578125,141223.0625,155531.765625,153363.8125,163140.734375,161116.203125,685447.9375,125364.953125,0.1064453125,1.00439453125,-0.05517578125,-3.051757574081421,0.5798339247703552,0.8239745497703552,86.66667175292969,198009.0,1.0
18:21:02.227930,128120.828125,141191.421875,155499.75,153345.578125,163100.59375,161077.3125,685660.1875,125346.0859375,0.108154296875,1.003662109375,-0.054443359375,-3.051757574081421,0.7629393935203552,0.7934569716453552,86.66667175292969,198010.0,1.0
18:21:02.238052,128116.09375,141190.703125,155487.5,153334.21875,163087.546875,161065.25,685812.4375,125330.4375,0.1083984375,1.003173828125,-0.054443359375,-3.021239995956421,0.7324218153953552,0.8850097060203552,86.66667175292969,198011.0,1.0
18:21:02.238083,128130.484375,141208.84375,155502.171875,153344.6875,163106.140625,161083.390625,685849.75,125341.703125,0.10791015625,1.0029296875,-0.057373046875,-2.960204839706421,0.8239745497703552,0.9765624403953552,86.66667175292969,198012.0,1.0
18:21:02.241330,128144.5234375,141223.15625,155530.15625,153364.171875,163139.84375,161116.75,685482.375,125363.609375,0.109130859375,1.001708984375,-0.0595703125,-2.777099370956421,0.8850097060203552,1.0070799589157104,86.66667175292969,198013.0,1.0
18:21:02.241383,128123.2421875,141192.046875,155504.3125,153351.84375,163107.75,161080.171875,685606.1875,125353.234375,0.109619140625,1.00439453125,-0.060302734375,-2.746581792831421,0.9155272841453552,1.0070799589157104,86.66667175292969,198014.0,1.0
18:21:02.254817,128114.484375,141186.953125,155488.046875,153332.890625,163090.859375,161065.25,685812.6875,125334.5546875,0.109130859375,1.003662109375,-0.0595703125,-2.655029058456421,0.8850097060203552,1.0681151151657104,86.66667175292969,198015.0,1.0
18:21:02.254912,128136.390625,141214.65625,155507.4375,153348.625,163111.78125,161089.5625,685906.0625,125347.25,0.109375,1.003173828125,-0.059326171875,-2.532958745956421,0.9155272841453552,1.1901854276657104,86.66667175292969,198016.0,1.0
18:21:02.254921,128146.671875,141226.203125,155531.84375,153362.75,163144.765625,161120.40625,685564.625,125365.9375,0.109130859375,1.001708984375,-0.059326171875,-2.502441167831421,0.8544921278953552,1.2512205839157104,86.66667175292969,198017.0,1.0
18:21:02.257308,128123.8671875,141194.28125,155507.625,153352.28125,163116.15625,161087.0625,685571.5,125358.421875,0.109375,0.99951171875,-0.057861328125,-2.258300542831421,1.0070799589157104,1.2512205839157104,86.66667175292969,198018.0,1.0
18:21:02.261290,128112.3359375,141184.265625,155488.484375,153337.265625,163094.421875,161067.65625,685802.8125,125340.71875,0.108154296875,1.00048828125,-0.05615234375,-2.136230230331421,0.9765624403953552,1.2512205839157104,86.66667175292969,198019.0,1.0
18:21:02.268579,128122.9765625,141199.90625,155495.28125,153337.796875,163102.75,161075.4375,685898.0,125340.3671875,0.107666015625,1.00244140625,-0.05712890625,-2.044677495956421,0.9155272841453552,1.2207030057907104,86.66667175292969,198020.0,1.0
18:21:02.272880,128136.8359375,141215.828125,155521.484375,153349.515625,163135.828125,161109.234375,685617.8125,125352.8828125,0.107177734375,1.00341796875,-0.056396484375,-2.044677495956421,0.9460448622703552,1.1291502714157104,86.66667175292969,198021.0,1.0
18:21:02.272904,128127.71875,141199.90625,155516.296875,153353.453125,163127.15625,161096.625,685483.4375,125358.421875,0.105712890625,1.0029296875,-0.056396484375,-2.075195074081421,0.9155272841453552,1.0070799589157104,86.66667175292969,198022.0,1.0
18:21:02.279973,128112.6953125,141181.9375,155493.765625,153338.703125,163099.34375,161068.109375,685732.625,125344.4765625,0.10498046875,0.99951171875,-0.0546875,-2.075195074081421,0.9155272841453552,0.9460448622703552,86.66667175292969,198023.0,1.0
18:21:02.290761,128131.7421875,141207.421875,155504.765625,153346.46875,163110.515625,161083.75,685847.125,125351.984375,0.10546875,1.000244140625,-0.05859375,-2.044677495956421,0.7629393935203552,0.8850097060203552,86.66667175292969,198024.0,1.0
18:21:02.290790,128142.2890625,141223.0625,155525.328125,153355.859375,163138.15625,161116.125,685654.8125,125358.6953125,0.10595703125,1.000732421875,-0.058837890625,-1.9836424589157104,0.7629393935203552,0.7324218153953552,86.66667175292969,198025.0,1.0
18:21:02.292900,128121.1875,141196.15625,155512.1875,153347.8125,163124.921875,161095.203125,685408.5625,125356.9921875,0.108642578125,1.0009765625,-0.059326171875,-2.075195074081421,0.7934569716453552,0.7934569716453552,86.66667175292969,198026.0,1.0
18:21:02.292914,128091.328125,141162.359375,155472.390625,153319.390625,163079.3125,161050.5,685691.5625,125327.578125,0.111572265625,1.0029296875,-0.056884765625,-2.014159917831421,0.7019042372703552,0.7934569716453552,86.66667175292969,198027.0,1.0
18:21:02.299815,128107.78125,141188.015625,155483.75,153324.296875,163090.5,161065.421875,685798.125,125328.3828125,0.11572265625,1.005126953125,-0.059814453125,-1.8920897245407104,0.7934569716453552,0.8544921278953552,86.66667175292969,198028.0,1.0
18:21:02.310427,128131.828125,141215.640625,155513.078125,153343.703125,163126.078125,161101.640625,685719.125,125347.15625,0.11669921875,1.00439453125,-0.058837890625,-1.9226073026657104,0.8544921278953552,0.8850097060203552,86.66667175292969,198029.0,1.0
18:21:02.310456,128116.984375,141197.578125,155507.078125,153340.390625,163120.625,161096.09375,685380.625,125344.2109375,0.1171875,1.00439453125,-0.05908203125,-1.8920897245407104,0.9460448622703552,1.1291502714157104,86.66667175292969,198030.0,1.0
18:21:02.312846,128090.5234375,141163.078125,155473.015625,153318.40625,163080.21875,161053.53125,685645.5,125324.09375,0.11767578125,1.001953125,-0.05908203125,-1.7395018339157104,1.0681151151657104,1.2817381620407104,86.66667175292969,198031.0,1.0
18:21:02.312858,128105.0078125,141184.0,155483.484375,153324.75,163090.859375,161063.8125,685764.3125,125327.9375,0.116455078125,1.000244140625,-0.05810546875,-1.6784666776657104,1.1901854276657104,1.3122557401657104,86.66667175292969,198032.0,1.0
18:21:02.318609,128124.5859375,141207.78125,155506.375,153339.046875,163115.53125,161090.640625,685754.6875,125340.3671875,0.1142578125,1.00048828125,-0.060302734375,-1.5258787870407104,1.0986326932907104,1.3122557401657104,86.66667175292969,198033.0,1.0
18:21:02.327887,128128.609375,141210.546875,155522.109375,153350.671875,163135.734375,161109.6875,685379.25,125354.7578125,0.112548828125,1.001708984375,-0.0595703125,-1.5258787870407104,1.0986326932907104,1.1596678495407104,86.66667175292969,198034.0,1.0
18:21:02.327907,128100.1796875,141173.265625,155487.0625,153330.65625,163094.078125,161065.34375,685596.8125,125336.609375,0.109619140625,1.00341796875,-0.05810546875,-1.5563963651657104,1.0070799589157104,1.0681151151657104,86.66667175292969,198035.0,1.0
18:21:02.337973,128107.78125,141188.015625,155489.375,153331.90625,163093.890625,161068.734375,685730.4375,125336.515625,0.10888671875,1.005126953125,-0.0576171875,-1.4343260526657104,1.0986326932907104,0.9460448622703552,86.66667175292969,198036.0,1.0
18:21:02.337987,128120.1171875,141203.671875,155500.734375,153337.53125,163107.921875,161081.515625,685763.625,125343.046875,0.1083984375,1.006103515625,-0.056884765625,-1.3427733182907104,1.0986326932907104,0.7324218153953552,86.66667175292969,198037.0,1.0
18:21:02.340383,128128.0703125,141209.921875,155520.578125,153351.03125,163134.03125,161106.640625,685396.3125,125359.40625,0.107421875,1.005126953125,-0.05419921875,-1.2817381620407104,1.0375975370407104,0.4882812201976776,86.66667175292969,198038.0,1.0
18:21:02.340393,128102.3203125,141175.5,155489.828125,153334.671875,163096.84375,161067.578125,685515.4375,125341.9765625,0.1083984375,1.0078125,-0.0537109375,-1.3122557401657104,1.0070799589157104,0.2136230319738388,86.66667175292969,198039.0,1.0
18:21:02.349862,128100.984375,141175.6875,155481.78125,153328.421875,163086.5625,161057.375,685693.875,125336.4296875,0.10888671875,1.00732421875,-0.056396484375,-1.4343260526657104,0.9460448622703552,-0.03051757626235485,86.66667175292969,198040.0,1.0
18:21:02.354155,128117.7890625,141201.078125,155495.546875,153331.71875,163101.578125,161077.234375,685769.6875,125335.984375,0.109130859375,1.005859375,-0.0537109375,-1.4343260526657104,0.8850097060203552,-0.2136230319738388,86.66667175292969,198041.0,1.0
18:21:02.354172,128127.359375,141212.875,155517.90625,153344.953125,163130.734375,161107.265625,685448.3125,125351.1796875,0.10986328125,1.006103515625,-0.053466796875,-1.3427733182907104,0.9155272841453552,-0.1831054538488388,86.66667175292969,198042.0,1.0
18:21:02.359896,128111.8046875,141187.21875,155500.015625,153341.5625,163106.140625,161080.71875,685453.375,125346.7109375,0.108642578125,1.008544921875,-0.0537109375,-1.3122557401657104,0.8544921278953552,-0.2746581733226776,86.66667175292969,198043.0,1.0
18:21:02.370565,128094.8125,141169.953125,155475.078125,153322.515625,163077.796875,161053.71875,685679.875,125329.7265625,0.10986328125,1.00830078125,-0.0517578125,-1.3732908964157104,0.8239745497703552,-0.4272460639476776,86.66667175292969,198044.0,1.0
18:21:02.370589,128101.609375,141184.4375,155477.125,153318.9375,163080.125,161057.640625,685756.625,125323.8203125,0.109375,1.009765625,-0.05126953125,-1.4343260526657104,0.7629393935203552,-0.5187987685203552,86.66667175292969,198045.0,1.0
18:21:02.372963,128120.0234375,141204.109375,155505.828125,153339.765625,163115.4375,161094.484375,685527.5,125347.15625,0.109619140625,1.010986328125,-0.052734375,-1.5563963651657104,0.7019042372703552,-0.4272460639476776,86.66667175292969,198046.0,1.0
18:21:02.372989,128107.0625,141184.984375,155494.03125,153338.421875,163101.046875,161077.3125,685388.0,125346.7109375,0.10791015625,1.010498046875,-0.050537109375,-1.6479490995407104,0.7629393935203552,-0.3662109076976776,86.66667175292969,198047.0,1.0
18:21:02.382346,128087.5703125,141162.890625,155467.03125,153317.5,163069.75,161045.578125,685653.1875,125325.25,0.1064453125,1.010986328125,-0.0537109375,-1.7700194120407104,0.7934569716453552,-0.4272460639476776,86.66667175292969,198048.0,1.0
18:21:02.434837,128103.0390625,141185.78125,155475.96875,153320.546875,163077.4375,161057.296875,685740.1875,125324.09375,0.10302734375,1.01171875,-0.0537109375,-1.8310545682907104,0.7629393935203552,-0.3662109076976776,86.66667175292969,198049.0,1.0
18:21:02.434855,128120.6484375,141206.078125,155501.1875,153335.125,163108.375,161090.015625,685590.4375,125340.8125,0.104248046875,1.010986328125,-0.052490234375,-2.075195074081421,0.6713866591453552,-0.3356933295726776,86.66667175292969,198050.0,1.0
18:21:02.434859,128118.953125,141197.046875,155504.671875,153345.84375,163112.21875,161090.453125,685340.125,125355.296875,0.10205078125,1.0107421875,-0.050537109375,-2.166747808456421,0.6408690810203552,-0.2136230319738388,86.66667175292969,198051.0,1.0
18:21:02.437901,128089.1796875,141160.484375,155466.21875,153318.484375,163069.03125,161043.96875,685641.9375,125328.921875,0.1005859375,1.00830078125,-0.05078125,-2.166747808456421,0.6713866591453552,-0.2441406100988388,86.66667175292969,198052.0,1.0
18:21:02.437916,128094.1015625,141175.0625,155466.9375,153314.015625,163069.21875,161046.5625,685725.4375,125318.4609375,0.099609375,1.0087890625,-0.050537109375,-2.288818120956421,0.5798339247703552,-0.2136230319738388,86.66667175292969,198053.0,1.0
18:21:02.439807,128108.046875,141189.890625,155485.53125,153324.921875,163094.515625,161069.359375,685663.375,125329.9921875,0.101318359375,1.00537109375,-0.052490234375,-2.349853277206421,0.3967284858226776,-0.0915527269244194,86.66667175292969,198054.0,1.0
18:21:02.443502,128104.2890625,141182.5625,155492.0625,153331.453125,163101.671875,161076.328125,685319.1875,125334.8203125,0.1015625,1.00439453125,-0.052490234375,-2.380370855331421,0.3967284858226776,-0.1220703050494194,86.66667175292969,198055.0,1.0
18:21:02.443536,128078.1875,141149.65625,155459.25,153310.796875,163061.890625,161033.953125,685596.875,125316.9375,0.099853515625,1.00439453125,-0.052001953125,-2.410888433456421,0.3051757514476776,-0.0915527269244194,86.66667175292969,198056.0,1.0
18:21:02.443543,128089.2734375,141167.71875,155464.609375,153311.515625,163067.0625,161041.28125,685709.0,125315.421875,0.098388671875,1.004638671875,-0.052490234375,-2.380370855331421,0.1525878757238388,-0.1220703050494194,86.66667175292969,198057.0,1.0
18:21:02.447250,128119.671875,141205.0,155497.15625,153333.59375,163102.65625,161080.984375,685726.25,125336.6953125,0.099609375,1.003173828125,-0.05126953125,-2.349853277206421,0.0610351525247097,-0.1220703050494194,86.66667175292969,198058.0,1.0
18:21:02.447269,128126.375,141209.65625,155516.734375,153346.75,163127.15625,161104.140625,685347.8125,125353.1484375,0.10009765625,1.002685546875,-0.05322265625,-2.288818120956421,-0.0610351525247097,-0.03051757626235485,86.66667175292969,198059.0,1.0
18:21:02.447273,128112.0703125,141186.046875,155495.640625,153342.71875,163100.0625,161073.46875,685562.0,125349.2109375,0.098876953125,1.001953125,-0.05126953125,-2.319335699081421,0.0,-0.0610351525247097,86.66667175292969,198060.0,1.0
18:21:02.449786,128103.84375,141182.5625,155482.59375,153325.734375,163084.859375,161059.796875,685708.0,125329.90625,0.10009765625,1.0029296875,-0.0517578125,-2.380370855331421,-0.0915527269244194,-0.0915527269244194,86.66667175292969,198061.0,1.0
18:21:02.452307,128106.9765625,141189.265625,155485.984375,153323.234375,163091.484375,161064.4375,685751.8125,125327.3984375,0.097900390625,1.00244140625,-0.051025390625,-2.227782964706421,-0.1831054538488388,0.0,86.66667175292969,198062.0,1.0
18:21:02.454845,128119.578125,141202.59375,155511.640625,153342.890625,163123.578125,161095.109375,685390.25,125348.5,0.099365234375,1.00244140625,-0.0498046875,-2.258300542831421,-0.2746581733226776,-0.03051757626235485,86.66667175292969,198063.0,1.0
18:21:02.457356,128105.2734375,141177.5625,155492.25,153340.578125,163097.734375,161066.046875,685500.6875,125347.515625,0.1005859375,1.00048828125,-0.05029296875,-2.136230230331421,-0.3662109076976776,0.1831054538488388,86.66667175292969,198064.0,1.0
18:21:02.459862,128099.5546875,141173.984375,155479.8125,153326.984375,163083.34375,161053.09375,685702.8125,125333.296875,0.102294921875,0.99951171875,-0.05029296875,-2.044677495956421,-0.4882812201976776,0.1831054538488388,86.66667175292969,198065.0,1.0
18:21:02.464838,128112.15625,141193.109375,155490.0,153332.171875,163094.96875,161067.484375,685786.0625,125335.265625,0.103271484375,1.0009765625,-0.05078125,-2.014159917831421,-0.4577636420726776,0.2746581733226776,86.66667175292969,198066.0,1.0
18:21:02.467373,128124.5,141205.453125,155514.421875,153346.75,163125.8125,161099.21875,685477.0625,125349.2109375,0.10595703125,1.0009765625,-0.0498046875,-1.8310545682907104,-0.4577636420726776,0.3051757514476776,86.66667175292969,198067.0,1.0
18:21:02.470613,128112.3359375,141184.4375,155500.28125,153345.140625,163105.96875,161076.328125,685451.9375,125346.625,0.105224609375,1.00048828125,-0.05078125,-1.8005369901657104,-0.4882812201976776,0.2746581733226776,86.66667175292969,198068.0,1.0
18:21:02.472352,128107.8671875,141180.421875,155486.875,153336.46875,163088.796875,161060.0625,685706.6875,125336.1640625,0.106689453125,0.99951171875,-0.053955078125,-1.7395018339157104,-0.5187987685203552,0.4272460639476776,86.66667175292969,198069.0,1.0
18:21:02.475636,128121.0078125,141202.328125,155495.28125,153339.140625,163096.3125,161071.859375,685804.5,125338.0390625,0.108642578125,0.9990234375,-0.054931640625,-1.6479490995407104,-0.3356933295726776,0.5798339247703552,86.66667175292969,198070.0,1.0
18:21:02.475657,128135.5859375,141218.59375,155520.40625,153352.46875,163127.15625,161105.84375,685572.1875,125352.5234375,0.10888671875,1.0,-0.0517578125,-1.4343260526657104,-0.3356933295726776,0.7019042372703552,86.66667175292969,198071.0,1.0
18:21:02.477288,128122.0859375,141197.40625,155509.59375,153349.609375,163113.109375,161088.5,685401.25,125350.1953125,0.10888671875,1.002685546875,-0.050048828125,-1.3427733182907104,-0.2136230319738388,0.8850097060203552,86.66667175292969,198072.0,1.0
18:21:02.480393,128104.9140625,141177.46875,155484.015625,153333.6875,163083.609375,161059.171875,685684.125,125337.0546875,0.107666015625,1.001708984375,-0.052978515625,-1.2512205839157104,-0.1831054538488388,0.8544921278953552,86.66667175292969,198073.0,1.0
18:21:02.480405,128114.9296875,141197.40625,155489.203125,153332.96875,163088.796875,161066.953125,685796.0625,125332.2265625,0.108154296875,1.002197265625,-0.0556640625,-1.1596678495407104,0.0,0.9155272841453552,86.66667175292969,198074.0,1.0
18:21:02.490117,128133.9765625,141219.3125,155516.375,153348.796875,163122.40625,161101.453125,685660.0,125348.859375,0.1083984375,1.000244140625,-0.052490234375,-1.0681151151657104,0.1220703050494194,0.9155272841453552,86.66667175292969,198075.0,1.0
18:21:02.494130,128117.5234375,141197.859375,155506.015625,153341.828125,163110.96875,161089.03125,685381.3125,125345.8203125,0.109375,1.0009765625,-0.0537109375,-1.0375975370407104,0.2136230319738388,0.9765624403953552,86.66667175292969,198076.0,1.0
18:21:02.494144,128101.25,141176.03125,155479.375,153329.484375,163077.890625,161057.109375,685683.6875,125334.015625,0.1103515625,1.002685546875,-0.055419921875,-0.9765624403953552,0.2441406100988388,1.0986326932907104,86.66667175292969,198077.0,1.0
18:21:02.497951,128110.28125,141193.390625,155482.9375,153328.765625,163081.109375,161063.28125,685806.375,125329.1875,0.1083984375,1.002685546875,-0.0546875,-0.8850097060203552,0.3662109076976776,0.9155272841453552,86.66667175292969,198078.0,1.0
18:21:02.497978,128125.8359375,141212.609375,155504.046875,153339.59375,163106.765625,161088.84375,685745.375,125346.625,0.1064453125,1.002685546875,-0.054443359375,-0.8239745497703552,0.4272460639476776,0.8850097060203552,86.66667175292969,198079.0,1.0
18:21:02.503551,128127.71875,141208.578125,155515.484375,153353.265625,163120.53125,161098.0625,685390.4375,125355.203125,0.107421875,1.005859375,-0.0537109375,-0.8239745497703552,0.4577636420726776,0.8239745497703552,86.66667175292969,198080.0,1.0
18:21:02.509887,128103.3984375,141176.21875,155482.765625,153333.25,163081.28125,161059.171875,685628.4375,125333.4765625,0.10693359375,1.00634765625,-0.055419921875,-0.6713866591453552,0.5493163466453552,0.7934569716453552,86.66667175292969,198081.0,1.0
18:21:02.516774,128118.0625,141196.6875,155491.96875,153338.875,163088.4375,161068.015625,685774.625,125335.359375,0.1083984375,1.0048828125,-0.05615234375,-0.6713866591453552,0.8239745497703552,0.8544921278953552,86.66667175292969,198082.0,1.0
18:21:02.516787,128135.5859375,141220.109375,155511.015625,153349.421875,163110.25,161092.96875,685779.8125,125345.8203125,0.108642578125,1.004150390625,-0.0546875,-0.6103515028953552,0.7934569716453552,0.6408690810203552,86.66667175292969,198083.0,1.0
18:21:02.523658,128136.1171875,141219.484375,155524.421875,153358.28125,163128.9375,161109.765625,685386.6875,125357.7109375,0.108642578125,1.001953125,-0.05615234375,-0.4882812201976776,0.7324218153953552,0.6408690810203552,86.66667175292969,198084.0,1.0
18:21:02.531646,128106.703125,141181.84375,155489.03125,153335.296875,163087.640625,161066.59375,685566.9375,125339.109375,0.10986328125,1.00341796875,-0.059326171875,-0.4882812201976776,0.9155272841453552,0.6713866591453552,86.66667175292969,198085.0,1.0
18:21:02.531663,128096.6015625,141174.515625,155471.859375,153316.515625,163068.59375,161047.1875,685729.625,125317.3828125,0.109619140625,1.00439453125,-0.060546875,-0.4577636420726776,1.0375975370407104,0.5493163466453552,86.66667175292969,198086.0,1.0
18:21:02.534122,128107.421875,141190.609375,155482.40625,153321.796875,163081.375,161061.578125,685794.0,125320.6953125,0.10888671875,1.005859375,-0.060546875,-0.4577636420726776,1.0070799589157104,0.6103515028953552,86.66667175292969,198087.0,1.0
18:21:02.534153,128126.109375,141210.640625,155516.109375,153346.296875,163122.40625,161101.1875,685449.8125,125349.0390625,0.11083984375,1.006103515625,-0.061279296875,-0.3051757514476776,1.0070799589157104,0.5798339247703552,86.66667175292969,198088.0,1.0
18:21:02.543622,128105.9921875,141181.9375,155492.0625,153336.734375,163092.90625,161067.75,685534.0,125339.2890625,0.111328125,1.004638671875,-0.0615234375,-0.2746581733226776,1.2207030057907104,0.6713866591453552,86.66667175292969,198089.0,1.0
18:21:02.548346,128094.6328125,141171.75,155473.28125,153320.453125,163072.171875,161048.34375,685757.125,125323.375,0.109375,1.00390625,-0.058837890625,-0.2746581733226776,1.1901854276657104,0.7934569716453552,86.66667175292969,198090.0,1.0
18:21:02.548368,128116.453125,141201.15625,155490.90625,153331.984375,163091.203125,161071.0625,685857.125,125332.8515625,0.107421875,1.002685546875,-0.060302734375,-0.1525878757238388,1.2512205839157104,0.7934569716453552,86.66667175292969,198091.0,1.0
18:21:02.557371,128133.703125,141219.3125,155520.5,153354.25,163127.515625,161106.015625,685558.25,125360.03125,0.1083984375,1.004150390625,-0.061767578125,-0.03051757626235485,1.3732908964157104,0.9460448622703552,86.66667175292969,198092.0,1.0
18:21:02.560495,128100.359375,141178.09375,155485.984375,153330.109375,163088.609375,161065.0625,685503.5625,125336.515625,0.10888671875,1.00439453125,-0.061767578125,0.03051757626235485,1.4343260526657104,0.8850097060203552,86.66667175292969,198093.0,1.0
18:21:02.560511,128090.5234375,141169.15625,155468.453125,153315.546875,163067.25,161046.03125,685780.9375,125318.90625,0.10498046875,1.0068359375,-0.0634765625,0.03051757626235485,1.4953612089157104,1.0070799589157104,86.66667175292969,198094.0,1.0
18:21:02.569825,128106.796875,141193.921875,155479.453125,153323.765625,163077.625,161060.6875,685894.875,125322.03125,0.10400390625,1.006103515625,-0.06103515625,0.1831054538488388,1.4038084745407104,0.9460448622703552,86.66667175292969,198095.0,1.0
18:21:02.572976,128119.8515625,141209.65625,155502.796875,153334.859375,163107.65625,161091.171875,685662.875,125333.9296875,0.1015625,1.005126953125,-0.060302734375,0.0610351525247097,1.3732908964157104,1.0070799589157104,86.66667175292969,198096.0,1.0
18:21:02.573012,128109.390625,141192.75,155496.171875,153338.421875,163100.0625,161080.890625,685479.6875,125342.6015625,0.10107421875,1.00634765625,-0.062744140625,0.0,1.3122557401657104,0.9460448622703552,86.66667175292969,198097.0,1.0
18:21:02.579886,128094.0078125,141172.109375,155471.953125,153323.046875,163071.1875,161050.5,685765.5,125326.234375,0.097412109375,1.005859375,-0.063720703125,0.0610351525247097,1.1596678495407104,0.9765624403953552,86.66667175292969,198098.0,1.0
18:21:02.584180,128102.4140625,141188.28125,155476.234375,153319.828125,163074.484375,161054.875,685896.375,125320.3359375,0.095458984375,1.00634765625,-0.063720703125,0.0610351525247097,1.0681151151657104,0.9765624403953552,86.66667175292969,198099.0,1.0
18:21:02.584192,128120.921875,141209.5625,155501.890625,153338.15625,163105.875,161087.0625,685748.6875,125338.578125,0.0947265625,1.006103515625,-0.0634765625,0.0,1.0070799589157104,0.8850097060203552,86.66667175292969,198100.0,1.0
18:21:02.591075,128118.59375,141200.796875,155506.1875,153347.1875,163110.703125,161088.578125,685465.0,125352.4296875,0.094970703125,1.005859375,-0.063720703125,0.0610351525247097,0.7934569716453552,0.7324218153953552,86.66667175292969,198101.0,1.0
18:21:02.597920,128098.2109375,141174.78125,155476.78125,153327.703125,163073.953125,161053.625,685764.625,125328.5625,0.097900390625,1.005126953125,-0.06396484375,0.0,0.6713866591453552,0.7019042372703552,86.66667175292969,198102.0,1.0
18:21:02.597941,128112.875,141196.421875,155486.4375,153331.453125,163082.265625,161064.53125,685913.75,125331.421875,0.096923828125,1.005859375,-0.06103515625,-0.03051757626235485,0.6408690810203552,0.6713866591453552,86.66667175292969,198103.0,1.0
18:21:02.626696,128127.625,141216.0,155504.9375,153341.828125,163104.796875,161087.15625,685851.4375,125344.8359375,0.0966796875,1.0078125,-0.05859375,-0.0610351525247097,0.5187987685203552,0.7019042372703552,86.66667175292969,198104.0,1.0
18:21:02.626718,128122.171875,141208.3125,155508.15625,153343.875,163111.5,161093.859375,685495.5,125345.8203125,0.10009765625,1.006591796875,-0.06005859375,-0.0610351525247097,0.3967284858226776,0.7019042372703552,86.66667175292969,198105.0,1.0
18:21:02.639776,128093.3828125,141169.6875,155470.25,153320.546875,163066.890625,161047.984375,685735.8125,125321.765625,0.099853515625,1.00634765625,-0.061767578125,-0.0915527269244194,0.2136230319738388,0.7324218153953552,86.66667175292969,198106.0,1.0
18:21:02.639791,128089.8046875,141172.109375,155461.578125,153307.765625,163057.234375,161040.125,685902.9375,125307.7265625,0.102294921875,1.006103515625,-0.0654296875,-0.2136230319738388,0.0915527269244194,0.7629393935203552,86.66667175292969,198107.0,1.0
18:21:02.639795,128112.9609375,141200.796875,155486.515625,153323.859375,163084.140625,161070.078125,685921.25,125323.015625,0.10107421875,1.005615234375,-0.06201171875,-0.3051757514476776,0.0,0.8544921278953552,86.66667175292969,198108.0,1.0
18:21:02.644122,128121.546875,141207.328125,155507.796875,153340.65625,163109.71875,161093.859375,685534.9375,125341.9765625,0.101806640625,1.005615234375,-0.062255859375,-0.3662109076976776,-0.03051757626235485,0.9765624403953552,86.66667175292969,198109.0,1.0
18:21:02.644142,128097.671875,141173.71875,155477.3125,153326.265625,163071.09375,161053.171875,685674.1875,125326.0546875,0.10302734375,1.005126953125,-0.062744140625,-0.3662109076976776,-0.0915527269244194,1.0375975370407104,86.66667175292969,198110.0,1.0
18:21:02.644148,128093.46875,141174.96875,155467.203125,153313.65625,163060.28125,161044.234375,685873.6875,125313.9921875,0.10302734375,1.005615234375,-0.064208984375,-0.3051757514476776,-0.0915527269244194,1.1291502714157104,86.66667175292969,198111.0,1.0
18:21:02.644152,128103.21875,141190.875,155475.515625,153316.609375,163070.5625,161056.484375,685932.4375,125315.2421875,0.103271484375,1.007568359375,-0.06298828125,-0.4272460639476776,-0.1831054538488388,1.2207030057907104,86.66667175292969,198112.0,1.0
18:21:02.646774,128124.765625,141211.4375,155511.46875,153346.46875,163113.5625,161097.25,685574.0,125349.9296875,0.103515625,1.006103515625,-0.066162109375,-0.5187987685203552,-0.2441406100988388,1.1901854276657104,86.66667175292969,198113.0,1.0
18:21:02.646788,128105.2734375,141183.109375,155488.390625,153337.265625,163085.125,161063.90625,685610.625,125340.3671875,0.104736328125,1.005615234375,-0.065673828125,-0.6408690810203552,-0.4272460639476776,1.2512205839157104,86.66667175292969,198114.0,1.0
18:21:02.648810,128102.4140625,141182.65625,155478.203125,153327.25,163072.25,161052.28125,685848.375,125329.6328125,0.105224609375,1.006103515625,-0.065673828125,-0.6408690810203552,-0.4577636420726776,1.3427733182907104,86.66667175292969,198115.0,1.0
18:21:02.651058,128112.0703125,141196.875,155484.828125,153329.125,163079.3125,161058.90625,685943.6875,125333.296875,0.103515625,1.006591796875,-0.063720703125,-0.8239745497703552,-0.4272460639476776,1.4038084745407104,86.66667175292969,198116.0,1.0
18:21:02.653596,128123.421875,141208.765625,155506.8125,153340.484375,163107.921875,161089.03125,685625.3125,125340.8125,0.101318359375,1.008056640625,-0.06103515625,-0.9460448622703552,-0.4577636420726776,1.3732908964157104,86.66667175292969,198117.0,1.0
18:21:02.657356,128113.859375,141189.71875,155497.515625,153344.328125,163093.0,161070.34375,685553.25,125341.078125,0.10595703125,1.0078125,-0.0625,-1.0070799589157104,-0.5493163466453552,1.2817381620407104,86.66667175292969,198118.0,1.0
18:21:02.667923,128099.734375,141173.984375,155475.96875,153329.21875,163066.0,161043.703125,685820.125,125327.84375,0.10693359375,1.008544921875,-0.0615234375,-1.1596678495407104,-0.5798339247703552,1.2512205839157104,86.66667175292969,198119.0,1.0
18:21:02.667947,128117.703125,141199.828125,155487.6875,153333.25,163077.984375,161059.890625,685941.875,125329.1875,0.107421875,1.008544921875,-0.06640625,-1.2512205839157104,-0.6713866591453552,1.2207030057907104,86.66667175292969,198120.0,1.0
18:21:02.670374,128131.9140625,141217.34375,155510.75,153345.046875,163109.09375,161092.96875,685707.375,125342.8671875,0.107421875,1.01025390625,-0.064208984375,-1.3732908964157104,-0.6408690810203552,1.1901854276657104,86.66667175292969,198121.0,1.0
18:21:02.670427,128122.53125,141202.0625,155506.09375,153346.03125,163103.015625,161084.65625,685502.125,125344.65625,0.10791015625,1.0078125,-0.066650390625,-1.6174315214157104,-0.5493163466453552,1.1291502714157104,86.66667175292969,198122.0,1.0
18:21:02.676053,128099.734375,141177.109375,155475.609375,153325.015625,163067.421875,161051.03125,685783.5625,125326.328125,0.10693359375,1.010009765625,-0.062744140625,-1.6479490995407104,-0.5798339247703552,1.0070799589157104,86.66667175292969,198123.0,1.0
18:21:02.684841,128108.3125,141193.46875,155479.71875,153328.59375,163071.984375,161057.203125,685916.125,125327.578125,0.110107421875,1.009033203125,-0.063232421875,-1.6784666776657104,-0.4577636420726776,1.0375975370407104,86.66667175292969,198124.0,1.0
18:21:02.689161,128121.6328125,141207.15625,155501.09375,153335.203125,163098.09375,161081.703125,685778.5625,125334.375,0.113525390625,1.010498046875,-0.064208984375,-1.7700194120407104,-0.4882812201976776,0.9765624403953552,86.66667175292969,198125.0,1.0
18:21:02.689182,128117.4375,141198.03125,155505.65625,153342.1875,163103.015625,161083.046875,685466.1875,125342.953125,0.113037109375,1.011474609375,-0.06494140625,-1.8920897245407104,-0.3356933295726776,0.9460448622703552,86.66667175292969,198126.0,1.0
18:21:02.699903,128093.203125,141167.90625,155473.734375,153323.234375,163065.546875,161042.8125,685741.0625,125324.8984375,0.11279296875,1.01025390625,-0.0654296875,-2.014159917831421,-0.3967284858226776,0.8850097060203552,86.66667175292969,198127.0,1.0
18:21:02.699950,128114.5703125,141197.046875,155490.1875,153333.953125,163082.265625,161060.953125,685890.125,125334.640625,0.11474609375,1.010498046875,-0.0634765625,-2.105712652206421,-0.3051757514476776,0.9460448622703552,86.66667175292969,198128.0,1.0
18:21:02.701159,128136.8359375,141222.34375,155515.578125,153350.140625,163112.046875,161092.0625,685838.375,125350.109375,0.115234375,1.009521484375,-0.067138671875,-2.075195074081421,-0.2136230319738388,0.7934569716453552,86.66667175292969,198129.0,1.0
18:21:02.713623,128138.3515625,141220.296875,155529.53125,153362.390625,163129.828125,161105.296875,685463.75,125368.796875,0.114501953125,1.009033203125,-0.06591796875,-2.166747808456421,-0.1220703050494194,0.8544921278953552,86.66667175292969,198130.0,1.0
18:21:02.718631,128107.1484375,141182.46875,155489.921875,153336.734375,163083.25,161058.90625,685690.375,125338.7578125,0.114501953125,1.0107421875,-0.0615234375,-2.319335699081421,0.0610351525247097,0.8850097060203552,86.66667175292969,198131.0,1.0
18:21:02.718660,128107.6875,141188.46875,155483.75,153328.859375,163075.5625,161054.15625,685842.1875,125326.4140625,0.11376953125,1.0078125,-0.062255859375,-2.319335699081421,0.1831054538488388,0.8239745497703552,86.66667175292969,198132.0,1.0
18:21:02.718670,128125.4765625,141213.671875,155502.34375,153338.421875,163096.484375,161079.015625,685857.3125,125333.75,0.11376953125,1.0068359375,-0.058837890625,-2.441406011581421,0.1831054538488388,0.8239745497703552,86.66667175292969,198133.0,1.0
18:21:02.721718,128133.171875,141222.34375,155525.328125,153352.828125,163125.09375,161106.546875,685478.3125,125352.2578125,0.11474609375,1.009521484375,-0.060302734375,-2.502441167831421,0.3356933295726776,0.8239745497703552,86.66667175292969,198134.0,1.0
18:21:02.721744,128110.640625,141188.828125,155496.265625,153340.21875,163089.328125,161069.09375,685623.625,125341.2578125,0.1142578125,1.008544921875,-0.06103515625,-2.532958745956421,0.4577636420726776,0.8239745497703552,86.66667175292969,198135.0,1.0
18:21:02.736075,128109.4765625,141189.890625,155489.5625,153333.953125,163081.828125,161061.140625,685814.375,125334.1953125,0.114990234375,1.00830078125,-0.061279296875,-2.532958745956421,0.5493163466453552,0.9155272841453552,86.66667175292969,198136.0,1.0
18:21:02.738562,128121.6328125,141207.328125,155499.84375,153336.90625,163093.171875,161073.203125,685884.25,125335.1796875,0.114990234375,1.0068359375,-0.05908203125,-2.563476324081421,0.6408690810203552,0.8239745497703552,86.66667175292969,198137.0,1.0
18:21:02.741744,128133.6171875,141220.65625,155523.71875,153352.28125,163123.484375,161104.140625,685533.0625,125352.4296875,0.115478515625,1.0068359375,-0.05908203125,-2.655029058456421,0.6408690810203552,0.8239745497703552,86.66667175292969,198138.0,1.0
18:21:02.751188,128111.890625,141189.546875,155498.046875,153341.828125,163093.265625,161069.625,685552.0,125345.28125,0.113037109375,1.005615234375,-0.060791015625,-2.868652105331421,0.8239745497703552,0.8239745497703552,86.66667175292969,198139.0,1.0
18:21:02.753569,128104.6484375,141182.828125,155484.46875,153331.0,163076.90625,161053.53125,685778.125,125333.9296875,0.11328125,1.00634765625,-0.06005859375,-2.838134527206421,0.8544921278953552,0.7629393935203552,86.66667175292969,198140.0,1.0
18:21:02.758243,128118.328125,141205.0,155494.484375,153334.578125,163088.53125,161069.546875,685873.875,125335.0,0.11279296875,1.00634765625,-0.06201171875,-2.868652105331421,0.9155272841453552,0.7934569716453552,86.66667175292969,198141.0,1.0
18:21:02.758322,128134.328125,141221.71875,155521.03125,153352.734375,163123.390625,161103.609375,685585.0,125354.9375,0.113525390625,1.004150390625,-0.05810546875,-2.716064214706421,1.0070799589157104,0.8239745497703552,86.66667175292969,198142.0,1.0
18:21:02.785043,128117.8828125,141197.40625,155505.46875,153346.46875,163103.640625,161080.796875,685477.625,125347.78125,0.11181640625,1.00439453125,-0.0556640625,-2.777099370956421,1.1291502714157104,0.6713866591453552,86.66667175292969,198143.0,1.0
18:21:02.812481,128105.5390625,141184.53125,155484.109375,153332.796875,163078.0625,161057.109375,685744.5625,125333.4765625,0.111083984375,1.002685546875,-0.056640625,-2.777099370956421,1.1901854276657104,0.7629393935203552,86.66667175292969,198144.0,1.0
18:21:02.812543,128115.828125,141199.90625,155487.328125,153332.265625,163080.390625,161062.921875,685845.6875,125329.546875,0.11083984375,1.00048828125,-0.05712890625,-2.716064214706421,1.1596678495407104,0.7629393935203552,86.66667175292969,198145.0,1.0
18:21:02.814205,128129.0546875,141213.859375,155509.671875,153344.234375,163108.109375,161090.1875,685638.4375,125344.390625,0.109619140625,1.000732421875,-0.058349609375,-2.685546636581421,1.2207030057907104,0.6103515028953552,86.66667175292969,198146.0,1.0
18:21:02.814216,128118.2421875,141195.265625,155505.03125,153344.5,163103.09375,161079.46875,685406.8125,125347.15625,0.1083984375,1.00390625,-0.056884765625,-2.593993902206421,1.0986326932907104,0.6103515028953552,86.66667175292969,198147.0,1.0
18:21:02.816153,128091.953125,141165.578125,155470.421875,153321.890625,163064.03125,161039.765625,685683.6875,125327.84375,0.10986328125,1.004150390625,-0.057373046875,-2.532958745956421,1.0681151151657104,0.6713866591453552,86.66667175292969,198148.0,1.0
18:21:02.818568,128101.0703125,141182.390625,155475.078125,153319.390625,163068.328125,161044.953125,685805.3125,125322.03125,0.107177734375,1.003662109375,-0.052978515625,-2.502441167831421,1.0986326932907104,0.6408690810203552,86.66667175292969,198149.0,1.0
18:21:02.821116,128120.203125,141205.90625,155501.71875,153331.984375,163099.875,161078.125,685702.625,125336.1640625,0.1083984375,1.003173828125,-0.05126953125,-2.563476324081421,1.0375975370407104,0.6713866591453552,86.66667175292969,198150.0,1.0
18:21:02.823714,128122.7109375,141205.71875,155512.359375,153342.546875,163112.84375,161090.015625,685383.4375,125347.6953125,0.1083984375,1.00341796875,-0.052734375,-2.410888433456421,0.9765624403953552,0.5493163466453552,86.66667175292969,198151.0,1.0
18:21:02.826225,128099.8203125,141176.3125,155482.59375,153325.109375,163077.078125,161052.546875,685664.0,125330.53125,0.10693359375,1.002685546875,-0.052978515625,-2.349853277206421,1.0070799589157104,0.4272460639476776,86.66667175292969,198152.0,1.0
18:21:02.828684,128106.703125,141190.4375,155484.109375,153322.78125,163077.984375,161056.84375,685783.9375,125327.21875,0.107177734375,1.0048828125,-0.0556640625,-2.227782964706421,1.0070799589157104,0.6103515028953552,86.66667175292969,198153.0,1.0
18:21:02.831180,128122.796875,141211.4375,155502.25,153330.65625,163098.8125,161081.4375,685762.3125,125333.4765625,0.106201171875,1.004150390625,-0.054443359375,-2.227782964706421,0.7629393935203552,0.5493163466453552,86.66667175292969,198154.0,1.0
18:21:02.833678,128119.671875,141206.078125,155510.75,153338.515625,163111.328125,161092.25,685378.125,125346.265625,0.105712890625,1.005126953125,-0.055908203125,-2.197265386581421,0.8239745497703552,0.5187987685203552,86.66667175292969,198155.0,1.0
18:21:02.836261,128097.140625,141173.53125,155480.078125,153325.46875,163073.78125,161052.28125,685592.9375,125334.28125,0.106201171875,1.002197265625,-0.054931640625,-2.166747808456421,0.7324218153953552,0.5187987685203552,86.66667175292969,198156.0,1.0
18:21:02.838656,128099.5546875,141180.6875,155476.328125,153319.03125,163069.03125,161048.703125,685739.125,125323.375,0.10546875,1.00244140625,-0.056640625,-2.105712652206421,0.6103515028953552,0.6713866591453552,86.66667175292969,198157.0,1.0
18:21:02.841221,128114.3046875,141198.921875,155491.171875,153326.359375,163085.84375,161066.765625,685772.5,125327.4921875,0.104736328125,1.002685546875,-0.056396484375,-2.075195074081421,0.6103515028953552,0.5798339247703552,86.66667175292969,198158.0,1.0
18:21:02.850177,128119.4921875,141206.171875,155510.21875,153339.40625,163110.078125,161091.625,685387.3125,125341.796875,0.1025390625,1.000244140625,-0.0546875,-2.014159917831421,0.4882812201976776,0.6103515028953552,86.66667175292969,198159.0,1.0
18:21:02.850196,128103.578125,141182.125,155489.203125,153332.796875,163083.15625,161063.015625,685518.9375,125335.8046875,0.10107421875,0.998779296875,-0.057373046875,-1.9531248807907104,0.3662109076976776,0.6103515028953552,86.66667175292969,198160.0,1.0
18:21:02.850203,128105.453125,141185.96875,155484.203125,153327.96875,163075.828125,161054.875,685706.75,125330.53125,0.103515625,0.9990234375,-0.056396484375,-1.7700194120407104,0.2136230319738388,0.5798339247703552,86.66667175292969,198161.0,1.0
18:21:02.850208,128119.1328125,141206.53125,155496.359375,153331.8125,163088.265625,161068.5625,685782.0625,125330.4375,0.10302734375,0.997314453125,-0.055419921875,-1.7089842557907104,0.2136230319738388,0.6103515028953552,86.66667175292969,198162.0,1.0
18:21:02.850212,128131.46875,141219.9375,155520.859375,153345.3125,163117.578125,161098.234375,685445.625,125344.2109375,0.102294921875,0.998291015625,-0.052490234375,-1.4953612089157104,0.03051757626235485,0.6408690810203552,86.66667175292969,198163.0,1.0
18:21:02.851910,128121.6328125,141201.703125,155508.609375,153346.03125,163099.078125,161078.125,685450.6875,125345.3671875,0.103515625,0.999755859375,-0.0546875,-1.4648436307907104,-0.1220703050494194,0.7019042372703552,86.66667175292969,198164.0,1.0
18:21:02.851939,128116.984375,141196.25,155496.265625,153338.78125,163084.5,161063.90625,685687.0,125335.8046875,0.103515625,0.9990234375,-0.05859375,-1.3427733182907104,-0.2746581733226776,0.6103515028953552,86.66667175292969,198165.0,1.0
18:21:02.854132,128132.09375,141217.53125,155508.0625,153346.203125,163097.828125,161078.5625,685783.3125,125343.7578125,0.103515625,0.999755859375,-0.0576171875,-1.2817381620407104,-0.3967284858226776,0.5187987685203552,86.66667175292969,198166.0,1.0
18:21:02.854145,128149.796875,141238.09375,155537.578125,153365.078125,163134.03125,161115.578125,685527.25,125364.59375,0.104248046875,1.0,-0.05517578125,-1.1901854276657104,-0.4272460639476776,0.6103515028953552,86.66667175292969,198167.0,1.0
18:21:02.860421,128135.765625,141218.953125,155524.78125,153363.90625,163118.390625,161099.21875,685408.0625,125362.890625,0.105712890625,1.0029296875,-0.05517578125,-1.1901854276657104,-0.4272460639476776,0.5798339247703552,86.66667175292969,198168.0,1.0
18:21:02.860448,128110.90625,141191.859375,155492.421875,153338.078125,163082.8125,161061.765625,685681.875,125339.734375,0.106201171875,1.001953125,-0.053955078125,-1.1901854276657104,-0.5493163466453552,0.4882812201976776,86.66667175292969,198169.0,1.0
18:21:02.875443,128119.671875,141208.765625,155496.53125,153337.4375,163087.28125,161069.265625,685783.3125,125338.125,0.106689453125,1.003173828125,-0.05322265625,-1.1901854276657104,-0.7019042372703552,0.5493163466453552,86.66667175292969,198170.0,1.0
18:21:02.875473,128123.2421875,141214.84375,155508.15625,153339.046875,163104.265625,161088.84375,685610.625,125339.5625,0.107421875,1.005615234375,-0.05419921875,-1.1596678495407104,-0.8239745497703552,0.4272460639476776,86.66667175292969,198171.0,1.0
18:21:02.880426,128118.953125,141204.734375,155508.328125,153344.15625,163101.484375,161086.796875,685373.25,125345.7265625,0.10693359375,1.005859375,-0.0546875,-1.1291502714157104,-0.8544921278953552,0.3967284858226776,86.66667175292969,198172.0,1.0
18:21:02.880453,128096.15625,141175.0625,155478.203125,153325.109375,163064.828125,161048.171875,685682.25,125326.59375,0.105712890625,1.00537109375,-0.0546875,-1.1901854276657104,-0.7629393935203552,0.4272460639476776,86.66667175292969,198173.0,1.0
18:21:02.882334,128103.125,141188.015625,155479.71875,153320.375,163066.796875,161050.9375,685769.0,125317.5625,0.107666015625,1.005615234375,-0.05517578125,-1.1901854276657104,-0.7934569716453552,0.3967284858226776,86.66667175292969,198174.0,1.0
18:21:02.884870,128124.765625,141213.953125,155508.0625,153337.71875,163099.875,161084.375,685680.8125,125335.890625,0.10595703125,1.007568359375,-0.05810546875,-1.0986326932907104,-0.7934569716453552,0.3662109076976776,86.66667175292969,198175.0,1.0
18:21:02.888589,128120.5625,141206.96875,155512.359375,153344.59375,163106.40625,161089.5625,685336.0,125346.4453125,0.107421875,1.00634765625,-0.056396484375,-1.2207030057907104,-0.8850097060203552,0.4577636420726776,86.66667175292969,198176.0,1.0
18:21:02.899314,128089.453125,141168.703125,155473.640625,153320.375,163060.546875,161041.109375,685626.0,125322.3046875,0.1103515625,1.00830078125,-0.05615234375,-1.2512205839157104,-0.7629393935203552,0.3051757514476776,86.66667175292969,198177.0,1.0
18:21:02.899344,128104.9140625,141189.984375,155483.21875,153328.6875,163067.96875,161049.421875,685742.0,125328.3828125,0.111572265625,1.0087890625,-0.0576171875,-1.3122557401657104,-0.7019042372703552,0.2441406100988388,86.66667175292969,198178.0,1.0
18:21:02.904215,128122.2578125,141212.0625,155501.546875,153338.78125,163089.515625,161075.078125,685734.9375,125338.3046875,0.111083984375,1.0068359375,-0.057373046875,-1.3732908964157104,-0.7324218153953552,0.3051757514476776,86.66667175292969,198179.0,1.0
18:21:02.904229,128122.9765625,141212.78125,155512.53125,153344.0625,163104.703125,161092.421875,685356.3125,125343.046875,0.1123046875,1.008056640625,-0.05859375,-1.4038084745407104,-0.7934569716453552,0.3967284858226776,86.66667175292969,198180.0,1.0
18:21:02.906099,128101.0703125,141184.171875,155484.203125,153328.765625,163070.109375,161057.828125,685588.5625,125328.0234375,0.113037109375,1.006591796875,-0.056640625,-1.3427733182907104,-0.7324218153953552,0.4882812201976776,86.66667175292969,198181.0,1.0
18:21:02.915005,128108.8515625,141195.4375,155486.25,153329.484375,163071.71875,161059.890625,685741.8125,125327.21875,0.112548828125,1.005615234375,-0.0546875,-1.3427733182907104,-0.5798339247703552,0.6103515028953552,86.66667175292969,198182.0,1.0
18:21:02.919179,128116.453125,141206.171875,155494.203125,153330.65625,163083.34375,161068.90625,685782.9375,125333.125,0.11328125,1.006591796875,-0.05615234375,-1.2207030057907104,-0.5798339247703552,0.5798339247703552,86.66667175292969,198183.0,1.0
18:21:02.919200,128118.7734375,141207.421875,155510.84375,153341.296875,163105.78125,161089.03125,685409.375,125343.046875,0.111328125,1.007568359375,-0.0546875,-1.2207030057907104,-0.5493163466453552,0.5798339247703552,86.66667175292969,198184.0,1.0
18:21:02.926089,128108.2265625,141190.4375,155494.75,153340.484375,163082.890625,161066.671875,685539.9375,125342.6015625,0.11181640625,1.00830078125,-0.056640625,-1.3122557401657104,-0.4577636420726776,0.5187987685203552,86.66667175292969,198185.0,1.0
18:21:02.937483,128096.6875,141183.546875,155476.59375,153318.9375,163061.171875,161047.90625,685732.6875,125317.4765625,0.10986328125,1.007568359375,-0.0556640625,-1.3732908964157104,-0.3356933295726776,0.4882812201976776,86.66667175292969,198186.0,1.0
18:21:02.937513,128109.296875,141202.953125,155486.703125,153322.609375,163070.828125,161060.328125,685813.625,125318.1015625,0.1083984375,1.003662109375,-0.056396484375,-1.3732908964157104,-0.3356933295726776,0.4882812201976776,86.66667175292969,198187.0,1.0
18:21:02.937953,128120.921875,141213.140625,155510.296875,153338.15625,163099.875,161089.125,685488.0625,125335.984375,0.108154296875,1.002197265625,-0.053466796875,-1.3732908964157104,-0.3662109076976776,0.4272460639476776,86.66667175292969,198188.0,1.0
18:21:02.937969,128095.7109375,141178.984375,155483.03125,153323.671875,163067.421875,161054.078125,685464.0,125324.0,0.107666015625,0.998046875,-0.05322265625,-1.3122557401657104,-0.2746581733226776,0.3356933295726776,86.66667175292969,198189.0,1.0
18:21:02.947308,128088.015625,141172.546875,155468.375,153312.140625,163051.78125,161038.6875,685714.875,125313.5390625,0.110107421875,0.999267578125,-0.055419921875,-1.3732908964157104,-0.1525878757238388,0.2746581733226776,86.66667175292969,198190.0,1.0
18:21:02.951682,128101.4296875,141194.8125,155477.84375,153316.515625,163062.15625,161052.734375,685815.75,125315.6875,0.114013671875,1.000732421875,-0.056640625,-1.3122557401657104,-0.1831054538488388,0.3356933295726776,86.66667175292969,198191.0,1.0
18:21:02.951711,128116.1796875,141213.046875,155502.96875,153331.8125,163095.6875,161087.421875,685563.8125,125333.5703125,0.115478515625,1.000732421875,-0.05810546875,-1.2817381620407104,-0.0915527269244194,0.3662109076976776,86.66667175292969,198192.0,1.0
18:21:02.957311,128111.0859375,141200.890625,155500.109375,153337.890625,163089.78125,161079.546875,685430.0625,125339.5625,0.118896484375,1.002197265625,-0.06103515625,-1.2817381620407104,0.0,0.6103515028953552,86.66667175292969,198193.0,1.0
18:21:02.965435,128088.109375,141175.0625,155468.734375,153314.90625,163052.59375,161043.4375,685705.625,125315.7734375,0.122314453125,1.004150390625,-0.058349609375,-1.3122557401657104,0.1831054538488388,0.7324218153953552,86.66667175292969,198194.0,1.0
18:21:02.965454,128099.4609375,141191.0625,155474.8125,153317.6875,163057.40625,161049.15625,685810.9375,125315.953125,0.12060546875,1.00244140625,-0.060302734375,-1.3122557401657104,0.4272460639476776,0.8544921278953552,86.66667175292969,198195.0,1.0
18:21:02.971192,128110.640625,141202.953125,155493.578125,153327.25,163082.453125,161074.09375,685652.25,125323.5546875,0.11962890625,1.00244140625,-0.05908203125,-1.0986326932907104,0.5187987685203552,0.9460448622703552,86.66667175292969,198196.0,1.0
18:21:02.975524,128098.65625,141186.5,155487.953125,153322.953125,163077.0,161065.78125,685388.8125,125323.640625,0.115966796875,1.0048828125,-0.0576171875,-0.9765624403953552,0.6408690810203552,0.9765624403953552,86.66667175292969,198197.0,1.0
18:21:02.975540,128082.2109375,141164.0625,155463.0,153309.8125,163047.3125,161034.84375,685685.0625,125312.6484375,0.113525390625,1.007568359375,-0.05908203125,-0.9765624403953552,0.7934569716453552,0.8850097060203552,86.66667175292969,198198.0,1.0
18:21:02.983985,128093.203125,141182.921875,155468.90625,153314.90625,163053.484375,161043.703125,685803.4375,125316.8515625,0.11083984375,1.007080078125,-0.05859375,-0.9765624403953552,0.8544921278953552,0.7019042372703552,86.66667175292969,198199.0,1.0
18:21:02.989178,128100.359375,141191.0625,155480.34375,153319.65625,163069.21875,161059.25,685723.6875,125322.3046875,0.108154296875,1.0107421875,-0.059326171875,-1.0070799589157104,0.8544921278953552,0.6408690810203552,86.66667175292969,198200.0,1.0
18:21:02.989204,128099.375,141185.609375,155487.421875,153326.8125,163076.640625,161065.78125,685383.375,125327.3984375,0.10791015625,1.00927734375,-0.056396484375,-0.9765624403953552,0.8850097060203552,0.3967284858226776,86.66667175292969,198201.0,1.0
18:21:02.996458,128073.0,141150.015625,155452.71875,153306.875,163033.8125,161021.171875,685657.25,125306.2109375,0.106689453125,1.008544921875,-0.056884765625,-1.0070799589157104,0.9155272841453552,0.0915527269244194,86.66667175292969,198202.0,1.0
18:21:03.002910,128090.1640625,141174.421875,155465.15625,153315.8125,163045.4375,161034.3125,685799.0,125312.9140625,0.104248046875,1.007080078125,-0.05712890625,-1.0375975370407104,0.7934569716453552,-0.0610351525247097,86.66667175292969,198203.0,1.0
18:21:03.002942,128111.0859375,141200.453125,155488.390625,153330.203125,163074.578125,161063.28125,685801.4375,125328.3828125,0.10546875,1.006591796875,-0.0556640625,-1.0681151151657104,0.8239745497703552,-0.2136230319738388,86.66667175292969,198204.0,1.0
18:21:03.005405,128114.390625,141200.625,155504.3125,153339.953125,163096.578125,161080.796875,685427.125,125342.2421875,0.107421875,1.0068359375,-0.056640625,-1.0986326932907104,0.7629393935203552,-0.4272460639476776,86.66667175292969,198205.0,1.0
18:21:03.005430,128078.71875,141158.25,155461.75,153310.09375,163046.421875,161031.625,685607.875,125313.1875,0.108154296875,1.005126953125,-0.055908203125,-1.1596678495407104,0.7629393935203552,-0.5493163466453552,86.66667175292969,198206.0,1.0
18:21:03.021540,128079.796875,141163.609375,155456.390625,153303.296875,163038.375,161025.46875,685784.125,125304.2421875,0.10791015625,1.004638671875,-0.056640625,-1.1596678495407104,0.7019042372703552,-0.6103515028953552,86.66667175292969,198207.0,1.0
18:21:03.024235,128101.96875,141191.234375,155477.9375,153317.59375,163061.4375,161050.859375,685844.4375,125315.6015625,0.107421875,1.00537109375,-0.05908203125,-1.1291502714157104,0.6103515028953552,-0.6103515028953552,86.66667175292969,198208.0,1.0
18:21:03.024292,128115.0234375,141204.5625,155502.875,153334.40625,163092.46875,161081.609375,685482.375,125334.8203125,0.10888671875,1.0048828125,-0.0595703125,-1.1596678495407104,0.6103515028953552,-0.5798339247703552,86.66667175292969,198209.0,1.0
18:21:03.030520,128091.4140625,141172.28125,155475.078125,153318.578125,163059.375,161044.6875,685579.375,125321.6796875,0.107666015625,1.00537109375,-0.0576171875,-1.1901854276657104,0.6103515028953552,-0.5493163466453552,86.66667175292969,198210.0,1.0
18:21:03.030545,128084.796875,141169.0625,155462.46875,153308.484375,163044.890625,161031.90625,685789.625,125311.0390625,0.108154296875,1.007568359375,-0.053955078125,-1.0986326932907104,0.5798339247703552,-0.5798339247703552,86.66667175292969,198211.0,1.0
18:21:03.036886,128108.8515625,141201.15625,155483.21875,153321.0,163066.171875,161056.03125,685879.375,125321.765625,0.10546875,1.009521484375,-0.0546875,-1.2207030057907104,0.4882812201976776,-0.5187987685203552,86.66667175292969,198212.0,1.0
18:21:03.036917,128127.71875,141220.03125,155515.484375,153342.890625,163104.265625,161092.875,685567.8125,125344.1171875,0.1044921875,1.010009765625,-0.057373046875,-1.2817381620407104,0.5187987685203552,-0.4272460639476776,86.66667175292969,198213.0,1.0
18:21:03.045144,128106.703125,141190.515625,155492.515625,153331.1875,163076.90625,161062.03125,685526.0625,125336.4296875,0.1005859375,1.008544921875,-0.05908203125,-1.3122557401657104,0.4272460639476776,-0.2746581733226776,86.66667175292969,198214.0,1.0
18:21:03.045178,128092.3125,141174.875,155471.234375,153314.5625,163053.03125,161035.75,685777.5,125317.5625,0.100341796875,1.005859375,-0.0556640625,-1.4038084745407104,0.3662109076976776,-0.1220703050494194,86.66667175292969,198215.0,1.0
18:21:03.056746,128108.8515625,141199.640625,155483.5625,153322.78125,163066.0,161051.125,685883.9375,125320.25,0.099853515625,1.006103515625,-0.0556640625,-1.4343260526657104,0.3356933295726776,-0.0915527269244194,86.66667175292969,198216.0,1.0
18:21:03.056791,128120.4765625,141212.34375,155504.484375,153334.21875,163093.890625,161080.890625,685634.6875,125332.40625,0.09814453125,1.0048828125,-0.057861328125,-1.4038084745407104,0.2746581733226776,-0.03051757626235485,86.66667175292969,198217.0,1.0
18:21:03.058537,128107.1484375,141192.578125,155495.453125,153333.953125,163081.375,161067.03125,685473.4375,125337.0546875,0.096923828125,1.005615234375,-0.05615234375,-1.4648436307907104,0.1525878757238388,0.1220703050494194,86.66667175292969,198218.0,1.0
18:21:03.061077,128086.5859375,141167.546875,155467.203125,153313.65625,163048.46875,161031.625,685759.4375,125314.1640625,0.095703125,1.005126953125,-0.05810546875,-1.5258787870407104,-0.03051757626235485,0.0610351525247097,86.66667175292969,198219.0,1.0
18:21:03.065080,128105.71875,141193.203125,155481.609375,153323.234375,163062.515625,161045.578125,685877.25,125320.3359375,0.095703125,1.005615234375,-0.0546875,-1.5563963651657104,-0.2136230319738388,0.1525878757238388,86.66667175292969,198220.0,1.0
18:21:03.075444,128122.2578125,141214.84375,155506.90625,153335.75,163093.984375,161080.171875,685725.875,125335.4453125,0.094482421875,1.0068359375,-0.057861328125,-1.5869139432907104,-0.3356933295726776,0.0610351525247097,86.66667175292969,198221.0,1.0
18:21:03.075494,128110.4609375,141199.109375,155503.15625,153335.203125,163090.40625,161073.921875,685443.875,125339.3828125,0.0947265625,1.00634765625,-0.05615234375,-1.5563963651657104,-0.3356933295726776,0.03051757626235485,86.66667175292969,198222.0,1.0
18:21:03.077956,128088.375,141170.578125,155471.40625,153316.609375,163052.765625,161035.296875,685730.4375,125318.1875,0.09375,1.005615234375,-0.053955078125,-1.6784666776657104,-0.5187987685203552,0.03051757626235485,86.66667175292969,198223.0,1.0
18:21:03.077996,128100.625,141189.0,155476.6875,153318.40625,163057.234375,161044.421875,685859.1875,125316.3125,0.093994140625,1.008056640625,-0.054443359375,-1.7089842557907104,-0.6713866591453552,-0.1220703050494194,86.66667175292969,198224.0,1.0
18:21:03.089963,128118.59375,141211.71875,155500.203125,153332.265625,163085.75,161073.03125,685797.25,125332.2265625,0.093994140625,1.00732421875,-0.053466796875,-1.7700194120407104,-0.8544921278953552,0.0610351525247097,86.66667175292969,198225.0,1.0
18:21:03.094233,128114.75,141204.5625,155506.8125,153336.90625,163094.421875,161079.46875,685442.3125,125339.0234375,0.095947265625,1.008544921875,-0.05419921875,-1.8310545682907104,-0.9765624403953552,0.0,86.66667175292969,198226.0,1.0
18:21:03.094250,128094.0078125,141174.421875,155477.046875,153320.8125,163057.59375,161041.375,685681.875,125325.1640625,0.0966796875,1.008056640625,-0.053466796875,-1.8920897245407104,-1.2207030057907104,0.1220703050494194,86.66667175292969,198227.0,1.0
18:21:03.102949,128097.765625,141185.0625,155475.703125,153314.375,163055.453125,161041.015625,685833.6875,125317.296875,0.09814453125,1.0068359375,-0.055419921875,-1.9836424589157104,-1.2512205839157104,0.1525878757238388,86.66667175292969,198228.0,1.0
18:21:03.102983,128122.4375,141215.640625,155501.984375,153337.171875,163085.125,161073.03125,685844.625,125333.296875,0.10107421875,1.0068359375,-0.05419921875,-1.9531248807907104,-1.3427733182907104,0.2441406100988388,86.66667175292969,198229.0,1.0
18:21:03.106705,128130.0390625,141219.9375,155521.484375,153351.578125,163109.71875,161094.65625,685464.375,125347.78125,0.103271484375,1.00830078125,-0.05517578125,-1.9226073026657104,-1.2817381620407104,0.2746581733226776,86.66667175292969,198230.0,1.0
18:21:03.106739,128104.828125,141185.96875,155489.734375,153334.40625,163070.46875,161054.421875,685636.5,125333.75,0.10693359375,1.0068359375,-0.056884765625,-1.9836424589157104,-1.3122557401657104,0.1831054538488388,86.66667175292969,198231.0,1.0
18:21:03.112442,128100.890625,141185.515625,155479.71875,153323.3125,163060.1875,161042.265625,685821.5625,125322.390625,0.10693359375,1.0048828125,-0.057373046875,-2.014159917831421,-1.2817381620407104,0.2441406100988388,86.66667175292969,198232.0,1.0
18:21:03.170554,128112.6953125,141204.109375,155490.1875,153326.171875,163071.890625,161057.109375,685877.0625,125321.859375,0.10693359375,1.0029296875,-0.058837890625,-2.014159917831421,-1.3122557401657104,0.3662109076976776,86.66667175292969,198233.0,1.0
18:21:03.170589,128118.2421875,141210.640625,155508.78125,153334.21875,163096.03125,161081.78125,685504.25,125332.4921875,0.108642578125,1.002197265625,-0.058349609375,-1.9531248807907104,-1.2207030057907104,0.4882812201976776,86.66667175292969,198234.0,1.0
18:21:03.172958,128091.953125,141178.28125,155479.015625,153319.828125,163059.828125,161044.6875,685559.4375,125317.5625,0.107177734375,1.00244140625,-0.062255859375,-1.8615721464157104,-1.0986326932907104,0.6408690810203552,86.66667175292969,198235.0,1.0
18:21:03.173010,128089.453125,141178.453125,155469.171875,153312.5,163046.6875,161036.640625,685787.25,125311.0390625,0.11083984375,1.00244140625,-0.060302734375,-1.8310545682907104,-1.0070799589157104,0.7934569716453552,86.66667175292969,198236.0,1.0
18:21:03.176221,128105.9921875,141198.65625,155482.234375,153319.921875,163060.546875,161050.859375,685884.0625,125314.8828125,0.11181640625,1.001953125,-0.060791015625,-1.7395018339157104,-0.8544921278953552,0.9155272841453552,86.66667175292969,198237.0,1.0
18:21:03.176297,128109.8359375,141199.828125,155496.796875,153326.0,163082.0,161068.828125,685568.1875,125321.859375,0.112060546875,1.0009765625,-0.0595703125,-1.7089842557907104,-0.7324218153953552,0.9765624403953552,86.66667175292969,198238.0,1.0
18:21:03.176324,128085.875,141166.921875,155472.578125,153314.015625,163053.5625,161037.984375,685508.1875,125312.203125,0.11083984375,0.99951171875,-0.05859375,-1.6479490995407104,-0.5798339247703552,1.0681151151657104,86.66667175292969,198239.0,1.0
18:21:03.179461,128086.0546875,141165.84375,155465.15625,153312.953125,163042.84375,161026.53125,685777.375,125310.0546875,0.1123046875,1.00341796875,-0.0595703125,-1.6479490995407104,-0.4882812201976776,1.2207030057907104,86.66667175292969,198240.0,1.0
18:21:03.179489,128107.421875,141193.828125,155482.40625,153324.03125,163060.359375,161044.78125,685888.875,125318.9921875,0.112060546875,1.003173828125,-0.059814453125,-1.5258787870407104,-0.3051757514476776,1.1901854276657104,86.66667175292969,198241.0,1.0
18:21:03.181035,128111.625,141200.796875,155498.234375,153329.046875,163083.609375,161068.5625,685640.3125,125327.3984375,0.112060546875,1.001708984375,-0.0615234375,-1.3732908964157104,-0.0915527269244194,1.2512205839157104,86.66667175292969,198242.0,1.0
18:21:03.183532,128104.109375,141188.203125,155494.296875,153333.78125,163076.90625,161059.34375,685463.0625,125331.15625,0.1123046875,1.003662109375,-0.061767578125,-1.3427733182907104,0.0915527269244194,1.2512205839157104,86.66667175292969,198243.0,1.0
18:21:03.186122,128092.3984375,141171.484375,155473.015625,153321.890625,163050.265625,161031.90625,685758.5,125316.9375,0.1142578125,1.00439453125,-0.06396484375,-1.2817381620407104,0.2136230319738388,1.2207030057907104,86.66667175292969,198244.0,1.0
18:21:03.188527,128095.53125,141181.21875,155471.859375,153318.40625,163047.765625,161030.5625,685863.375,125310.6796875,0.112060546875,1.006103515625,-0.061767578125,-1.2817381620407104,0.1831054538488388,1.1291502714157104,86.66667175292969,198245.0,1.0
18:21:03.191160,128110.7265625,141200.71875,155494.75,153329.3125,163076.90625,161060.421875,685721.0,125323.5546875,0.11083984375,1.007568359375,-0.06103515625,-1.3122557401657104,0.3051757514476776,1.0986326932907104,86.66667175292969,198246.0,1.0
18:21:03.193611,128111.3515625,141197.40625,155502.796875,153339.140625,163085.75,161065.15625,685431.125,125332.9453125,0.1103515625,1.00634765625,-0.059814453125,-1.2817381620407104,0.4272460639476776,0.9765624403953552,86.66667175292969,198247.0,1.0
18:21:03.201971,128097.765625,141178.625,155480.53125,153327.703125,163056.703125,161036.734375,685722.375,125320.515625,0.111328125,1.003662109375,-0.05810546875,-1.2512205839157104,0.5187987685203552,0.9460448622703552,86.66667175292969,198248.0,1.0
18:21:03.204805,128112.4296875,141200.265625,155489.921875,153334.40625,163065.1875,161048.078125,685846.6875,125325.25,0.110595703125,1.003662109375,-0.060302734375,-1.2817381620407104,0.7629393935203552,0.7934569716453552,86.66667175292969,198249.0,1.0
18:21:03.207360,128121.3671875,141210.546875,155502.53125,153337.265625,163080.84375,161064.984375,685778.4375,125327.21875,0.112060546875,1.002197265625,-0.059326171875,-1.1901854276657104,0.8239745497703552,0.7934569716453552,86.66667175292969,198250.0,1.0
18:21:03.209885,128121.453125,141206.890625,155514.234375,153349.0625,163095.5,161076.515625,685414.5625,125344.7421875,0.11376953125,1.00439453125,-0.0634765625,-1.1901854276657104,0.8239745497703552,0.7324218153953552,86.66667175292969,198251.0,1.0
18:21:03.212971,128091.8671875,141170.9375,155475.515625,153324.296875,163050.265625,161030.734375,685663.5625,125318.28125,0.11474609375,1.0029296875,-0.0615234375,-1.2207030057907104,0.8850097060203552,0.9155272841453552,86.66667175292969,198252.0,1.0
18:21:03.212987,128098.390625,141186.859375,155475.078125,153319.203125,163047.9375,161034.765625,685811.375,125312.828125,0.11572265625,1.005615234375,-0.060302734375,-1.2207030057907104,1.0681151151657104,0.8850097060203552,86.66667175292969,198253.0,1.0
18:21:03.216059,128109.03125,141201.875,155485.625,153324.21875,163061.609375,161051.484375,685821.375,125314.078125,0.114990234375,1.004638671875,-0.060791015625,-1.2512205839157104,1.2512205839157104,0.9460448622703552,86.66667175292969,198254.0,1.0
18:21:03.216070,128112.15625,141203.21875,155501.8125,153334.578125,163083.96875,161071.15625,685435.4375,125327.84375,0.114013671875,1.00439453125,-0.060302734375,-1.1596678495407104,1.3732908964157104,0.9460448622703552,86.66667175292969,198255.0,1.0
18:21:03.216073,128100.7109375,141185.609375,155484.546875,153331.0,163059.828125,161046.734375,685611.4375,125325.1640625,0.11279296875,1.0048828125,-0.060546875,-1.1291502714157104,1.4648436307907104,0.9155272841453552,86.66667175292969,198256.0,1.0
18:21:03.219131,128099.640625,141186.765625,155476.421875,153322.875,163049.1875,161037.359375,685792.5625,125312.203125,0.11328125,1.003662109375,-0.06298828125,-1.1291502714157104,1.5869139432907104,0.8850097060203552,86.66667175292969,198257.0,1.0
18:21:03.219138,128112.3359375,141203.75,155486.609375,153328.140625,163061.34375,161049.78125,685846.5625,125315.1484375,0.111083984375,1.004150390625,-0.064208984375,-1.1291502714157104,1.7089842557907104,1.0070799589157104,86.66667175292969,198258.0,1.0
18:21:03.221196,128121.7265625,141213.765625,155508.328125,153337.53125,163089.78125,161078.84375,685480.5625,125328.3828125,0.107421875,1.00390625,-0.061767578125,-1.1291502714157104,1.8005369901657104,0.9155272841453552,86.66667175292969,198259.0,1.0
18:21:03.223762,128097.5859375,141182.03125,155481.609375,153325.734375,163056.609375,161044.328125,685535.5625,125316.4921875,0.106689453125,1.006103515625,-0.06298828125,-1.0986326932907104,1.7395018339157104,1.0375975370407104,86.66667175292969,198260.0,1.0
18:21:03.229808,128089.09375,141178.625,155466.578125,153312.953125,163039.890625,161031.71875,685761.3125,125303.078125,0.107666015625,1.004150390625,-0.060302734375,-1.0986326932907104,1.7089842557907104,1.0986326932907104,86.66667175292969,198261.0,1.0
18:21:03.234379,128101.34375,141194.8125,155474.8125,153315.0,163049.453125,161041.375,685855.0625,125303.9765625,0.10546875,1.005615234375,-0.05859375,-1.0681151151657104,1.6479490995407104,1.0986326932907104,86.66667175292969,198262.0,1.0
18:21:03.234469,128108.2265625,141202.0625,155494.296875,153324.75,163076.1875,161067.84375,685555.8125,125316.8515625,0.104248046875,1.005859375,-0.0595703125,-1.0070799589157104,1.6174315214157104,1.0070799589157104,86.66667175292969,198263.0,1.0
18:21:03.266294,128089.8046875,141176.03125,155475.4375,153318.3125,163053.5625,161043.078125,685461.0625,125310.234375,0.102294921875,1.007568359375,-0.06103515625,-1.0986326932907104,1.4953612089157104,0.8544921278953552,86.66667175292969,198264.0,1.0
18:21:03.269319,128078.5390625,141163.171875,155455.671875,153305.171875,163030.328125,161020.359375,685729.125,125297.09375,0.10205078125,1.0078125,-0.056396484375,-1.0375975370407104,1.3122557401657104,0.7324218153953552,86.66667175292969,198265.0,1.0
18:21:03.269347,128103.484375,141197.765625,155476.59375,153321.34375,163050.625,161044.234375,685849.8125,125310.3203125,0.1025390625,1.008056640625,-0.0615234375,-1.1596678495407104,1.2512205839157104,0.7019042372703552,86.66667175292969,198266.0,1.0
18:21:03.271158,128121.7265625,141218.15625,155506.453125,153340.125,163086.921875,161078.296875,685637.75,125331.2421875,0.0986328125,1.0068359375,-0.062744140625,-1.2207030057907104,1.2512205839157104,0.6103515028953552,86.66667175292969,198267.0,1.0
18:21:03.274713,128113.140625,141202.859375,155503.328125,153342.09375,163081.734375,161069.625,685423.25,125335.1796875,0.10009765625,1.00732421875,-0.05859375,-1.2207030057907104,1.0986326932907104,0.4577636420726776,86.66667175292969,198268.0,1.0
18:21:03.274724,128093.0234375,141176.84375,155474.1875,153323.40625,163046.953125,161032.4375,685706.125,125318.0078125,0.09814453125,1.00830078125,-0.059326171875,-1.2817381620407104,1.0070799589157104,0.5187987685203552,86.66667175292969,198269.0,1.0
18:21:03.274727,128102.59375,141192.484375,155477.765625,153322.6875,163050.890625,161036.734375,685820.5,125315.953125,0.10107421875,1.008544921875,-0.060546875,-1.3732908964157104,0.8239745497703552,0.5187987685203552,86.66667175292969,198270.0,1.0
18:21:03.277897,128118.5078125,141211.4375,155499.484375,153333.515625,163077.703125,161067.484375,685701.6875,125323.46875,0.103271484375,1.00927734375,-0.060302734375,-1.4038084745407104,0.6408690810203552,0.5493163466453552,86.66667175292969,198271.0,1.0
18:21:03.277920,128111.7109375,141198.84375,155501.359375,153338.609375,163079.3125,161066.59375,685391.75,125330.6171875,0.103515625,1.008544921875,-0.058349609375,-1.4343260526657104,0.5798339247703552,0.4577636420726776,86.66667175292969,198272.0,1.0
18:21:03.280505,128087.390625,141166.828125,155468.375,153316.96875,163040.875,161025.90625,685684.875,125310.59375,0.102783203125,1.00830078125,-0.060791015625,-1.4953612089157104,0.4272460639476776,0.4882812201976776,86.66667175292969,198273.0,1.0
18:21:03.280526,128090.5234375,141175.953125,155465.953125,153313.84375,163038.8125,161024.125,685801.6875,125304.6015625,0.1025390625,1.0087890625,-0.0556640625,-1.6479490995407104,0.3662109076976776,0.4882812201976776,86.66667175292969,198274.0,1.0
18:21:03.286268,128108.046875,141198.84375,155486.4375,153326.265625,163063.84375,161050.859375,685758.375,125315.0625,0.10009765625,1.0078125,-0.058837890625,-1.7089842557907104,0.2441406100988388,0.5798339247703552,86.66667175292969,198275.0,1.0
18:21:03.292877,128117.5234375,141206.34375,155507.0,153342.359375,163087.984375,161072.671875,685389.1875,125333.5703125,0.101318359375,1.008544921875,-0.061767578125,-1.8005369901657104,0.1220703050494194,0.5493163466453552,86.66667175292969,198276.0,1.0
18:21:03.292890,128088.8203125,141168.625,155470.6875,153319.921875,163043.734375,161027.78125,685629.875,125312.46875,0.10205078125,1.008544921875,-0.058837890625,-1.8920897245407104,0.03051757626235485,0.5493163466453552,86.66667175292969,198277.0,1.0
18:21:03.294802,128094.1015625,141177.5625,155468.734375,153317.6875,163040.15625,161026.4375,685771.9375,125307.375,0.1015625,1.008544921875,-0.05859375,-1.9531248807907104,-0.0915527269244194,0.6408690810203552,86.66667175292969,198278.0,1.0
18:21:03.307392,128112.25,141200.71875,155487.0625,153327.4375,163061.171875,161049.0625,685800.375,125316.671875,0.100341796875,1.009521484375,-0.05712890625,-2.136230230331421,-0.2136230319738388,0.6713866591453552,86.66667175292969,198279.0,1.0
18:21:03.314743,128119.671875,141209.203125,155507.359375,153342.265625,163088.4375,161076.953125,685419.3125,125334.734375,0.101806640625,1.0107421875,-0.057861328125,-2.227782964706421,-0.2441406100988388,0.7019042372703552,86.66667175292969,198280.0,1.0
18:21:03.314763,128088.109375,141171.03125,155471.234375,153321.703125,163044.984375,161032.96875,685568.5625,125314.5234375,0.1025390625,1.008544921875,-0.056884765625,-2.288818120956421,-0.3051757514476776,0.7019042372703552,86.66667175292969,198281.0,1.0
18:21:03.314767,128088.8203125,141175.953125,155464.96875,153315.359375,163037.75,161026.796875,685759.125,125308.4453125,0.10205078125,1.008544921875,-0.055908203125,-2.349853277206421,-0.4272460639476776,0.7324218153953552,86.66667175292969,198282.0,1.0
18:21:03.318059,128107.6015625,141202.140625,155482.140625,153325.46875,163056.34375,161047.984375,685824.3125,125314.8828125,0.10302734375,1.007080078125,-0.061279296875,-2.349853277206421,-0.4882812201976776,0.9155272841453552,86.66667175292969,198283.0,1.0
18:21:03.318075,128123.78125,141219.84375,155511.203125,153345.578125,163091.828125,161082.5,685470.875,125335.1796875,0.103515625,1.008544921875,-0.059326171875,-2.471923589706421,-0.6408690810203552,0.7934569716453552,86.66667175292969,198284.0,1.0
18:21:03.322322,128099.28125,141184.625,155483.484375,153331.71875,163058.578125,161045.40625,685513.0,125322.6640625,0.103515625,1.009521484375,-0.057373046875,-2.593993902206421,-0.5493163466453552,0.8544921278953552,86.66667175292969,198285.0,1.0
18:21:03.326207,128087.84375,141175.5,155465.15625,153316.96875,163037.125,161026.265625,685741.8125,125307.90625,0.104736328125,1.009765625,-0.05908203125,-2.624511480331421,-0.6713866591453552,0.9155272841453552,86.66667175292969,198286.0,1.0
18:21:03.332391,128101.6953125,141197.671875,155475.703125,153320.375,163048.109375,161040.390625,685829.5,125307.4609375,0.1083984375,1.007568359375,-0.059326171875,-2.655029058456421,-0.7019042372703552,0.8544921278953552,86.66667175292969,198287.0,1.0
18:21:03.343165,128121.453125,141219.765625,155507.265625,153341.375,163086.65625,161080.453125,685548.6875,125329.8125,0.10693359375,1.00830078125,-0.06005859375,-2.899169683456421,-0.7324218153953552,0.8850097060203552,86.66667175292969,198288.0,1.0
18:21:03.343191,128105.8125,141195.0,155494.03125,153339.140625,163069.84375,161057.640625,685448.375,125329.6328125,0.107177734375,1.007080078125,-0.0595703125,-2.807616949081421,-0.7629393935203552,0.8239745497703552,86.66667175292969,198289.0,1.0
18:21:03.349179,128085.78125,141170.40625,155467.75,153320.453125,163039.359375,161022.6875,685718.125,125312.46875,0.109130859375,1.007080078125,-0.05712890625,-2.868652105331421,-0.7324218153953552,0.8544921278953552,86.66667175292969,198290.0,1.0
18:21:03.349192,128094.1015625,141183.28125,155469.71875,153318.125,163041.59375,161025.46875,685818.0,125307.8203125,0.110595703125,1.004150390625,-0.05615234375,-2.868652105331421,-0.6713866591453552,0.8544921278953552,86.66667175292969,198291.0,1.0
18:21:03.355446,128114.84375,141205.90625,155499.03125,153337.796875,163078.0625,161063.8125,685625.875,125328.46875,0.11181640625,1.0048828125,-0.05419921875,-2.899169683456421,-0.6103515028953552,0.7934569716453552,86.66667175292969,198292.0,1.0
18:21:03.355468,128113.234375,141200.09375,155504.21875,153348.703125,163081.734375,161065.609375,685400.5625,125340.5390625,0.112060546875,1.006103515625,-0.053466796875,-2.899169683456421,-0.6408690810203552,0.8239745497703552,86.66667175292969,198293.0,1.0
18:21:03.357474,128091.1484375,141175.328125,155473.734375,153326.8125,163046.6875,161030.828125,685678.625,125319.890625,0.1123046875,1.0048828125,-0.053466796875,-2.990722417831421,-0.5493163466453552,0.8544921278953552,86.66667175292969,198294.0,1.0
18:21:03.368624,128103.9296875,141195.171875,155480.984375,153329.75,163053.65625,161039.765625,685798.25,125321.140625,0.114501953125,1.0048828125,-0.056396484375,-2.990722417831421,-0.4577636420726776,0.8850097060203552,86.66667175292969,198295.0,1.0
18:21:03.372921,128109.03125,141203.21875,155490.90625,153327.96875,163070.375,161056.578125,685687.25,125320.875,0.11572265625,1.0048828125,-0.05419921875,-2.899169683456421,-0.3356933295726776,0.8544921278953552,86.66667175292969,198296.0,1.0
18:21:03.372947,128115.0234375,141204.015625,155504.3125,153345.84375,163084.5,161070.078125,685368.0625,125337.7734375,0.114990234375,1.00439453125,-0.056396484375,-2.929687261581421,-0.1831054538488388,0.7019042372703552,86.66667175292969,198297.0,1.0
18:21:03.379163,128105.9921875,141189.8125,155485.359375,153337.09375,163058.3125,161046.921875,685667.0,125327.84375,0.114990234375,1.00341796875,-0.054443359375,-2.960204839706421,-0.1831054538488388,0.7934569716453552,86.66667175292969,198298.0,1.0
18:21:03.379188,128107.421875,141197.234375,155481.6875,153329.046875,163053.21875,161043.703125,685787.375,125315.953125,0.11474609375,1.0029296875,-0.055908203125,-2.838134527206421,-0.1220703050494194,0.7019042372703552,86.66667175292969,198299.0,1.0
18:21:03.381379,128119.3125,141212.421875,155495.90625,153333.78125,163071.265625,161063.640625,685761.0,125321.859375,0.112548828125,1.001708984375,-0.051025390625,-2.838134527206421,-0.03051757626235485,0.7019042372703552,86.66667175292969,198300.0,1.0
18:21:03.392555,128129.6796875,141221.09375,155516.46875,153351.484375,163095.6875,161087.515625,685383.5625,125343.046875,0.112060546875,1.000732421875,-0.05419921875,-2.807616949081421,0.03051757626235485,0.7019042372703552,86.66667175292969,198301.0,1.0
18:21:03.396711,128099.5546875,141180.953125,155479.71875,153330.375,163051.953125,161041.109375,685603.875,125324.8046875,0.113525390625,1.0,-0.052490234375,-2.716064214706421,0.1831054538488388,0.6713866591453552,86.66667175292969,198302.0,1.0
18:21:03.396739,128099.90625,141186.40625,155473.46875,153319.203125,163044.09375,161036.09375,685755.125,125309.25,0.1123046875,1.002685546875,-0.052734375,-2.685546636581421,0.2441406100988388,0.6103515028953552,86.66667175292969,198303.0,1.0
18:21:03.402922,128119.3984375,141212.515625,155492.25,153332.609375,163065.734375,161059.609375,685799.1875,125320.0703125,0.112548828125,1.00244140625,-0.053466796875,-2.532958745956421,0.2746581733226776,0.7629393935203552,86.66667175292969,198304.0,1.0
18:21:03.402942,128121.453125,141216.1875,155508.328125,153342.09375,163087.1875,161082.328125,685416.5625,125330.53125,0.11083984375,1.00048828125,-0.054443359375,-2.502441167831421,0.3662109076976776,0.7019042372703552,86.66667175292969,198305.0,1.0
18:21:03.408573,128095.796875,141179.96875,155477.765625,153326.265625,163050.4375,161041.109375,685549.75,125316.3984375,0.1103515625,1.000244140625,-0.05322265625,-2.380370855331421,0.3662109076976776,0.5798339247703552,86.66667175292969,198306.0,1.0
18:21:03.419143,128097.5859375,141185.25,155473.5625,153323.59375,163044.453125,161034.765625,685746.4375,125311.3984375,0.111083984375,1.001220703125,-0.0517578125,-2.319335699081421,0.3967284858226776,0.5187987685203552,86.66667175292969,198307.0,1.0
18:21:03.419173,128116.09375,141211.0,155489.03125,153332.34375,163062.234375,161053.09375,685826.5625,125318.7265625,0.109619140625,1.002197265625,-0.05322265625,-2.166747808456421,0.3967284858226776,0.4577636420726776,86.66667175292969,198308.0,1.0
18:21:03.421775,128121.90625,141216.8125,155507.890625,153344.234375,163088.171875,161077.671875,685483.875,125337.6796875,0.110107421875,0.999267578125,-0.052001953125,-2.044677495956421,0.3356933295726776,0.5187987685203552,86.66667175292969,198309.0,1.0
18:21:03.421845,128097.40625,141185.421875,155481.421875,153328.859375,163056.078125,161044.859375,685484.5625,125322.484375,0.110595703125,0.9990234375,-0.05126953125,-2.075195074081421,0.3967284858226776,0.5187987685203552,86.66667175292969,198310.0,1.0
18:21:03.431446,128093.1171875,141179.796875,155470.25,153321.703125,163041.328125,161029.21875,685731.0,125311.0390625,0.110107421875,1.0,-0.0537109375,-2.014159917831421,0.3967284858226776,0.4577636420726776,86.66667175292969,198311.0,1.0
18:21:03.434399,128103.484375,141196.328125,155477.3125,153323.9375,163049.71875,161037.625,685825.5625,125309.25,0.108154296875,1.0029296875,-0.053955078125,-1.9836424589157104,0.3662109076976776,0.5187987685203552,86.66667175292969,198312.0,1.0
18:21:03.434461,128118.0625,141212.515625,155503.234375,153340.75,163083.796875,161071.953125,685551.125,125329.0078125,0.107666015625,1.00048828125,-0.05322265625,-1.9226073026657104,0.3967284858226776,0.4882812201976776,86.66667175292969,198313.0,1.0
18:21:03.436309,128098.4765625,141185.96875,155485.265625,153330.46875,163062.6875,161048.625,685431.1875,125319.6171875,0.10791015625,1.002685546875,-0.055908203125,-1.8005369901657104,0.3662109076976776,0.4272460639476776,86.66667175292969,198314.0,1.0
18:21:03.446734,128084.9765625,141171.484375,155463.90625,153314.5625,163036.578125,161023.859375,685710.6875,125302.8125,0.1064453125,1.00390625,-0.05419921875,-1.7395018339157104,0.3051757514476776,0.3967284858226776,86.66667175292969,198315.0,1.0
18:21:03.450919,128095.796875,141189.625,155470.6875,153318.125,163043.109375,161032.609375,685809.375,125303.2578125,0.105224609375,1.005615234375,-0.05126953125,-1.6174315214157104,0.2441406100988388,0.5187987685203552,86.66667175292969,198316.0,1.0
18:21:03.451002,128111.625,141207.0625,155495.90625,153333.25,163075.109375,161065.0625,685635.875,125322.03125,0.106201171875,1.005859375,-0.0517578125,-1.4953612089157104,0.2746581733226776,0.4272460639476776,86.66667175292969,198317.0,1.0
18:21:03.460063,128108.2265625,141200.09375,155497.78125,153340.65625,163076.375,161064.984375,685396.1875,125335.1796875,0.10546875,1.004638671875,-0.049560546875,-1.5869139432907104,0.2441406100988388,0.4577636420726776,86.66667175292969,198318.0,1.0
18:21:03.464509,128085.25,141174.078125,155467.46875,153317.59375,163041.671875,161030.640625,685687.625,125312.109375,0.10546875,1.006103515625,-0.049560546875,-1.6479490995407104,0.1220703050494194,0.3967284858226776,86.66667175292969,198319.0,1.0
18:21:03.464596,128095.9765625,141190.796875,155472.578125,153318.765625,163046.234375,161035.75,685799.75,125306.390625,0.10693359375,1.004638671875,-0.0498046875,-1.5563963651657104,0.1831054538488388,0.5493163466453552,86.66667175292969,198320.0,1.0
18:21:03.474802,128110.015625,141208.3125,155490.90625,153328.140625,163069.3125,161060.859375,685706.5,125316.4921875,0.107421875,1.004150390625,-0.051025390625,-1.5563963651657104,0.0610351525247097,0.6103515028953552,86.66667175292969,198321.0,1.0
18:21:03.474885,128098.125,141192.75,155487.953125,153327.15625,163067.96875,161058.28125,685369.25,125320.3359375,0.10498046875,1.00390625,-0.052978515625,-1.5258787870407104,0.0,0.6408690810203552,86.66667175292969,198322.0,1.0
18:21:03.476122,128072.375,141158.78125,155454.875,153308.296875,163027.90625,161015.984375,685652.5625,125299.5078125,0.106201171875,1.004638671875,-0.053955078125,-1.4953612089157104,0.03051757626235485,0.7324218153953552,86.66667175292969,198323.0,1.0
18:21:03.479923,128093.46875,141185.609375,155470.515625,153320.640625,163041.953125,161030.734375,685792.9375,125306.65625,0.106201171875,1.004638671875,-0.05322265625,-1.4038084745407104,-0.0610351525247097,0.7019042372703552,86.66667175292969,198324.0,1.0
18:21:03.491713,128108.9375,141204.5625,155487.859375,153329.84375,163060.453125,161052.46875,685773.375,125311.9296875,0.103515625,1.0048828125,-0.048583984375,-1.4343260526657104,-0.1831054538488388,0.7019042372703552,86.66667175292969,198325.0,1.0
18:21:03.491736,128114.484375,141206.96875,155505.46875,153344.5,163081.375,161071.59375,685395.6875,125327.4921875,0.105224609375,1.004150390625,-0.051513671875,-1.3427733182907104,-0.1831054538488388,0.7324218153953552,86.66667175292969,198326.0,1.0
18:21:03.530430,128086.3203125,141168.625,155470.0625,153325.28125,163039.625,161027.078125,685601.25,125311.84375,0.10546875,1.005126953125,-0.054931640625,-1.3427733182907104,-0.2136230319738388,0.7324218153953552,86.66667175292969,198327.0,1.0
18:21:03.530451,128093.203125,141179.4375,155470.34375,153325.46875,163039.265625,161028.328125,685773.4375,125310.234375,0.1064453125,1.00537109375,-0.05615234375,-1.4343260526657104,-0.1525878757238388,0.7934569716453552,86.66667175292969,198328.0,1.0
18:21:03.544186,128110.28125,141205.1875,155486.609375,153332.34375,163058.21875,161052.734375,685821.4375,125315.5078125,0.10693359375,1.00732421875,-0.054931640625,-1.4038084745407104,-0.1831054538488388,0.7324218153953552,86.66667175292969,198329.0,1.0
18:21:03.544202,128114.5703125,141208.578125,155504.40625,153341.46875,163081.734375,161074.09375,685440.6875,125327.21875,0.10693359375,1.006103515625,-0.054931640625,-1.3732908964157104,-0.0610351525247097,0.7934569716453552,86.66667175292969,198330.0,1.0
18:21:03.548551,128094.453125,141178.0,155478.5625,153331.453125,163049.375,161037.078125,685557.25,125316.671875,0.108154296875,1.00634765625,-0.052734375,-1.3122557401657104,-0.2136230319738388,0.9155272841453552,86.66667175292969,198331.0,1.0
18:21:03.551097,128094.9921875,141180.59375,155472.390625,153326.625,163040.875,161031.453125,685763.0625,125310.859375,0.109130859375,1.00537109375,-0.054931640625,-1.3427733182907104,-0.2441406100988388,0.9155272841453552,86.66667175292969,198332.0,1.0
18:21:03.553567,128094.6328125,141187.65625,155468.453125,153316.96875,163037.5625,161032.796875,685833.4375,125299.234375,0.111083984375,1.00439453125,-0.054443359375,-1.3427733182907104,-0.2136230319738388,0.8239745497703552,86.66667175292969,198333.0,1.0
18:21:03.556064,128106.4375,141199.828125,155492.59375,153332.796875,163067.703125,161064.078125,685509.1875,125317.5625,0.1103515625,1.0029296875,-0.051513671875,-1.3732908964157104,-0.1525878757238388,0.8239745497703552,86.66667175292969,198334.0,1.0
18:21:03.558791,128093.203125,141178.359375,155478.5625,153331.546875,163048.921875,161040.84375,685499.9375,125321.140625,0.10986328125,1.005859375,-0.053955078125,-1.2817381620407104,-0.1220703050494194,0.9155272841453552,86.66667175292969,198335.0,1.0
18:21:03.561075,128083.3671875,141166.734375,155461.21875,153319.109375,163028.53125,161019.203125,685743.0,125306.65625,0.1103515625,1.005859375,-0.055908203125,-1.2207030057907104,-0.0610351525247097,0.8850097060203552,86.66667175292969,198336.0,1.0
18:21:03.563649,128098.75,141191.421875,155472.484375,153323.859375,163041.953125,161036.28125,685846.0625,125308.8046875,0.11181640625,1.00439453125,-0.052734375,-1.1901854276657104,0.03051757626235485,0.9155272841453552,86.66667175292969,198337.0,1.0
18:21:03.566142,128112.25,141209.921875,155498.328125,153337.796875,163076.375,161071.6875,685592.0625,125325.4296875,0.11181640625,1.002197265625,-0.052734375,-1.1596678495407104,-0.03051757626235485,0.7934569716453552,86.66667175292969,198338.0,1.0
18:21:03.568640,128092.1328125,141181.578125,155480.265625,153328.59375,163055.265625,161046.65625,685443.5625,125317.4765625,0.11328125,1.00341796875,-0.05517578125,-1.1901854276657104,0.1220703050494194,0.7629393935203552,86.66667175292969,198339.0,1.0
18:21:03.571118,128073.265625,141157.796875,155452.1875,153309.109375,163022.09375,161013.125,685716.875,125297.71875,0.11328125,1.0048828125,-0.053955078125,-1.0986326932907104,0.0915527269244194,0.7019042372703552,86.66667175292969,198340.0,1.0
18:21:03.573923,128090.7890625,141181.5,155462.921875,153317.6875,163033.09375,161025.640625,685824.25,125302.0078125,0.114013671875,1.004638671875,-0.057861328125,-1.0986326932907104,0.1831054538488388,0.6408690810203552,86.66667175292969,198341.0,1.0
18:21:03.576116,128107.8671875,141201.25,155489.03125,153331.8125,163066.171875,161058.453125,685662.4375,125318.0078125,0.11376953125,1.001953125,-0.056884765625,-1.0681151151657104,0.2746581733226776,0.6408690810203552,86.66667175292969,198342.0,1.0
18:21:03.579551,128104.203125,141192.21875,155491.796875,153338.421875,163068.40625,161057.640625,685402.0625,125325.5234375,0.112548828125,1.001953125,-0.0546875,-1.0681151151657104,0.3051757514476776,0.4577636420726776,86.66667175292969,198343.0,1.0
18:21:03.579573,128090.5234375,141174.78125,155470.96875,153327.4375,163040.25,161029.9375,685699.4375,125314.1640625,0.11279296875,1.00146484375,-0.05615234375,-1.0070799589157104,0.3967284858226776,0.4272460639476776,86.66667175292969,198344.0,1.0
18:21:03.581085,128097.3203125,141187.296875,155471.953125,153324.390625,163041.765625,161030.375,685814.3125,125310.140625,0.11279296875,1.00390625,-0.05322265625,-1.0070799589157104,0.4882812201976776,0.4577636420726776,86.66667175292969,198345.0,1.0
18:21:03.584188,128108.046875,141202.140625,155487.953125,153330.375,163062.515625,161053.984375,685728.375,125317.203125,0.111328125,1.004150390625,-0.0517578125,-0.9765624403953552,0.4577636420726776,0.5187987685203552,86.66667175292969,198346.0,1.0
18:21:03.584200,128106.8828125,141196.78125,155495.1875,153337.09375,163071.546875,161063.375,685378.75,125326.953125,0.111572265625,1.004150390625,-0.05615234375,-0.8850097060203552,0.5187987685203552,0.3967284858226776,86.66667175292969,198347.0,1.0
18:21:03.586019,128083.90625,141164.59375,155464.265625,153319.921875,163033.453125,161022.6875,685633.0,125310.140625,0.111328125,1.00537109375,-0.053955078125,-0.8850097060203552,0.5187987685203552,0.3356933295726776,86.66667175292969,198348.0,1.0
18:21:03.589136,128097.4921875,141184.625,155472.84375,153329.125,163041.40625,161030.296875,685781.5625,125318.1015625,0.110107421875,1.004150390625,-0.052734375,-0.8850097060203552,0.5798339247703552,0.2441406100988388,86.66667175292969,198349.0,1.0
18:21:03.589162,128116.8984375,141208.3125,155494.296875,153342.0,163067.421875,161057.5625,685780.6875,125330.3515625,0.109130859375,1.003662109375,-0.05517578125,-0.8850097060203552,0.5798339247703552,0.2441406100988388,86.66667175292969,198350.0,1.0
18:21:03.591422,128114.6640625,141205.1875,155504.046875,153345.21875,163082.359375,161070.34375,685392.6875,125335.5390625,0.109375,1.005615234375,-0.05224609375,-0.9155272841453552,0.6408690810203552,0.1831054538488388,86.66667175292969,198351.0,1.0
18:21:03.602098,128088.2890625,141169.6875,155470.34375,153326.171875,163040.78125,161028.046875,685585.1875,125312.109375,0.106689453125,1.00537109375,-0.052490234375,-0.8850097060203552,0.6408690810203552,0.1525878757238388,86.66667175292969,198352.0,1.0
18:21:03.602116,128091.328125,141176.671875,155467.75,153324.5625,163037.03125,161025.28125,685761.625,125307.7265625,0.106689453125,1.0087890625,-0.052001953125,-0.9155272841453552,0.6103515028953552,0.1525878757238388,86.66667175292969,198353.0,1.0
18:21:03.604100,128099.1015625,141189.8125,155475.078125,153325.640625,163046.859375,161037.4375,685814.875,125308.8046875,0.107421875,1.007568359375,-0.05419921875,-0.9155272841453552,0.4882812201976776,0.1220703050494194,86.66667175292969,198354.0,1.0
18:21:03.604111,128111.625,141200.265625,155500.015625,153343.796875,163077.796875,161067.390625,685453.125,125328.921875,0.10693359375,1.009521484375,-0.054443359375,-1.0070799589157104,0.4272460639476776,0.1525878757238388,86.66667175292969,198355.0,1.0
18:21:03.609832,128089.8984375,141170.859375,155473.203125,153330.296875,163044.890625,161032.875,685544.8125,125317.3828125,0.107666015625,1.00927734375,-0.05517578125,-1.0681151151657104,0.5187987685203552,0.0915527269244194,86.66667175292969,198356.0,1.0
18:21:03.621727,128082.296875,141167.1875,155459.25,153318.40625,163028.625,161017.421875,685759.125,125305.2265625,0.1064453125,1.008544921875,-0.0537109375,-1.1596678495407104,0.4882812201976776,0.1220703050494194,86.66667175292969,198357.0,1.0
18:21:03.621753,128094.2734375,141182.921875,155467.65625,153321.796875,163039.796875,161028.046875,685853.0,125308.4453125,0.104736328125,1.007568359375,-0.052978515625,-1.1291502714157104,0.3051757514476776,0.1220703050494194,86.66667175292969,198358.0,1.0
18:21:03.623564,128099.4609375,141190.4375,155486.15625,153329.3125,163065.734375,161053.0,685525.4375,125318.1015625,0.103271484375,1.00634765625,-0.052490234375,-1.1901854276657104,0.2441406100988388,0.0610351525247097,86.66667175292969,198359.0,1.0
18:21:03.626067,128075.6796875,141157.171875,155460.59375,153316.078125,163034.890625,161019.109375,685485.8125,125305.765625,0.10205078125,1.005615234375,-0.051513671875,-1.2207030057907104,0.2746581733226776,0.03051757626235485,86.66667175292969,198360.0,1.0
18:21:03.637896,128062.8046875,141142.78125,155440.03125,153301.59375,163010.203125,160993.1875,685734.5,125290.296875,0.1025390625,1.00537109375,-0.053955078125,-1.2512205839157104,0.1525878757238388,-0.0610351525247097,86.66667175292969,198361.0,1.0
18:21:03.637921,128081.8515625,141168.625,155455.140625,153310.53125,163024.515625,161009.375,685834.5,125298.34375,0.099853515625,1.00634765625,-0.05126953125,-1.2207030057907104,0.03051757626235485,0.1220703050494194,86.66667175292969,198362.0,1.0
18:21:03.639821,128097.140625,141184.4375,155479.640625,153324.84375,163054.46875,161039.953125,685580.0625,125315.0625,0.101318359375,1.005126953125,-0.052734375,-1.1901854276657104,0.0,0.0915527269244194,86.66667175292969,198363.0,1.0
18:21:03.642329,128084.796875,141167.28125,155469.71875,153323.9375,163041.046875,161025.90625,685415.1875,125313.09375,0.10107421875,1.004638671875,-0.055908203125,-1.2512205839157104,-0.1525878757238388,0.0610351525247097,86.66667175292969,198364.0,1.0
18:21:03.645102,128071.75,141151.1875,155448.875,153311.609375,163017.0,161000.875,685709.5,125300.7578125,0.099853515625,1.004150390625,-0.05615234375,-1.2512205839157104,-0.2136230319738388,0.0,86.66667175292969,198365.0,1.0
18:21:03.648818,128089.1796875,141175.140625,155462.921875,153319.203125,163031.03125,161014.203125,685819.4375,125305.046875,0.100341796875,1.006103515625,-0.05712890625,-1.2512205839157104,-0.3662109076976776,0.0,86.66667175292969,198366.0,1.0
18:21:03.664224,128104.0234375,141192.671875,155487.59375,153332.4375,163061.4375,161044.140625,685676.25,125318.90625,0.102783203125,1.00439453125,-0.0556640625,-1.1901854276657104,-0.4272460639476776,0.1525878757238388,86.66667175292969,198367.0,1.0
18:21:03.664269,128093.203125,141175.59375,155483.921875,153332.078125,163058.125,161037.625,685396.0625,125319.4453125,0.10498046875,1.003173828125,-0.0556640625,-1.1596678495407104,-0.4882812201976776,0.2746581733226776,86.66667175292969,198368.0,1.0
18:21:03.667274,128075.59375,141153.59375,155456.75,153317.59375,163026.5625,161007.140625,685699.0625,125307.90625,0.105224609375,1.002197265625,-0.0576171875,-1.0070799589157104,-0.6103515028953552,0.3356933295726776,86.66667175292969,198369.0,1.0
18:21:03.667297,128081.578125,141167.984375,155457.1875,153314.109375,163026.390625,161011.78125,685820.3125,125300.6640625,0.1044921875,1.00048828125,-0.061279296875,-0.9460448622703552,-0.6103515028953552,0.3967284858226776,86.66667175292969,198370.0,1.0
18:21:03.669033,128097.046875,141189.09375,155477.21875,153324.296875,163050.34375,161038.875,685756.75,125311.0390625,0.10546875,1.00048828125,-0.05615234375,-0.8850097060203552,-0.6713866591453552,0.4882812201976776,86.66667175292969,198371.0,1.0
18:21:03.671483,128097.3203125,141187.75,155486.875,153332.34375,163064.03125,161050.9375,685396.6875,125321.5859375,0.1005859375,1.00146484375,-0.057373046875,-0.8239745497703552,-0.7629393935203552,0.5187987685203552,86.66667175292969,198372.0,1.0
18:21:03.680009,128072.28125,141151.71875,155452.640625,153314.28125,163022.28125,161005.796875,685647.6875,125302.8984375,0.099853515625,1.004150390625,-0.059326171875,-0.7324218153953552,-0.8544921278953552,0.4882812201976776,86.66667175292969,198373.0,1.0
