Timestamp,Fz,FC3,FCz,FC4,Cz,C3,C4
18:12:18.636347,137117.40625,144573.234375,162413.6875,159289.09375,182238.15625,179700.703125,686120.25,132608.171875,0.048583984375,1.002685546875,-0.109619140625,-2.746581792831421,-0.2746581733226776,0.2441406100988388,86.66667175292969,67012.0,1.0
18:12:18.648223,137101.9375,144540.953125,162406.703125,159307.5,182228.953125,179682.28125,686055.6875,132632.390625,0.04833984375,1.001708984375,-0.1103515625,-2.655029058456421,-0.2441406100988388,0.1220703050494194,86.66667175292969,67013.0,1.0
18:12:18.651323,137098.09375,144538.1875,162399.296875,159289.625,182217.953125,179674.328125,686065.625,132616.921875,0.04833984375,1.001953125,-0.10791015625,-2.532958745956421,-0.1220703050494194,-0.0610351525247097,86.66667175292969,67014.0,1.0
18:12:18.651329,137108.828125,144560.1875,162399.203125,159284.625,182213.671875,179674.59375,686194.625,132605.21875,0.045654296875,1.003662109375,-0.10595703125,-2.471923589706421,-0.03051757626235485,-0.03051757626235485,86.66667175292969,67015.0,1.0
18:12:18.653289,137111.6875,144563.21875,162406.53125,159284.625,182227.703125,179686.84375,686177.6875,132602.71875,0.044189453125,1.002197265625,-0.108642578125,-2.349853277206421,0.0915527269244194,0.0610351525247097,86.66667175292969,67016.0,1.0
18:12:18.656949,137087.453125,144530.140625,162392.859375,159276.296875,182215.28125,179674.15625,686050.875,132600.5625,0.04248046875,1.005615234375,-0.10693359375,-2.349853277206421,0.03051757626235485,-0.1220703050494194,86.66667175292969,67017.0,1.0
18:12:18.684059,137082.359375,144521.109375,162383.28125,159274.875,182202.75,179660.296875,686065.0,132602.53125,0.043701171875,1.0048828125,-0.108642578125,-2.288818120956421,0.1525878757238388,-0.1831054538488388,86.66667175292969,67018.0,1.0
18:12:18.684115,137098.90625,144550.34375,162390.4375,159275.765625,182206.875,179668.78125,686160.875,132598.515625,0.0439453125,1.003173828125,-0.106689453125,-2.166747808456421,0.2746581733226776,-0.0610351525247097,86.66667175292969,67019.0,1.0
18:12:18.710782,137104.53125,144559.109375,162397.140625,159271.03125,182218.3125,179681.84375,686230.0,132594.125,0.043701171875,1.00390625,-0.1083984375,-2.136230230331421,0.3051757514476776,-0.0915527269244194,86.66667175292969,67020.0,1.0
18:12:18.710828,137091.921875,144538.546875,162396.703125,159277.828125,182222.0625,179680.234375,686066.0625,132609.859375,0.04345703125,1.0068359375,-0.107666015625,-2.014159917831421,0.3967284858226776,-0.2136230319738388,86.66667175292969,67021.0,1.0
18:12:18.710843,137076.734375,144514.140625,162379.703125,159273.890625,182200.515625,179655.015625,686089.625,132606.296875,0.042724609375,1.0048828125,-0.106201171875,-2.014159917831421,0.3967284858226776,-0.1220703050494194,86.66667175292969,67022.0,1.0
18:12:18.713205,137085.40625,144532.90625,162378.375,159268.078125,182195.25,179653.046875,686148.0,132587.96875,0.041748046875,1.0048828125,-0.105224609375,-1.8920897245407104,0.4577636420726776,-0.1525878757238388,86.66667175292969,67023.0,1.0
18:12:18.715737,137103.734375,144556.875,162393.203125,159272.8125,182210.796875,179674.328125,686280.3125,132591.53125,0.039306640625,1.0078125,-0.104248046875,-1.9226073026657104,0.4272460639476776,-0.1220703050494194,86.66667175292969,67024.0,1.0
18:12:18.718235,137091.03125,144537.296875,162393.390625,159269.0625,182214.921875,179676.5625,686100.3125,132591.265625,0.03759765625,1.006103515625,-0.10498046875,-1.8310545682907104,0.3662109076976776,-0.1831054538488388,86.66667175292969,67025.0,1.0
18:12:18.720712,137066.796875,144501.703125,162370.328125,159261.1875,182188.546875,179644.828125,686120.1875,132588.859375,0.036376953125,1.004638671875,-0.1064453125,-1.7700194120407104,0.4577636420726776,-0.2136230319738388,86.66667175292969,67026.0,1.0
18:12:18.726986,137077.4375,144524.515625,162374.34375,159267.71875,182191.21875,179651.265625,686147.875,132593.59375,0.0361328125,1.0048828125,-0.107177734375,-1.8310545682907104,0.3356933295726776,-0.2441406100988388,86.66667175292969,67027.0,1.0
18:12:18.729511,137092.46875,144547.484375,162381.765625,159267.71875,182198.90625,179662.96875,686314.4375,132589.578125,0.03759765625,1.0068359375,-0.101806640625,-1.8005369901657104,0.3356933295726776,-0.1831054538488388,86.66667175292969,67028.0,1.0
18:12:18.731987,137086.921875,144539.34375,162388.65625,159265.3125,182211.421875,179674.421875,686143.9375,132589.921875,0.03662109375,1.006103515625,-0.1044921875,-1.7700194120407104,0.1831054538488388,-0.1525878757238388,86.66667175292969,67029.0,1.0
18:12:18.734449,137068.765625,144508.421875,162373.890625,159270.484375,182191.671875,179651.34375,686154.75,132595.921875,0.036865234375,1.007568359375,-0.105224609375,-1.7700194120407104,0.0915527269244194,0.0,86.66667175292969,67030.0,1.0
18:12:18.736980,137076.1875,144520.390625,162375.234375,159271.75,182189.796875,179649.296875,686167.5,132595.296875,0.036865234375,1.008056640625,-0.10595703125,-1.7700194120407104,0.0610351525247097,0.1220703050494194,86.66667175292969,67031.0,1.0
18:12:18.739496,137105.078125,144558.84375,162393.203125,159273.0,182207.578125,179670.125,686364.25,132595.203125,0.0341796875,1.01171875,-0.103515625,-1.7089842557907104,0.0610351525247097,0.2746581733226776,86.66667175292969,67032.0,1.0
18:12:18.742646,137103.46875,144555.984375,162402.234375,159276.03125,182225.203125,179687.5625,686200.4375,132598.78125,0.03369140625,1.00927734375,-0.103515625,-1.7700194120407104,0.03051757626235485,0.2136230319738388,86.66667175292969,67033.0,1.0
18:12:18.742657,137076.375,144515.203125,162382.75,159270.578125,182202.578125,179658.0625,686172.5625,132599.765625,0.0322265625,1.00927734375,-0.104736328125,-1.8310545682907104,-0.03051757626235485,0.2136230319738388,86.66667175292969,67034.0,1.0
18:12:18.744462,137069.484375,144510.5625,162369.609375,159259.578125,182185.765625,179640.890625,686189.4375,132586.171875,0.033447265625,1.00830078125,-0.1064453125,-1.7395018339157104,-0.0610351525247097,0.3356933295726776,86.66667175292969,67035.0,1.0
18:12:18.749494,137083.609375,144537.921875,162373.625,159257.34375,182187.640625,179648.40625,686373.3125,132582.859375,0.0341796875,1.009033203125,-0.1044921875,-1.7089842557907104,-0.1220703050494194,0.3967284858226776,86.66667175292969,67036.0,1.0
18:12:18.752550,137085.9375,144538.8125,162384.0,159261.46875,182206.421875,179663.421875,686255.4375,132586.171875,0.034912109375,1.007568359375,-0.107421875,-1.7089842557907104,-0.1831054538488388,0.5187987685203552,86.66667175292969,67037.0,1.0
18:12:18.752562,137064.84375,144506.625,162371.484375,159256.640625,182192.828125,179648.9375,686179.1875,132583.671875,0.036865234375,1.00537109375,-0.107666015625,-1.6784666776657104,-0.3051757514476776,0.5798339247703552,86.66667175292969,67038.0,1.0
18:12:18.754492,137066.984375,144505.375,162368.625,159258.0625,182185.140625,179639.546875,686226.1875,132587.328125,0.036865234375,1.005859375,-0.1064453125,-1.6479490995407104,-0.3662109076976776,0.5798339247703552,86.66667175292969,67039.0,1.0
18:12:18.757515,137089.15625,144539.625,162379.0,159264.140625,182192.203125,179650.015625,686396.5625,132590.203125,0.038818359375,1.0048828125,-0.106201171875,-1.6784666776657104,-0.3662109076976776,0.7019042372703552,86.66667175292969,67040.0,1.0
18:12:18.757522,137091.03125,144548.921875,162386.421875,159261.109375,182206.59375,179668.875,686347.6875,132586.359375,0.039794921875,1.00439453125,-0.107666015625,-1.6479490995407104,-0.2746581733226776,0.6408690810203552,86.66667175292969,67041.0,1.0
18:12:18.759435,137065.375,144510.109375,162371.84375,159256.640625,182192.828125,179651.0,686189.4375,132585.453125,0.041259765625,1.005615234375,-0.108154296875,-1.5869139432907104,-0.2441406100988388,0.6408690810203552,86.66667175292969,67042.0,1.0
18:12:18.763792,137057.6875,144496.796875,162360.578125,159252.703125,182176.921875,179634.984375,686250.8125,132582.953125,0.04150390625,1.0048828125,-0.107177734375,-1.5563963651657104,-0.2136230319738388,0.6713866591453552,86.66667175292969,67043.0,1.0
18:12:18.763815,137082.71875,144532.5625,162374.609375,159260.921875,182187.5625,179648.484375,686395.8125,132588.59375,0.041259765625,1.00390625,-0.10595703125,-1.5869139432907104,-0.1831054538488388,0.7324218153953552,86.66667175292969,67044.0,1.0
18:12:18.773192,137094.4375,144548.921875,162385.875,159265.125,182202.125,179664.765625,686435.1875,132590.46875,0.039794921875,1.005126953125,-0.10791015625,-1.5258787870407104,-0.0915527269244194,0.7934569716453552,86.66667175292969,67045.0,1.0
18:12:18.777596,137083.4375,144529.15625,162387.84375,159268.53125,182207.765625,179667.359375,686215.9375,132594.3125,0.041259765625,1.003662109375,-0.109130859375,-1.4648436307907104,-0.0610351525247097,0.7629393935203552,86.66667175292969,67046.0,1.0
18:12:18.777627,137067.96875,144503.859375,162372.5625,159267.265625,182187.828125,179644.015625,686283.875,132593.859375,0.0439453125,1.006591796875,-0.109375,-1.4953612089157104,-0.0915527269244194,0.8239745497703552,86.66667175292969,67047.0,1.0
18:12:18.783801,137079.140625,144527.546875,162373.625,159264.140625,182185.859375,179647.0625,686404.0625,132589.21875,0.04248046875,1.0087890625,-0.10595703125,-1.3427733182907104,-0.0915527269244194,0.7019042372703552,86.66667175292969,67048.0,1.0
18:12:18.783825,137092.546875,144544.265625,162381.671875,159271.5625,182195.421875,179658.328125,686528.875,132591.359375,0.04345703125,1.00927734375,-0.105712890625,-1.4343260526657104,0.0915527269244194,0.7629393935203552,86.66667175292969,67049.0,1.0
18:12:18.785702,137083.34375,144532.28125,162385.96875,159261.015625,182203.296875,179668.34375,686239.0625,132587.78125,0.040771484375,1.008544921875,-0.1064453125,-1.3427733182907104,0.1220703050494194,0.7629393935203552,86.66667175292969,67050.0,1.0
18:12:18.802080,137061.703125,144500.28125,162365.40625,159255.828125,182178.171875,179639.015625,686290.875,132591.53125,0.04150390625,1.0068359375,-0.105224609375,-1.4343260526657104,0.2136230319738388,0.6408690810203552,86.66667175292969,67051.0,1.0
18:12:18.805057,137063.578125,144509.9375,162359.234375,159246.171875,182170.84375,179631.6875,686405.9375,132577.765625,0.04296875,1.00634765625,-0.104736328125,-1.4038084745407104,0.2746581733226776,0.5798339247703552,86.66667175292969,67052.0,1.0
18:12:18.805079,137076.546875,144533.8125,162365.140625,159240.625,182179.59375,179643.484375,686578.5,132568.203125,0.043212890625,1.005615234375,-0.104736328125,-1.3732908964157104,0.3051757514476776,0.6408690810203552,86.66667175292969,67053.0,1.0
18:12:18.807119,137081.203125,144536.125,162383.375,159255.03125,182205.890625,179668.25,686274.5,132583.765625,0.04296875,1.0068359375,-0.10888671875,-1.4343260526657104,0.3662109076976776,0.5493163466453552,86.66667175292969,67054.0,1.0
18:12:18.809508,137063.5,144502.15625,162370.328125,159258.6875,182189.171875,179642.234375,686258.125,132594.75,0.04443359375,1.00732421875,-0.108154296875,-1.4038084745407104,0.4272460639476776,0.5798339247703552,86.66667175292969,67055.0,1.0
18:12:18.817595,137066.625,144510.203125,162367.015625,159254.9375,182184.421875,179636.6875,686323.6875,132590.90625,0.043212890625,1.008056640625,-0.109130859375,-1.4953612089157104,0.5493163466453552,0.4577636420726776,86.66667175292969,67056.0,1.0
18:12:18.817617,137081.921875,144533.8125,162372.5625,159254.3125,182188.8125,179645.53125,686495.5,132582.15625,0.0419921875,1.008544921875,-0.108154296875,-1.5869139432907104,0.6408690810203552,0.5187987685203552,86.66667175292969,67057.0,1.0
18:12:18.823239,137082.890625,144537.109375,162384.453125,159258.6875,182207.9375,179665.125,686276.0,132587.421875,0.041748046875,1.009765625,-0.108154296875,-1.6174315214157104,0.6408690810203552,0.3662109076976776,86.66667175292969,67058.0,1.0
18:12:18.827630,137065.640625,144505.203125,162372.828125,159260.921875,182192.5625,179645.359375,686191.6875,132592.15625,0.04052734375,1.0087890625,-0.10791015625,-1.5869139432907104,0.6408690810203552,0.3967284858226776,86.66667175292969,67059.0,1.0
18:12:18.827660,137062.328125,144507.15625,162364.953125,159254.578125,182180.578125,179638.203125,686234.25,132588.59375,0.039306640625,1.0087890625,-0.10693359375,-1.6784666776657104,0.7019042372703552,0.3356933295726776,86.66667175292969,67060.0,1.0
18:12:18.833227,137078.78125,144534.078125,162370.046875,159255.375,182181.65625,179643.75,686405.8125,132583.9375,0.038818359375,1.0078125,-0.1083984375,-1.7089842557907104,0.7934569716453552,0.3051757514476776,86.66667175292969,67061.0,1.0
18:12:18.849536,137075.296875,144530.765625,162373.453125,159252.15625,182192.5625,179653.140625,686287.0,132580.359375,0.038330078125,1.008544921875,-0.10791015625,-1.6784666776657104,0.8239745497703552,0.3356933295726776,86.66667175292969,67062.0,1.0
18:12:18.849559,137051.34375,144496.4375,162359.859375,159245.015625,182179.328125,179636.421875,686174.8125,132578.390625,0.03662109375,1.01025390625,-0.10693359375,-1.7395018339157104,0.7934569716453552,0.3356933295726776,86.66667175292969,67063.0,1.0
18:12:18.849565,137044.8125,144489.546875,162350.203125,159237.40625,182166.640625,179624.53125,686184.9375,132579.296875,0.034912109375,1.00927734375,-0.105224609375,-1.7089842557907104,0.7934569716453552,0.3662109076976776,86.66667175292969,67064.0,1.0
18:12:18.852021,137066.890625,144520.484375,162360.125,159249.125,182173.703125,179633.734375,686319.375,132582.859375,0.03369140625,1.009521484375,-0.106201171875,-1.7089842557907104,0.7019042372703552,0.3967284858226776,86.66667175292969,67065.0,1.0
18:12:18.854452,137070.828125,144527.8125,162367.375,159243.046875,182187.109375,179647.5,686305.6875,132575.890625,0.03271484375,1.0087890625,-0.10595703125,-1.8005369901657104,0.6713866591453552,0.4272460639476776,86.66667175292969,67066.0,1.0
18:12:18.859465,137057.140625,144502.515625,162363.890625,159244.03125,182184.34375,179641.34375,686154.875,132575.796875,0.03173828125,1.009521484375,-0.10791015625,-1.8005369901657104,0.5798339247703552,0.4882812201976776,86.66667175292969,67067.0,1.0
18:12:18.861987,137043.296875,144483.5625,162347.4375,159241.34375,182161.984375,179619.078125,686163.375,132571.59375,0.02978515625,1.01025390625,-0.109130859375,-1.7700194120407104,0.4882812201976776,0.5187987685203552,86.66667175292969,67068.0,1.0
18:12:18.865750,137060.09375,144511.984375,162353.953125,159251.265625,182164.140625,179625.328125,686245.375,132573.484375,0.028076171875,1.009033203125,-0.1123046875,-1.8615721464157104,0.3662109076976776,0.5798339247703552,86.66667175292969,67069.0,1.0
18:12:18.870081,137080.578125,144537.828125,162370.328125,159245.90625,182183.625,179649.921875,686321.8125,132569.0,0.02783203125,1.007080078125,-0.110107421875,-1.8005369901657104,0.2441406100988388,0.7019042372703552,86.66667175292969,67070.0,1.0
18:12:18.870102,137078.78125,144526.03125,162380.25,159260.484375,182196.59375,179658.5,686151.8125,132586.625,0.029052734375,1.003662109375,-0.109375,-1.8310545682907104,0.1525878757238388,0.8544921278953552,86.66667175292969,67071.0,1.0
18:12:18.879517,137058.9375,144500.375,162361.65625,159252.703125,182173.15625,179636.515625,686154.5,132582.859375,0.0283203125,1.005126953125,-0.110107421875,-1.7700194120407104,0.0,0.9460448622703552,86.66667175292969,67072.0,1.0
18:12:18.883832,137070.015625,144523.609375,162364.78125,159249.296875,182174.421875,179642.234375,686205.375,132577.40625,0.030029296875,1.0048828125,-0.106689453125,-1.7700194120407104,-0.1831054538488388,0.9155272841453552,86.66667175292969,67073.0,1.0
18:12:18.883840,137081.734375,144540.25,162371.484375,159246.171875,182182.46875,179649.65625,686339.6875,132572.9375,0.029052734375,1.00634765625,-0.107177734375,-1.6784666776657104,-0.2136230319738388,1.0375975370407104,86.66667175292969,67074.0,1.0
18:12:18.893223,137071.984375,144525.578125,162375.5,159246.078125,182192.5625,179656.0,686144.875,132576.515625,0.030029296875,1.005615234375,-0.10546875,-1.7700194120407104,-0.2746581733226776,1.0681151151657104,86.66667175292969,67075.0,1.0
18:12:18.897739,137062.609375,144505.203125,162368.890625,159254.671875,182180.671875,179641.515625,686142.0625,132591.71875,0.03271484375,1.0048828125,-0.107177734375,-1.7395018339157104,-0.4272460639476776,1.1901854276657104,86.66667175292969,67076.0,1.0
18:12:18.897760,137065.640625,144515.296875,162365.21875,159248.3125,182173.796875,179635.25,686151.9375,132585.375,0.031005859375,1.004638671875,-0.109130859375,-1.6174315214157104,-0.5493163466453552,1.1596678495407104,86.66667175292969,67077.0,1.0
18:12:18.899598,137082.1875,144538.09375,162371.84375,159248.40625,182179.953125,179643.578125,686322.3125,132571.875,0.030517578125,1.00537109375,-0.1083984375,-1.5258787870407104,-0.6713866591453552,1.1291502714157104,86.66667175292969,67078.0,1.0
18:12:18.911337,137079.046875,144534.4375,162379.890625,159249.921875,182195.875,179661.0,686156.8125,132573.921875,0.031982421875,1.005126953125,-0.1044921875,-1.4343260526657104,-0.8239745497703552,1.1596678495407104,86.66667175292969,67079.0,1.0
18:12:18.911357,137053.03125,144497.953125,162360.046875,159246.359375,182173.796875,179634.546875,686119.0,132577.953125,0.030029296875,1.0048828125,-0.107177734375,-1.4343260526657104,-0.9155272841453552,1.1291502714157104,86.66667175292969,67080.0,1.0
18:12:18.913211,137047.40625,144499.125,162350.921875,159240.359375,182162.796875,179623.8125,686089.9375,132568.921875,0.03369140625,1.003662109375,-0.1064453125,-1.3427733182907104,-0.9765624403953552,1.1291502714157104,86.66667175292969,67081.0,1.0
18:12:18.917030,137069.21875,144530.328125,162362.1875,159249.65625,182170.21875,179635.25,686259.625,132571.25,0.0341796875,1.004638671875,-0.109130859375,-1.2817381620407104,-1.0681151151657104,1.2817381620407104,86.66667175292969,67082.0,1.0
18:12:18.926366,137071.90625,144533.890625,162373.0,159247.25,182187.5625,179653.3125,686154.5,132571.59375,0.03662109375,1.004638671875,-0.11181640625,-1.2512205839157104,-1.0986326932907104,1.2512205839157104,86.66667175292969,67083.0,1.0
18:12:18.926394,137050.71875,144498.484375,162360.21875,159245.453125,182174.140625,179633.921875,686078.25,132578.84375,0.0380859375,1.00439453125,-0.110107421875,-1.1901854276657104,-1.1901854276657104,1.2817381620407104,86.66667175292969,67084.0,1.0
18:12:18.928868,137048.75,144497.59375,162354.140625,159241.171875,182164.9375,179624.625,686070.1875,132572.578125,0.039306640625,1.00634765625,-0.110595703125,-1.0986326932907104,-1.1901854276657104,1.2207030057907104,86.66667175292969,67085.0,1.0
18:12:18.928889,137071.71875,144528.265625,162363.890625,159248.234375,182169.859375,179631.859375,686187.9375,132570.96875,0.042724609375,1.005859375,-0.11083984375,-1.0375975370407104,-1.1291502714157104,1.4038084745407104,86.66667175292969,67086.0,1.0
18:12:18.938211,137082.1875,144539.34375,162379.53125,159259.40625,182191.765625,179653.5,686147.0625,132583.140625,0.043212890625,1.00390625,-0.1103515625,-1.0375975370407104,-1.1291502714157104,1.2512205839157104,86.66667175292969,67087.0,1.0
18:12:18.945125,137065.828125,144512.890625,162372.921875,159251.8125,182184.875,179645.265625,686030.125,132581.96875,0.042724609375,1.000732421875,-0.113525390625,-1.0070799589157104,-1.0681151151657104,1.3732908964157104,86.66667175292969,67088.0,1.0
18:12:18.945236,137053.03125,144497.859375,162356.28125,159243.578125,182164.84375,179625.421875,686121.625,132574.015625,0.043701171875,1.0009765625,-0.112060546875,-0.9155272841453552,-1.0375975370407104,1.4343260526657104,86.66667175292969,67089.0,1.0
18:12:18.947062,137070.015625,144525.84375,162362.0,159247.25,182168.15625,179630.78125,686153.875,132572.5,0.04345703125,1.00146484375,-0.11181640625,-0.7629393935203552,-0.9765624403953552,1.4953612089157104,86.66667175292969,67090.0,1.0
18:12:18.950728,137087.546875,144546.140625,162382.21875,159256.28125,182193.8125,179655.90625,686148.0625,132581.4375,0.042724609375,1.0029296875,-0.110107421875,-0.8544921278953552,-0.8544921278953552,1.5869139432907104,86.66667175292969,67091.0,1.0
18:12:18.966310,137063.9375,144511.359375,162370.953125,159253.0625,182185.59375,179642.859375,685973.8125,132585.09375,0.043212890625,1.00439453125,-0.1123046875,-0.7934569716453552,-0.7629393935203552,1.3732908964157104,86.66667175292969,67092.0,1.0
18:12:18.966321,137040.078125,144479.09375,162345.28125,159239.015625,182155.734375,179609.15625,686141.375,132571.421875,0.04248046875,1.005126953125,-0.110595703125,-0.8544921278953552,-0.8239745497703552,1.3427733182907104,86.66667175292969,67093.0,1.0
18:12:18.968813,137053.65625,144505.015625,162347.796875,159237.671875,182154.921875,179613.359375,686171.0625,132561.40625,0.041259765625,1.00390625,-0.111572265625,-0.9155272841453552,-0.6713866591453552,1.2817381620407104,86.66667175292969,67094.0,1.0
18:12:18.968835,137074.9375,144532.28125,162365.578125,159246.171875,182174.234375,179637.765625,686148.6875,132567.84375,0.038330078125,1.001953125,-0.112060546875,-0.9460448622703552,-0.7019042372703552,1.2512205839157104,86.66667175292969,67095.0,1.0
18:12:18.978836,137068.59375,144516.28125,162371.9375,159255.03125,182185.328125,179645.359375,685953.8125,132577.234375,0.0400390625,1.00146484375,-0.11376953125,-0.8850097060203552,-0.5798339247703552,1.0681151151657104,86.66667175292969,67096.0,1.0
18:12:18.978858,137049.453125,144488.65625,162355.75,159248.859375,182166.90625,179622.828125,686110.0,132577.328125,0.04248046875,1.0009765625,-0.11328125,-0.8544921278953552,-0.6103515028953552,1.1291502714157104,86.66667175292969,67097.0,1.0
18:12:18.985105,137060.453125,144514.3125,162360.671875,159248.9375,182169.9375,179630.421875,686162.75,132579.921875,0.047119140625,1.00439453125,-0.113037109375,-0.9155272841453552,-0.5187987685203552,1.1901854276657104,86.66667175292969,67098.0,1.0
18:12:18.985126,137075.03125,144534.875,162368.09375,159248.046875,182178.96875,179640.703125,686180.25,132574.109375,0.04833984375,1.00634765625,-0.11669921875,-0.8239745497703552,-0.3967284858226776,1.3122557401657104,86.66667175292969,67099.0,1.0
18:12:18.991287,137069.84375,144526.65625,162375.0625,159255.109375,182194.359375,179654.75,685997.9375,132582.5,0.05078125,1.006591796875,-0.115478515625,-0.8544921278953552,-0.2441406100988388,1.3427733182907104,86.66667175292969,67100.0,1.0
18:12:18.991308,137041.0625,144487.3125,162348.859375,159238.3125,182163.5,179621.84375,686061.875,132570.53125,0.051025390625,1.007568359375,-0.1162109375,-0.8239745497703552,-0.1831054538488388,1.4038084745407104,86.66667175292969,67101.0,1.0
18:12:18.993202,137044.359375,144498.484375,162345.375,159233.03125,182155.90625,179616.484375,686168.125,132563.109375,0.050537109375,1.009033203125,-0.115478515625,-0.7934569716453552,-0.0915527269244194,1.4343260526657104,86.66667175292969,67102.0,1.0
18:12:19.013772,137062.421875,144524.515625,162353.515625,159234.375,182162.34375,179626.5,686208.9375,132561.140625,0.04736328125,1.008544921875,-0.118896484375,-0.7629393935203552,0.1220703050494194,1.4038084745407104,86.66667175292969,67103.0,1.0
18:12:19.014527,137068.6875,144528.890625,162369.875,159243.84375,182185.328125,179649.109375,686054.4375,132573.921875,0.046630859375,1.006103515625,-0.11767578125,-0.7019042372703552,0.2441406100988388,1.4038084745407104,86.66667175292969,67104.0,1.0
18:12:19.014543,137071.453125,144518.15625,162376.21875,159264.328125,182186.65625,179647.328125,686051.125,132596.28125,0.045654296875,1.0078125,-0.11865234375,-0.6713866591453552,0.3662109076976776,1.3122557401657104,86.66667175292969,67105.0,1.0
18:12:19.014550,137069.484375,144518.703125,162368.71875,159259.046875,182175.75,179636.234375,686156.1875,132593.5,0.0439453125,1.00927734375,-0.11572265625,-0.6713866591453552,0.3967284858226776,1.2207030057907104,86.66667175292969,67106.0,1.0
18:12:19.019406,137083.4375,144541.859375,162373.453125,159271.296875,182177.359375,179640.53125,686202.0625,132591.53125,0.04150390625,1.009765625,-0.113525390625,-0.6713866591453552,0.4577636420726776,1.2207030057907104,86.66667175292969,67107.0,1.0
18:12:19.019425,137080.21875,144539.890625,162380.0625,159259.40625,182193.09375,179653.859375,686086.5,132581.53125,0.041748046875,1.012939453125,-0.11474609375,-0.7629393935203552,0.4577636420726776,1.1901854276657104,86.66667175292969,67108.0,1.0
18:12:19.024444,137068.328125,144516.46875,162375.6875,159256.359375,182186.84375,179646.25,686020.3125,132588.671875,0.0400390625,1.013916015625,-0.107666015625,-1.0375975370407104,0.4882812201976776,1.0070799589157104,86.66667175292969,67109.0,1.0
18:12:19.028228,137057.59375,144504.921875,162359.765625,159245.375,182167.4375,179627.484375,686138.5,132578.65625,0.04052734375,1.013427734375,-0.11083984375,-1.0986326932907104,0.4882812201976776,0.8850097060203552,86.66667175292969,67110.0,1.0
18:12:19.065811,137071.09375,144527.375,162360.3125,159245.375,182165.390625,179627.03125,686182.75,132571.25,0.039794921875,1.011474609375,-0.109619140625,-1.2817381620407104,0.6408690810203552,0.7629393935203552,86.66667175292969,67111.0,1.0
18:12:19.069521,137071.546875,144532.5625,162366.921875,159241.703125,182178.96875,179644.015625,686129.8125,132567.84375,0.039794921875,1.01025390625,-0.10986328125,-1.3732908964157104,0.6408690810203552,0.7019042372703552,86.66667175292969,67112.0,1.0
18:12:19.069550,137055.71875,144508.140625,162362.984375,159245.375,182173.875,179637.21875,685995.0,132576.15625,0.04248046875,1.010498046875,-0.110107421875,-1.3427733182907104,0.5187987685203552,0.5187987685203552,86.66667175292969,67113.0,1.0
18:12:19.069561,137044.453125,144491.34375,162348.421875,159238.3125,182152.953125,179614.6875,686116.0,132570.609375,0.04345703125,1.01220703125,-0.109619140625,-1.4038084745407104,0.4272460639476776,0.4882812201976776,86.66667175292969,67114.0,1.0
18:12:19.076230,137066.171875,144523.078125,162358.875,159247.15625,182159.21875,179623.984375,686172.125,132572.765625,0.04443359375,1.01171875,-0.108642578125,-1.4953612089157104,0.3967284858226776,0.4272460639476776,86.66667175292969,67115.0,1.0
18:12:19.076255,137073.78125,144535.140625,162366.484375,159246.078125,182172.8125,179641.421875,686184.375,132572.046875,0.0458984375,1.01171875,-0.109130859375,-1.5869139432907104,0.3356933295726776,0.4272460639476776,86.66667175292969,67116.0,1.0
18:12:19.076264,137055.453125,144509.84375,162362.625,159246.078125,182173.96875,179637.578125,686018.0625,132578.65625,0.046630859375,1.012939453125,-0.10888671875,-1.7395018339157104,0.4272460639476776,0.4882812201976776,86.66667175292969,67117.0,1.0
18:12:19.076270,137034.53125,144484.453125,162343.953125,159234.453125,182150.453125,179611.296875,686100.75,132570.078125,0.044921875,1.012939453125,-0.10986328125,-1.8615721464157104,0.3967284858226776,0.5798339247703552,86.66667175292969,67118.0,1.0
18:12:19.104266,137054.640625,144516.640625,162355.5625,159244.46875,182159.21875,179622.03125,686137.4375,132580.546875,0.0439453125,1.0107421875,-0.107666015625,-1.9226073026657104,0.4272460639476776,0.7019042372703552,86.66667175292969,67119.0,1.0
18:12:19.117134,137075.484375,144544.0,162372.640625,159249.84375,182178.703125,179644.90625,686215.5,132583.9375,0.0419921875,1.01025390625,-0.108154296875,-1.9226073026657104,0.5187987685203552,0.7934569716453552,86.66667175292969,67120.0,1.0
18:12:19.119445,137076.015625,144536.671875,162386.0625,159258.6875,182196.140625,179659.578125,686036.9375,132589.578125,0.039794921875,1.009033203125,-0.108154296875,-2.044677495956421,0.4577636420726776,0.8544921278953552,86.66667175292969,67121.0,1.0
18:12:19.122095,137060.90625,144508.328125,162370.59375,159257.4375,182175.671875,179634.71875,686078.5,132589.84375,0.03955078125,1.008544921875,-0.105712890625,-2.105712652206421,0.4882812201976776,0.7324218153953552,86.66667175292969,67122.0,1.0
18:12:19.124491,137071.09375,144527.109375,162371.84375,159255.828125,182173.078125,179635.078125,686092.5625,132585.375,0.0419921875,1.009521484375,-0.105224609375,-2.227782964706421,0.4882812201976776,0.9460448622703552,86.66667175292969,67123.0,1.0
18:12:19.127197,137084.59375,144545.875,162375.78125,159258.15625,182176.734375,179642.234375,686219.0,132581.703125,0.04052734375,1.00927734375,-0.10400390625,-2.227782964706421,0.4882812201976776,0.8850097060203552,86.66667175292969,67124.0,1.0
18:12:19.130593,137079.328125,144539.96875,162383.546875,159261.015625,182191.671875,179657.421875,686043.9375,132589.578125,0.041259765625,1.0087890625,-0.104736328125,-2.380370855331421,0.4577636420726776,0.8239745497703552,86.66667175292969,67125.0,1.0
18:12:19.136991,137054.109375,144501.078125,162362.546875,159249.21875,182167.265625,179627.484375,686068.4375,132583.671875,0.03955078125,1.009033203125,-0.10546875,-2.441406011581421,0.3356933295726776,0.8544921278953552,86.66667175292969,67126.0,1.0
18:12:19.139467,137056.703125,144509.125,162359.140625,159244.03125,182161.890625,179621.671875,686114.875,132576.609375,0.03955078125,1.009033203125,-0.104736328125,-2.471923589706421,0.4577636420726776,0.8544921278953552,86.66667175292969,67127.0,1.0
18:12:19.152048,137075.484375,144537.65625,162368.171875,159246.703125,182169.9375,179633.296875,686232.8125,132575.53125,0.040283203125,1.0078125,-0.10546875,-2.532958745956421,0.3662109076976776,0.9155272841453552,86.66667175292969,67128.0,1.0
18:12:19.154469,137083.53125,144543.640625,162385.78125,159259.859375,182195.34375,179658.140625,686098.75,132589.484375,0.040283203125,1.00537109375,-0.103759765625,-2.563476324081421,0.3356933295726776,0.9460448622703552,86.66667175292969,67129.0,1.0
18:12:19.157031,137065.015625,144512.53125,162374.96875,159272.28125,182182.1875,179638.828125,686055.0,132605.578125,0.037841796875,1.004638671875,-0.105712890625,-2.502441167831421,0.3356933295726776,0.9460448622703552,86.66667175292969,67130.0,1.0
18:12:19.159459,137064.125,144514.671875,162368.984375,159265.65625,182172.625,179631.328125,686083.25,132599.9375,0.03857421875,1.003662109375,-0.107666015625,-2.441406011581421,0.1831054538488388,0.8239745497703552,86.66667175292969,67131.0,1.0
18:12:19.161994,137084.6875,144543.734375,162375.953125,159261.8125,182176.828125,179638.5625,686223.875,132595.65625,0.038330078125,1.002685546875,-0.108642578125,-2.502441167831421,0.1220703050494194,0.7934569716453552,86.66667175292969,67132.0,1.0
18:12:19.164441,137088.34375,144544.53125,162385.609375,159264.5,182192.46875,179653.578125,686143.0,132596.8125,0.03857421875,1.0029296875,-0.10693359375,-2.502441167831421,0.2136230319738388,0.7324218153953552,86.66667175292969,67133.0,1.0
18:12:19.167017,137064.75,144507.15625,162370.140625,159259.9375,182177.546875,179633.203125,686054.5625,132592.609375,0.03857421875,1.00048828125,-0.105224609375,-2.471923589706421,0.0915527269244194,0.6103515028953552,86.66667175292969,67134.0,1.0
18:12:19.170734,137053.84375,144498.484375,162356.1875,159249.75,182161.71875,179617.828125,686073.25,132580.71875,0.041015625,1.000732421875,-0.1064453125,-2.349853277206421,0.0,0.5187987685203552,86.66667175292969,67135.0,1.0
18:12:19.170773,137071.28125,144529.78125,162363.96875,159249.921875,182166.640625,179627.390625,686198.6875,132578.578125,0.041015625,0.99951171875,-0.10888671875,-2.380370855331421,-0.0915527269244194,0.4272460639476776,86.66667175292969,67136.0,1.0
18:12:19.170784,137081.203125,144546.234375,162379.0,159255.828125,182188.625,179652.0625,686189.75,132584.03125,0.04052734375,0.99755859375,-0.108154296875,-2.258300542831421,-0.0915527269244194,0.2746581733226776,86.66667175292969,67137.0,1.0
18:12:19.175756,137063.046875,144519.328125,162373.1875,159256.640625,182184.703125,179643.921875,686060.0,132587.25,0.040771484375,0.997314453125,-0.10986328125,-2.197265386581421,-0.2136230319738388,0.3051757514476776,86.66667175292969,67138.0,1.0
18:12:19.178287,137053.84375,144504.65625,162362.546875,159251.984375,182169.9375,179628.015625,686069.75,132585.28125,0.04150390625,0.998291015625,-0.109375,-2.075195074081421,-0.0915527269244194,0.2441406100988388,86.66667175292969,67139.0,1.0
18:12:19.180701,137072.96875,144532.90625,162370.328125,159257.171875,182173.796875,179634.265625,686142.0625,132584.65625,0.041259765625,1.0,-0.107421875,-1.8615721464157104,-0.1525878757238388,0.3662109076976776,86.66667175292969,67140.0,1.0
18:12:19.183213,137075.484375,144538.359375,162372.5625,159251.8125,182180.21875,179639.734375,686223.375,132577.5,0.04150390625,1.000732421875,-0.105224609375,-1.8005369901657104,-0.1220703050494194,0.2441406100988388,86.66667175292969,67141.0,1.0
18:12:19.185763,137063.9375,144519.328125,162374.078125,159253.859375,182185.6875,179642.234375,686064.9375,132584.109375,0.044189453125,0.998046875,-0.105712890625,-1.6784666776657104,-0.0915527269244194,0.3356933295726776,86.66667175292969,67142.0,1.0
18:12:19.188866,137052.328125,144497.6875,162362.453125,159256.09375,182169.859375,179621.84375,686089.0,132594.046875,0.042724609375,0.998291015625,-0.111083984375,-1.4953612089157104,-0.1831054538488388,0.5798339247703552,86.66667175292969,67143.0,1.0
18:12:19.188889,137072.4375,144525.140625,162371.9375,159267.0,182177.546875,179630.609375,686130.125,132599.40625,0.041259765625,0.997314453125,-0.111083984375,-1.3427733182907104,-0.2746581733226776,0.5493163466453552,86.66667175292969,67144.0,1.0
18:12:19.191308,137081.5625,144542.484375,162375.5,159255.203125,182181.828125,179642.59375,686273.25,132579.640625,0.041259765625,0.999755859375,-0.109375,-1.2512205839157104,-0.3662109076976776,0.5798339247703552,86.66667175292969,67145.0,1.0
18:12:19.191328,137072.171875,144528.4375,162379.703125,159256.640625,182191.3125,179651.0,686088.875,132587.25,0.0419921875,1.002197265625,-0.107666015625,-1.0070799589157104,-0.2746581733226776,0.6408690810203552,86.66667175292969,67146.0,1.0
18:12:19.193244,137056.171875,144503.59375,162365.40625,159258.6875,182173.4375,179630.34375,686090.875,132589.484375,0.042724609375,1.0029296875,-0.1083984375,-0.8850097060203552,-0.1831054538488388,0.7629393935203552,86.66667175292969,67147.0,1.0
18:12:19.195751,137066.359375,144521.640625,162367.453125,159265.84375,182172.453125,179630.703125,686105.25,132588.765625,0.041015625,1.004150390625,-0.107177734375,-0.7934569716453552,-0.1831054538488388,0.7019042372703552,86.66667175292969,67148.0,1.0
18:12:19.198246,137078.875,144539.96875,162369.703125,159249.921875,182173.34375,179635.171875,686280.75,132572.5,0.042236328125,1.0048828125,-0.111328125,-0.7019042372703552,-0.2136230319738388,0.7629393935203552,86.66667175292969,67149.0,1.0
18:12:19.201296,137076.28125,144533.359375,162380.0625,159254.9375,182189.796875,179649.296875,686119.625,132583.21875,0.04248046875,1.0068359375,-0.10986328125,-0.5493163466453552,-0.2746581733226776,0.7629393935203552,86.66667175292969,67150.0,1.0
18:12:19.201319,137051.78125,144496.34375,162359.140625,159249.296875,182165.203125,179622.109375,686104.625,132580.1875,0.043212890625,1.00732421875,-0.109130859375,-0.5798339247703552,-0.3356933295726776,0.7019042372703552,86.66667175292969,67151.0,1.0
18:12:19.204476,137057.328125,144508.5,162358.875,159248.5,182161.1875,179620.234375,686109.25,132577.859375,0.04248046875,1.00537109375,-0.10595703125,-0.4272460639476776,-0.3356933295726776,0.7019042372703552,86.66667175292969,67152.0,1.0
18:12:19.204503,137074.40625,144532.109375,162365.578125,159250.46875,182165.65625,179626.765625,686297.625,132578.75,0.04248046875,1.00390625,-0.106201171875,-0.3356933295726776,-0.3051757514476776,0.6103515028953552,86.66667175292969,67153.0,1.0
18:12:19.204511,137074.40625,144532.015625,162374.796875,159248.9375,182181.03125,179643.84375,686171.25,132577.859375,0.04443359375,1.004150390625,-0.11083984375,-0.2746581733226776,-0.2441406100988388,0.5187987685203552,86.66667175292969,67154.0,1.0
18:12:19.208284,137050.625,144494.734375,162357.09375,159245.71875,182161.71875,179620.953125,686128.0625,132575.796875,0.042724609375,1.0068359375,-0.111328125,-0.1525878757238388,-0.3662109076976776,0.6103515028953552,86.66667175292969,67155.0,1.0
18:12:19.215777,137044.90625,144492.59375,162348.15625,159239.46875,182151.171875,179608.796875,686132.5,132573.65625,0.04248046875,1.00537109375,-0.10986328125,-0.1525878757238388,-0.3967284858226776,0.4272460639476776,86.66667175292969,67156.0,1.0
18:12:19.222618,137071.28125,144527.734375,162363.4375,159251.890625,182163.15625,179623.453125,686314.1875,132580.1875,0.04296875,1.0048828125,-0.10986328125,-0.1525878757238388,-0.3967284858226776,0.4882812201976776,86.66667175292969,67157.0,1.0
18:12:19.222649,137077.984375,144536.046875,162376.765625,159254.21875,182183.171875,179644.375,686237.375,132580.984375,0.04296875,1.00244140625,-0.107421875,-0.2136230319738388,-0.3051757514476776,0.4272460639476776,86.66667175292969,67158.0,1.0
18:12:19.225097,137061.171875,144508.953125,162367.109375,159251.890625,182171.734375,179632.9375,686127.75,132578.484375,0.0439453125,1.003173828125,-0.10791015625,-0.1220703050494194,-0.2441406100988388,0.4882812201976776,86.66667175292969,67159.0,1.0
18:12:19.225119,137047.84375,144493.390625,162350.65625,159241.4375,182151.171875,179611.5625,686148.1875,132570.4375,0.047119140625,1.005615234375,-0.10986328125,-0.2136230319738388,-0.1831054538488388,0.4882812201976776,86.66667175292969,67160.0,1.0
18:12:19.233261,137066.171875,144521.921875,162358.4375,159245.28125,182156.71875,179617.640625,686297.0,132574.1875,0.050048828125,1.007080078125,-0.111328125,-0.1831054538488388,-0.1525878757238388,0.4577636420726776,86.66667175292969,67161.0,1.0
18:12:19.242561,137079.5,144537.65625,162374.078125,159252.703125,182176.03125,179637.9375,686305.25,132577.234375,0.05078125,1.00830078125,-0.114990234375,-0.1831054538488388,-0.1220703050494194,0.5187987685203552,86.66667175292969,67162.0,1.0
18:12:19.242583,137060.28125,144507.96875,162365.046875,159246.359375,182168.78125,179628.109375,686161.375,132571.0625,0.05029296875,1.008544921875,-0.11572265625,-0.2441406100988388,-0.1525878757238388,0.5493163466453552,86.66667175292969,67163.0,1.0
18:12:19.244528,137049.1875,144491.703125,162352.265625,159242.59375,182152.6875,179609.328125,686199.125,132574.8125,0.049072265625,1.011474609375,-0.113037109375,-0.2441406100988388,0.0915527269244194,0.5798339247703552,86.66667175292969,67164.0,1.0
18:12:19.250769,137073.59375,144529.15625,162366.65625,159252.25,182165.03125,179625.421875,686327.125,132581.171875,0.0478515625,1.010986328125,-0.109130859375,-0.3356933295726776,0.2441406100988388,0.4882812201976776,86.66667175292969,67165.0,1.0
18:12:19.255169,137091.484375,144551.6875,162383.28125,159260.84375,182185.859375,179647.953125,686403.0625,132585.71875,0.0458984375,1.009765625,-0.111083984375,-0.5493163466453552,0.2746581733226776,0.5187987685203552,86.66667175292969,67166.0,1.0
18:12:19.255191,137079.140625,144532.734375,162383.734375,159263.78125,182191.40625,179651.171875,686186.8125,132591.1875,0.04541015625,1.009765625,-0.109130859375,-0.6408690810203552,0.4272460639476776,0.4882812201976776,86.66667175292969,67167.0,1.0
18:12:19.262041,137062.6875,144506.8125,162368.265625,159261.8125,182170.65625,179624.53125,686238.625,132594.21875,0.04541015625,1.010498046875,-0.115234375,-0.7019042372703552,0.4272460639476776,0.5493163466453552,86.66667175292969,67168.0,1.0
18:12:19.270089,137067.4375,144524.6875,162365.671875,159255.203125,182164.9375,179622.921875,686339.125,132583.046875,0.04638671875,1.0087890625,-0.11376953125,-0.7324218153953552,0.4882812201976776,0.4272460639476776,86.66667175292969,67169.0,1.0
18:12:19.270125,137074.21875,144535.0625,162366.296875,159251.0,182166.1875,179627.65625,686478.9375,132574.734375,0.044677734375,1.009521484375,-0.114013671875,-0.7629393935203552,0.4272460639476776,0.3356933295726776,86.66667175292969,67170.0,1.0
18:12:19.272552,137067.25,144520.9375,162371.65625,159261.015625,182178.265625,179636.953125,686234.375,132585.1875,0.0439453125,1.0107421875,-0.1162109375,-0.9155272841453552,0.4577636420726776,0.2136230319738388,86.66667175292969,67171.0,1.0
18:12:19.272582,137047.671875,144490.796875,162353.953125,159251.453125,182157.25,179612.90625,686257.5,132583.671875,0.041259765625,1.010986328125,-0.11474609375,-1.0681151151657104,0.4882812201976776,0.1220703050494194,86.66667175292969,67172.0,1.0
18:12:19.288263,137053.84375,144506.53125,162351.546875,159240.546875,182152.0625,179611.828125,686344.875,132572.578125,0.040771484375,1.0087890625,-0.111572265625,-1.0681151151657104,0.4577636420726776,0.0915527269244194,86.66667175292969,67173.0,1.0
18:12:19.291402,137070.828125,144531.390625,162359.40625,159242.59375,182159.484375,179623.984375,686535.125,132571.953125,0.03564453125,1.008544921875,-0.111572265625,-1.1291502714157104,0.3356933295726776,-0.1220703050494194,86.66667175292969,67174.0,1.0
18:12:19.291412,137074.84375,144534.25,162374.96875,159250.46875,182181.296875,179646.609375,686270.5,132578.84375,0.037353515625,1.0087890625,-0.108642578125,-1.2817381620407104,0.2746581733226776,-0.2136230319738388,86.66667175292969,67175.0,1.0
18:12:19.293344,137055.453125,144501.359375,162359.40625,159248.234375,182160.734375,179623.015625,686238.0,132580.90625,0.038330078125,1.0087890625,-0.110107421875,-1.4343260526657104,0.2441406100988388,-0.2746581733226776,86.66667175292969,67176.0,1.0
18:12:19.300300,137054.015625,144504.75,162351.640625,159241.796875,182149.5625,179613.53125,686301.25,132575.265625,0.039794921875,1.00927734375,-0.1103515625,-1.4953612089157104,0.1525878757238388,-0.3356933295726776,86.66667175292969,67177.0,1.0
18:12:19.300342,137071.09375,144528.359375,162357.625,159246.078125,182153.84375,179617.375,686479.4375,132572.3125,0.03857421875,1.010986328125,-0.11083984375,-1.5563963651657104,0.1220703050494194,-0.3662109076976776,86.66667175292969,67178.0,1.0
18:12:19.315211,137079.765625,144537.46875,162376.046875,159253.0625,182178.890625,179642.5,686303.1875,132577.859375,0.038818359375,1.007080078125,-0.112060546875,-1.6479490995407104,0.0610351525247097,-0.4272460639476776,86.66667175292969,67179.0,1.0
18:12:19.315283,137058.125,144503.5,162360.84375,159246.890625,182161.71875,179621.40625,686198.25,132576.15625,0.038330078125,1.00732421875,-0.112060546875,-1.6479490995407104,0.03051757626235485,-0.3662109076976776,86.66667175292969,67180.0,1.0
18:12:19.323291,137044.625,144490.265625,162344.84375,159234.8125,182142.859375,179599.671875,686221.5,132565.96875,0.037841796875,1.005615234375,-0.11279296875,-1.6784666776657104,-0.0610351525247097,-0.3356933295726776,86.66667175292969,67181.0,1.0
18:12:19.323336,137065.90625,144521.5625,162354.046875,159240.890625,182147.6875,179609.6875,686389.125,132565.78125,0.03759765625,1.006103515625,-0.1123046875,-1.7700194120407104,-0.1525878757238388,-0.3051757514476776,86.66667175292969,67182.0,1.0
18:12:19.323355,137073.6875,144530.953125,162365.5,159241.34375,182165.390625,179629.359375,686316.8125,132566.6875,0.03759765625,1.0048828125,-0.11328125,-1.7395018339157104,-0.2136230319738388,-0.1831054538488388,86.66667175292969,67183.0,1.0
18:12:19.326341,137056.515625,144500.546875,162358.515625,159247.328125,182158.5,179617.203125,686192.6875,132576.609375,0.03759765625,1.003662109375,-0.11376953125,-1.7395018339157104,-0.2441406100988388,-0.1220703050494194,86.66667175292969,67184.0,1.0
18:12:19.326477,137044.90625,144491.78125,162345.5625,159236.34375,182142.046875,179604.046875,686204.5625,132568.109375,0.037109375,1.0068359375,-0.109619140625,-1.8310545682907104,-0.2441406100988388,0.0,86.66667175292969,67185.0,1.0
18:12:19.334533,137061.265625,144519.765625,162350.921875,159232.21875,182144.640625,179611.921875,686329.9375,132559.796875,0.036376953125,1.008056640625,-0.109375,-1.8310545682907104,-0.4272460639476776,0.03051757626235485,86.66667175292969,67186.0,1.0
18:12:19.338824,137071.28125,144531.75,162363.171875,159236.78125,182162.53125,179628.90625,686325.625,132563.203125,0.03759765625,1.010009765625,-0.11083984375,-1.8005369901657104,-0.4882812201976776,0.0915527269244194,86.66667175292969,67187.0,1.0
18:12:19.338834,137059.46875,144511.28125,162363.703125,159244.03125,182166.546875,179627.921875,686156.625,132574.375,0.036376953125,1.00927734375,-0.108154296875,-1.8310545682907104,-0.5493163466453552,0.2136230319738388,86.66667175292969,67188.0,1.0
18:12:19.345778,137044.1875,144489.109375,162348.421875,159237.859375,182147.328125,179606.28125,686170.3125,132573.203125,0.034912109375,1.00830078125,-0.111083984375,-1.8310545682907104,-0.5798339247703552,0.3662109076976776,86.66667175292969,67189.0,1.0
18:12:19.372031,137066.625,144522.90625,162362.625,159247.328125,182159.21875,179620.5,686260.5625,132581.4375,0.035400390625,1.007080078125,-0.1123046875,-1.9226073026657104,-0.5187987685203552,0.5187987685203552,86.66667175292969,67190.0,1.0
18:12:19.372063,137080.21875,144542.921875,162373.71875,159247.6875,182173.25,179637.21875,686343.4375,132576.96875,0.035400390625,1.007080078125,-0.11083984375,-1.9226073026657104,-0.5798339247703552,0.5187987685203552,86.66667175292969,67191.0,1.0
18:12:19.372073,137063.234375,144520.390625,162369.96875,159242.15625,182174.859375,179635.796875,686142.8125,132576.609375,0.03271484375,1.00830078125,-0.109130859375,-1.9531248807907104,-0.6408690810203552,0.6713866591453552,86.66667175292969,67192.0,1.0
18:12:19.376309,137045.171875,144493.65625,162352.4375,159241.96875,182153.84375,179612.640625,686136.0,132578.578125,0.03466796875,1.0107421875,-0.108154296875,-1.9531248807907104,-0.6408690810203552,0.6103515028953552,86.66667175292969,67193.0,1.0
18:12:19.376335,137055.1875,144512.796875,162352.96875,159239.28125,182152.59375,179614.515625,686170.6875,132568.65625,0.034912109375,1.01220703125,-0.107666015625,-2.075195074081421,-0.7629393935203552,0.5798339247703552,86.66667175292969,67194.0,1.0
18:12:19.376346,137072.4375,144534.609375,162363.34375,159241.96875,182162.53125,179627.5625,686322.3125,132567.125,0.03759765625,1.010009765625,-0.109375,-2.166747808456421,-0.8239745497703552,0.5493163466453552,86.66667175292969,67195.0,1.0
18:12:19.376354,137070.375,144528.984375,162372.921875,159246.703125,182177.71875,179643.578125,686143.4375,132575.265625,0.03662109375,1.006103515625,-0.111572265625,-2.197265386581421,-0.8239745497703552,0.4577636420726776,86.66667175292969,67196.0,1.0
18:12:19.378273,137044.71875,144490.265625,162350.5625,159240.625,182150.984375,179611.390625,686129.3125,132573.484375,0.0380859375,1.0048828125,-0.113037109375,-2.166747808456421,-0.7934569716453552,0.5493163466453552,86.66667175292969,67197.0,1.0
18:12:19.380721,137050.359375,144502.609375,162350.390625,159243.40625,182147.6875,179607.453125,686121.25,132572.5,0.03857421875,1.007568359375,-0.110107421875,-2.166747808456421,-0.8544921278953552,0.5493163466453552,86.66667175292969,67198.0,1.0
18:12:19.390269,137066.984375,144528.984375,162357.625,159243.9375,182154.125,179619.078125,686302.0,132568.46875,0.041015625,1.010009765625,-0.10986328125,-2.197265386581421,-0.7934569716453552,0.5493163466453552,86.66667175292969,67199.0,1.0
18:12:19.390334,137062.78125,144522.984375,162364.59375,159251.8125,182166.90625,179631.40625,686154.75,132575.890625,0.043212890625,1.01123046875,-0.10888671875,-2.258300542831421,-0.7629393935203552,0.5187987685203552,86.66667175292969,67200.0,1.0
18:12:19.392000,137038.546875,144485.796875,162343.765625,159240.890625,182144.46875,179603.421875,686107.0625,132575.0,0.04345703125,1.009033203125,-0.111083984375,-2.227782964706421,-0.7019042372703552,0.4272460639476776,86.66667175292969,67201.0,1.0
18:12:19.420110,137039.09375,144492.6875,162339.65625,159229.90625,182137.765625,179598.15625,686081.75,132569.09375,0.044921875,1.010498046875,-0.10986328125,-2.197265386581421,-0.6713866591453552,0.4577636420726776,86.66667175292969,67202.0,1.0
18:12:19.420121,137061.4375,144525.046875,162350.46875,159235.890625,182144.015625,179610.671875,686255.875,132563.203125,0.04443359375,1.0078125,-0.109619140625,-2.319335699081421,-0.6103515028953552,0.3662109076976776,86.66667175292969,67203.0,1.0
18:12:19.448187,137066.796875,144530.859375,162363.171875,159235.890625,182163.421875,179631.6875,686173.375,132559.53125,0.044677734375,1.006591796875,-0.108642578125,-2.319335699081421,-0.5187987685203552,0.3662109076976776,86.66667175292969,67204.0,1.0
18:12:19.448198,137060.8125,144511.453125,162364.0625,159249.84375,182163.59375,179627.5625,686103.125,132578.75,0.046875,1.005126953125,-0.108642578125,-2.319335699081421,-0.3967284858226776,0.4272460639476776,86.66667175292969,67205.0,1.0
18:12:19.448199,137049.109375,144498.484375,162349.3125,159239.109375,182145.171875,179607.1875,686069.3125,132572.5,0.045166015625,1.004150390625,-0.108154296875,-2.319335699081421,-0.3051757514476776,0.3356933295726776,86.66667175292969,67206.0,1.0
18:12:19.450748,137058.484375,144515.03125,162345.640625,159231.25,182137.671875,179602.0,686195.5625,132552.203125,0.045166015625,1.00439453125,-0.11083984375,-2.258300542831421,-0.1525878757238388,0.2746581733226776,86.66667175292969,67207.0,1.0
18:12:19.453406,137069.3125,144529.421875,162361.203125,159236.78125,182158.046875,179626.578125,686178.75,132556.21875,0.0439453125,1.00390625,-0.112060546875,-2.197265386581421,-0.03051757626235485,0.2441406100988388,86.66667175292969,67208.0,1.0
18:12:19.455703,137056.078125,144506.09375,162359.234375,159243.9375,182157.515625,179620.6875,686066.25,132569.28125,0.045166015625,1.003662109375,-0.108154296875,-2.105712652206421,0.03051757626235485,0.1831054538488388,86.66667175292969,67209.0,1.0
18:12:19.458284,137040.15625,144486.421875,162340.90625,159232.21875,182136.234375,179596.8125,686082.4375,132562.75,0.044677734375,1.003662109375,-0.111083984375,-1.9531248807907104,0.1220703050494194,0.2441406100988388,86.66667175292969,67210.0,1.0
18:12:19.460785,137066.171875,144525.21875,162355.65625,159239.921875,182147.5,179613.890625,686139.875,132568.03125,0.0458984375,1.00390625,-0.108154296875,-1.9531248807907104,0.2441406100988388,0.1220703050494194,86.66667175292969,67211.0,1.0
18:12:19.463241,137081.828125,144541.671875,162371.21875,159248.234375,182167.265625,179631.765625,686165.0,132575.53125,0.04345703125,1.005126953125,-0.106689453125,-1.8615721464157104,0.2746581733226776,0.1525878757238388,86.66667175292969,67212.0,1.0
18:12:19.465707,137069.3125,144522.90625,162369.875,159248.9375,182168.15625,179633.46875,685989.3125,132578.21875,0.04296875,1.005859375,-0.10693359375,-1.8005369901657104,0.3662109076976776,0.1220703050494194,86.66667175292969,67213.0,1.0
18:12:19.468197,137050.359375,144498.40625,162351.453125,159239.921875,182145.53125,179608.25,686104.1875,132570.96875,0.04150390625,1.005126953125,-0.107666015625,-1.7700194120407104,0.3967284858226776,0.1525878757238388,86.66667175292969,67214.0,1.0
18:12:19.470719,137066.625,144525.3125,162358.96875,159241.609375,182149.375,179612.71875,686140.125,132567.21875,0.0390625,1.002197265625,-0.1044921875,-1.7089842557907104,0.5187987685203552,0.1831054538488388,86.66667175292969,67215.0,1.0
18:12:19.473216,137086.734375,144549.625,162375.421875,159249.296875,182167.890625,179632.75,686167.9375,132571.78125,0.03857421875,1.001220703125,-0.10546875,-1.6479490995407104,0.4882812201976776,0.1220703050494194,86.66667175292969,67216.0,1.0
18:12:19.478273,137078.515625,144536.9375,162381.5,159252.96875,182181.03125,179642.859375,685986.3125,132579.921875,0.0390625,1.00341796875,-0.103759765625,-1.6174315214157104,0.5187987685203552,0.0,86.66667175292969,67217.0,1.0
18:12:19.480734,137055.359375,144503.234375,162361.5625,159249.125,182158.671875,179614.96875,686093.6875,132580.8125,0.03662109375,1.006103515625,-0.10400390625,-1.5869139432907104,0.5493163466453552,-0.03051757626235485,86.66667175292969,67218.0,1.0
18:12:19.483834,137059.828125,144517.265625,162357.625,159241.078125,182152.6875,179611.65625,686141.875,132569.546875,0.037353515625,1.006103515625,-0.102783203125,-1.5869139432907104,0.6103515028953552,-0.0915527269244194,86.66667175292969,67219.0,1.0
18:12:19.483849,137077.53125,144540.15625,162367.8125,159246.171875,182163.953125,179625.421875,686180.6875,132573.828125,0.03662109375,1.0068359375,-0.103515625,-1.5258787870407104,0.5493163466453552,-0.0915527269244194,86.66667175292969,67220.0,1.0
18:12:19.485756,137074.21875,144534.96875,162377.46875,159247.609375,182180.578125,179642.671875,686006.0,132577.046875,0.037109375,1.006103515625,-0.105224609375,-1.5563963651657104,0.5187987685203552,0.03051757626235485,86.66667175292969,67221.0,1.0
18:12:19.488872,137046.421875,144493.125,162351.359375,159233.828125,182151.171875,179607.890625,686058.5625,132571.25,0.035888671875,1.005126953125,-0.105712890625,-1.4343260526657104,0.5187987685203552,0.0610351525247097,86.66667175292969,67222.0,1.0
18:12:19.488908,137052.953125,144507.875,162351.8125,159238.390625,182149.203125,179606.828125,686145.9375,132577.40625,0.0361328125,1.005126953125,-0.10546875,-1.5563963651657104,0.5187987685203552,0.0,86.66667175292969,67223.0,1.0
18:12:19.490761,137082.0,144545.96875,162370.953125,159251.53125,182166.1875,179628.375,686197.1875,132579.828125,0.03466796875,1.005615234375,-0.106689453125,-1.5869139432907104,0.5187987685203552,0.0610351525247097,86.66667175292969,67224.0,1.0
18:12:19.493807,137078.15625,144539.890625,162377.296875,159251.53125,182178.4375,179640.703125,686048.5,132576.78125,0.0361328125,1.005859375,-0.10595703125,-1.4648436307907104,0.3967284858226776,0.0610351525247097,86.66667175292969,67225.0,1.0
18:12:19.493813,137056.515625,144501.265625,162360.046875,159252.703125,182156.796875,179612.71875,686035.0,132579.015625,0.0341796875,1.0068359375,-0.104248046875,-1.4648436307907104,0.3662109076976776,0.0610351525247097,86.66667175292969,67226.0,1.0
18:12:19.498390,137062.78125,144512.171875,162360.484375,159258.0625,182155.375,179612.546875,686171.5625,132582.859375,0.034912109375,1.004638671875,-0.10302734375,-1.4343260526657104,0.2746581733226776,0.0610351525247097,86.66667175292969,67227.0,1.0
18:12:19.506394,137080.3125,144540.0625,162366.75,159249.921875,182159.75,179621.578125,686200.75,132576.34375,0.034912109375,1.005859375,-0.10546875,-1.4038084745407104,0.1525878757238388,0.2136230319738388,86.66667175292969,67228.0,1.0
18:12:19.506398,137080.84375,144541.234375,162374.96875,159246.890625,182175.125,179638.65625,686078.4375,132577.40625,0.0341796875,1.008056640625,-0.107421875,-1.4953612089157104,0.0915527269244194,0.2441406100988388,86.66667175292969,67229.0,1.0
18:12:19.508851,137059.828125,144507.078125,162360.578125,159246.890625,182159.65625,179618.1875,685990.625,132576.78125,0.033203125,1.0087890625,-0.104248046875,-1.4343260526657104,0.03051757626235485,0.3662109076976776,86.66667175292969,67230.0,1.0
18:12:19.508869,137047.765625,144492.234375,162344.65625,159238.125,182139.546875,179596.984375,686126.875,132568.921875,0.03369140625,1.007568359375,-0.106689453125,-1.4038084745407104,0.0,0.3356933295726776,86.66667175292969,67231.0,1.0
18:12:19.518316,137060.90625,144515.03125,162346.265625,159234.90625,182137.21875,179597.265625,686178.125,132561.3125,0.03466796875,1.008056640625,-0.104736328125,-1.4343260526657104,-0.0610351525247097,0.4272460639476776,86.66667175292969,67232.0,1.0
18:12:19.521371,137076.453125,144535.234375,162365.671875,159243.3125,182161.0,179625.59375,686125.375,132569.359375,0.033203125,1.007080078125,-0.104736328125,-1.4648436307907104,-0.03051757626235485,0.5493163466453552,86.66667175292969,67233.0,1.0
18:12:19.521435,137054.90625,144503.5,162354.859375,159241.609375,182150.984375,179612.1875,685985.6875,132573.484375,0.034912109375,1.007080078125,-0.10546875,-1.5563963651657104,-0.1525878757238388,0.3967284858226776,86.66667175292969,67234.0,1.0
18:12:19.528319,137036.5,144482.484375,162334.375,159229.1875,182128.109375,179588.765625,686115.8125,132563.546875,0.03515625,1.0078125,-0.104248046875,-1.4953612089157104,-0.1831054538488388,0.3662109076976776,86.66667175292969,67235.0,1.0
18:12:19.531991,137056.078125,144512.625,162344.484375,159236.78125,182134.1875,179596.90625,686161.8125,132568.828125,0.035888671875,1.008056640625,-0.106201171875,-1.5258787870407104,-0.2136230319738388,0.5187987685203552,86.66667175292969,67236.0,1.0
18:12:19.542688,137072.890625,144532.828125,162361.015625,159240.890625,182153.578125,179616.75,686170.4375,132565.34375,0.03662109375,1.00830078125,-0.107177734375,-1.4953612089157104,-0.3051757514476776,0.5493163466453552,86.66667175292969,67237.0,1.0
18:12:19.542762,137064.5625,144516.46875,162366.296875,159248.140625,182162.53125,179620.421875,685995.1875,132576.25,0.039794921875,1.009033203125,-0.105712890625,-1.4648436307907104,-0.3967284858226776,0.5493163466453552,86.66667175292969,67238.0,1.0
18:12:19.548992,137047.3125,144492.953125,162349.9375,159241.53125,182142.3125,179599.40625,686111.875,132576.34375,0.0390625,1.010498046875,-0.103515625,-1.4953612089157104,-0.3051757514476776,0.6408690810203552,86.66667175292969,67239.0,1.0
18:12:19.549060,137060.1875,144516.109375,162352.0,159241.875,182141.515625,179602.4375,686155.125,132570.703125,0.038330078125,1.009765625,-0.1025390625,-1.4343260526657104,-0.3967284858226776,0.6103515028953552,86.66667175292969,67240.0,1.0
18:12:19.550830,137069.21875,144530.328125,162355.75,159236.78125,182147.765625,179611.828125,686198.4375,132565.25,0.038330078125,1.006103515625,-0.104736328125,-1.3732908964157104,-0.3967284858226776,0.6103515028953552,86.66667175292969,67241.0,1.0
18:12:19.557124,137057.328125,144513.6875,162357.53125,159235.0,182154.921875,179617.828125,686007.6875,132570.4375,0.03955078125,1.00341796875,-0.105712890625,-1.4648436307907104,-0.3051757514476776,0.6103515028953552,86.66667175292969,67242.0,1.0
18:12:19.560768,137039.796875,144485.34375,162342.0625,159233.03125,182134.0,179594.125,686088.4375,132572.671875,0.0400390625,1.003662109375,-0.106689453125,-1.4343260526657104,-0.2746581733226776,0.7019042372703552,86.66667175292969,67243.0,1.0
18:12:19.570100,137047.40625,144499.921875,162341.796875,159234.546875,182131.5,179591.8125,686148.625,132572.578125,0.042724609375,1.00341796875,-0.104248046875,-1.3732908964157104,-0.2441406100988388,0.6408690810203552,86.66667175292969,67244.0,1.0
18:12:19.570120,137069.21875,144528.71875,162355.296875,159237.59375,182144.90625,179610.21875,686220.25,132571.328125,0.04296875,1.004150390625,-0.10400390625,-1.2817381620407104,-0.1831054538488388,0.6713866591453552,86.66667175292969,67245.0,1.0
18:12:19.576452,137057.6875,144517.359375,162357.453125,159239.640625,182153.40625,179619.796875,686043.1875,132569.8125,0.04296875,1.005859375,-0.1083984375,-1.2512205839157104,-0.03051757626235485,0.6408690810203552,86.66667175292969,67246.0,1.0
18:12:19.576535,137033.71875,144483.828125,162336.890625,159222.296875,182129.265625,179594.125,686064.8125,132558.8125,0.0419921875,1.007080078125,-0.10986328125,-1.2512205839157104,0.0,0.7934569716453552,86.66667175292969,67247.0,1.0
18:12:19.582119,137035.59375,144490.171875,162331.609375,159218.90625,182121.671875,179586.890625,686125.0,132555.859375,0.04150390625,1.00634765625,-0.1064453125,-1.2512205839157104,0.03051757626235485,0.7324218153953552,86.66667175292969,67248.0,1.0
18:12:19.590171,137053.65625,144514.578125,162337.953125,159216.046875,182125.59375,179593.953125,686220.5625,132546.75,0.04150390625,1.008056640625,-0.103515625,-1.2817381620407104,0.0915527269244194,0.7629393935203552,86.66667175292969,67249.0,1.0
18:12:19.590238,137066.0,144525.5,162360.125,159233.484375,182153.84375,179623.1875,686090.75,132563.90625,0.04296875,1.00927734375,-0.104736328125,-1.1901854276657104,0.0610351525247097,0.6408690810203552,86.66667175292969,67250.0,1.0
18:12:19.592761,137051.15625,144499.46875,162350.65625,159235.890625,182141.953125,179610.84375,686063.25,132564.265625,0.042236328125,1.009033203125,-0.10546875,-1.2207030057907104,0.1525878757238388,0.7019042372703552,86.66667175292969,67251.0,1.0
18:12:19.592826,137050.265625,144500.1875,162345.90625,159235.625,182134.453125,179600.65625,686088.375,132566.6875,0.041015625,1.006103515625,-0.10546875,-1.2512205839157104,0.2441406100988388,0.7324218153953552,86.66667175292969,67252.0,1.0
18:12:19.598313,137071.359375,144531.21875,162355.390625,159242.15625,182140.265625,179610.21875,686209.6875,132567.484375,0.038818359375,1.00537109375,-0.10595703125,-1.2207030057907104,0.2441406100988388,0.7019042372703552,86.66667175292969,67253.0,1.0
18:12:19.608293,137071.90625,144534.515625,162363.171875,159236.875,182153.578125,179625.15625,686142.5,132563.203125,0.038818359375,1.00439453125,-0.103271484375,-1.1596678495407104,0.2746581733226776,0.6408690810203552,86.66667175292969,67254.0,1.0
18:12:19.616983,137046.421875,144497.421875,162345.46875,159228.375,182135.96875,179603.78125,686030.125,132558.375,0.039306640625,1.002197265625,-0.1044921875,-1.2207030057907104,0.3662109076976776,0.6103515028953552,86.66667175292969,67255.0,1.0
18:12:19.617010,137042.03125,144492.765625,162338.5,159229.984375,182126.3125,179594.21875,686070.125,132560.515625,0.039794921875,1.001953125,-0.1064453125,-1.0986326932907104,0.3662109076976776,0.5187987685203552,86.66667175292969,67256.0,1.0
18:12:19.617015,137062.875,144524.859375,162349.40625,159236.34375,182135.078125,179604.234375,686180.6875,132562.84375,0.039794921875,0.9990234375,-0.104248046875,-1.0070799589157104,0.3662109076976776,0.3356933295726776,86.66667175292969,67257.0,1.0
18:12:19.619665,137069.125,144530.671875,162357.71875,159235.984375,182149.5625,179617.109375,686177.75,132565.34375,0.03662109375,1.00146484375,-0.104248046875,-0.8544921278953552,0.3356933295726776,0.4272460639476776,86.66667175292969,67258.0,1.0
18:12:19.623299,137049.109375,144500.453125,162348.78125,159230.53125,182142.9375,179607.453125,686032.5,132565.34375,0.038330078125,1.003173828125,-0.1025390625,-0.7934569716453552,0.3967284858226776,0.3967284858226776,86.66667175292969,67259.0,1.0
18:12:19.633887,137029.4375,144475.328125,162327.859375,159219.796875,182117.28125,179581.796875,686071.75,132558.90625,0.039794921875,1.005615234375,-0.102294921875,-0.6713866591453552,0.4272460639476776,0.5187987685203552,86.66667175292969,67260.0,1.0
18:12:19.633950,137045.34375,144502.0625,162332.59375,159225.4375,182120.234375,179587.875,686135.1875,132561.40625,0.0390625,1.00439453125,-0.104736328125,-0.7019042372703552,0.3662109076976776,0.5493163466453552,86.66667175292969,67261.0,1.0
18:12:19.636379,137055.1875,144518.421875,162341.4375,159228.109375,182134.625,179603.96875,686205.8125,132564.453125,0.038818359375,1.003173828125,-0.1083984375,-0.6713866591453552,0.4577636420726776,0.5798339247703552,86.66667175292969,67262.0,1.0
18:12:19.636405,137038.1875,144495.90625,162338.40625,159227.671875,182135.609375,179601.640625,686029.4375,132560.25,0.04052734375,1.00244140625,-0.109130859375,-0.5187987685203552,0.4577636420726776,0.6713866591453552,86.66667175292969,67263.0,1.0
18:12:19.648270,137023.078125,144475.0625,162324.09375,159217.65625,182116.03125,179582.78125,686048.5625,132555.953125,0.041015625,1.00439453125,-0.10888671875,-0.3356933295726776,0.4882812201976776,0.7934569716453552,86.66667175292969,67264.0,1.0
18:12:19.653875,137038.640625,144498.3125,162329.640625,159217.109375,182118.359375,179585.8125,686076.625,132552.5625,0.04052734375,1.00439453125,-0.106689453125,-0.3662109076976776,0.4577636420726776,0.7324218153953552,86.66667175292969,67265.0,1.0
18:12:19.653901,137052.140625,144514.140625,162336.078125,159219.796875,182126.578125,179595.03125,686231.125,132546.484375,0.0390625,1.00830078125,-0.107421875,-0.3662109076976776,0.4882812201976776,0.7324218153953552,86.66667175292969,67266.0,1.0
18:12:19.660283,137036.9375,144494.46875,162334.5625,159213.546875,182131.046875,179598.0625,686058.5625,132544.875,0.038330078125,1.006103515625,-0.10791015625,-0.3356933295726776,0.4577636420726776,0.7019042372703552,86.66667175292969,67267.0,1.0
18:12:19.660325,137023.984375,144468.453125,162324.359375,159218.8125,182116.296875,179576.96875,686083.625,132556.21875,0.037353515625,1.0068359375,-0.1064453125,-0.3356933295726776,0.4882812201976776,0.7324218153953552,86.66667175292969,67268.0,1.0
18:12:19.666041,137040.25,144494.46875,162334.5625,159223.46875,182123.359375,179586.34375,686086.0,132557.828125,0.037841796875,1.0078125,-0.10498046875,-0.3051757514476776,0.4882812201976776,0.7934569716453552,86.66667175292969,67269.0,1.0
18:12:19.672690,137053.84375,144515.5625,162339.46875,159220.515625,182127.65625,179593.59375,686268.3125,132547.90625,0.036865234375,1.007568359375,-0.103759765625,-0.3967284858226776,0.4882812201976776,0.7019042372703552,86.66667175292969,67270.0,1.0
18:12:19.672730,137044.0,144506.265625,162342.515625,159215.6875,182138.734375,179605.484375,686112.125,132544.421875,0.035400390625,1.00634765625,-0.104248046875,-0.4577636420726776,0.4577636420726776,0.8544921278953552,86.66667175292969,67271.0,1.0
18:12:19.698173,137019.59375,144470.234375,162322.75,159208.0,182115.046875,179579.5625,686093.8125,132541.015625,0.035400390625,1.00634765625,-0.109619140625,-0.3967284858226776,0.4577636420726776,0.8850097060203552,86.66667175292969,67272.0,1.0
18:12:19.698204,137022.1875,144479.359375,162319.09375,159203.796875,182108.25,179576.6875,686070.8125,132535.390625,0.034912109375,1.00634765625,-0.109130859375,-0.3051757514476776,0.3662109076976776,0.8544921278953552,86.66667175292969,67273.0,1.0
18:12:19.698214,137036.234375,144496.34375,162322.40625,159207.1875,182108.96875,179574.640625,686246.0,132536.28125,0.03564453125,1.00732421875,-0.11083984375,-0.3662109076976776,0.3967284858226776,0.7934569716453552,86.66667175292969,67274.0,1.0
18:12:19.700809,137051.421875,144513.0625,162347.515625,159223.640625,182138.921875,179605.9375,686131.875,132561.40625,0.03564453125,1.009033203125,-0.1064453125,-0.3967284858226776,0.2746581733226776,0.8239745497703552,86.66667175292969,67275.0,1.0
18:12:19.709513,137033.90625,144481.140625,162335.28125,159223.828125,182122.375,179586.34375,686072.625,132557.109375,0.037109375,1.009521484375,-0.10888671875,-0.3051757514476776,0.2746581733226776,0.8544921278953552,86.66667175292969,67276.0,1.0
18:12:19.709547,137024.25,144470.421875,162321.953125,159210.859375,182105.578125,179565.703125,686059.3125,132538.4375,0.037841796875,1.009033203125,-0.109619140625,-0.2441406100988388,0.2441406100988388,0.9155272841453552,86.66667175292969,67277.0,1.0
18:12:19.709558,137049.640625,144504.125,162336.34375,159227.21875,182118.265625,179578.9375,686230.3125,132549.78125,0.036865234375,1.00830078125,-0.109619140625,-0.3356933295726776,0.1831054538488388,1.0986326932907104,86.66667175292969,67278.0,1.0
18:12:19.712050,137055.890625,144513.59375,162348.859375,159228.296875,182138.296875,179599.40625,686195.0,132554.25,0.038330078125,1.00830078125,-0.109375,-0.3051757514476776,0.1220703050494194,1.0375975370407104,86.66667175292969,67279.0,1.0
18:12:19.715652,137030.859375,144481.59375,162335.1875,159217.203125,182124.796875,179586.34375,686091.375,132549.703125,0.04052734375,1.00732421875,-0.10888671875,-0.2746581733226776,0.0915527269244194,1.0986326932907104,86.66667175292969,67280.0,1.0
18:12:19.715663,137021.390625,144471.84375,162322.75,159211.484375,182109.6875,179572.046875,686104.8125,132548.53125,0.040283203125,1.007568359375,-0.111083984375,-0.3967284858226776,0.0915527269244194,1.1596678495407104,86.66667175292969,67281.0,1.0
18:12:19.715667,137041.0625,144501.4375,162329.734375,159216.578125,182112.71875,179576.6875,686235.0625,132545.3125,0.04150390625,1.004638671875,-0.1123046875,-0.3051757514476776,0.1525878757238388,1.1291502714157104,86.66667175292969,67282.0,1.0
18:12:19.743340,137051.78125,144513.953125,162342.421875,159218.90625,182130.609375,179594.046875,686259.125,132547.546875,0.041015625,1.001220703125,-0.114013671875,-0.2136230319738388,0.1220703050494194,1.2512205839157104,86.66667175292969,67283.0,1.0
18:12:19.745738,137034.34375,144486.59375,162335.625,159215.5,182125.78125,179586.53125,686110.625,132548.359375,0.040283203125,1.000244140625,-0.113525390625,-0.1220703050494194,0.1220703050494194,1.2512205839157104,86.66667175292969,67284.0,1.0
18:12:19.752594,137021.5625,144468.453125,162323.203125,159213.1875,182108.171875,179566.6875,686129.5625,132548.0,0.04052734375,1.002685546875,-0.112060546875,0.0,0.0915527269244194,1.2817381620407104,86.66667175292969,67285.0,1.0
18:12:19.752620,137047.84375,144508.5,162341.53125,159234.90625,182123.1875,179586.265625,686222.5625,132564.453125,0.0400390625,1.007080078125,-0.110595703125,-0.03051757626235485,0.1220703050494194,1.2207030057907104,86.66667175292969,67286.0,1.0
18:12:19.755067,137063.3125,144527.109375,162352.890625,159230.078125,182138.65625,179604.046875,686326.25,132557.734375,0.039794921875,1.00830078125,-0.108642578125,-0.03051757626235485,0.03051757626235485,1.2512205839157104,86.66667175292969,67287.0,1.0
18:12:19.755089,137041.859375,144496.078125,162344.390625,159220.328125,182134.8125,179596.1875,686141.875,132550.671875,0.039306640625,1.008544921875,-0.109619140625,-0.1220703050494194,0.0915527269244194,1.1901854276657104,86.66667175292969,67288.0,1.0
18:12:19.756974,137023.703125,144465.140625,162325.625,159219.625,182111.203125,179566.6875,686155.25,132557.109375,0.039306640625,1.007568359375,-0.109619140625,-0.1831054538488388,0.1525878757238388,1.1291502714157104,86.66667175292969,67289.0,1.0
18:12:19.759483,137037.296875,144490.71875,162328.03125,159215.78125,182111.734375,179573.296875,686212.1875,132542.71875,0.038330078125,1.00439453125,-0.111083984375,-0.2746581733226776,0.03051757626235485,1.0681151151657104,86.66667175292969,67290.0,1.0
18:12:19.764539,137048.5625,144509.3125,162333.484375,159212.734375,182117.640625,179581.875,686359.625,132537.625,0.041259765625,1.00390625,-0.11328125,-0.3051757514476776,0.1220703050494194,1.1291502714157104,86.66667175292969,67291.0,1.0
18:12:19.802121,137043.5625,144501.890625,162341.359375,159216.9375,182129.171875,179593.59375,686163.375,132543.703125,0.045654296875,1.004150390625,-0.113525390625,-0.3356933295726776,0.1220703050494194,1.1596678495407104,86.66667175292969,67292.0,1.0
18:12:19.814607,137036.046875,144481.765625,162336.171875,159230.609375,182118.265625,179578.9375,686177.75,132557.828125,0.047119140625,1.003662109375,-0.117431640625,-0.3051757514476776,0.1525878757238388,1.1596678495407104,86.66667175292969,67293.0,1.0
18:12:19.817698,137045.796875,144498.3125,162338.84375,159230.796875,182118.0,179580.0,686229.25,132556.21875,0.05029296875,1.004150390625,-0.115966796875,-0.2746581733226776,0.1831054538488388,1.2512205839157104,86.66667175292969,67294.0,1.0
18:12:19.817722,137064.84375,144527.8125,162349.3125,159231.875,182127.296875,179593.859375,686427.125,132555.953125,0.0517578125,1.006103515625,-0.119873046875,-0.2441406100988388,0.3051757514476776,1.3122557401657104,86.66667175292969,67295.0,1.0
18:12:19.819610,137067.078125,144529.15625,162363.796875,159237.765625,182149.203125,179613.625,686238.9375,132565.875,0.052001953125,1.006103515625,-0.119140625,-0.2441406100988388,0.4577636420726776,1.4038084745407104,86.66667175292969,67296.0,1.0
18:12:19.822041,137051.875,144498.671875,162352.890625,159243.671875,182136.0625,179595.296875,686224.0,132574.734375,0.05078125,1.007568359375,-0.1171875,-0.3662109076976776,0.5798339247703552,1.3427733182907104,86.66667175292969,67297.0,1.0
18:12:19.824515,137051.25,144501.265625,162347.34375,159240.453125,182127.828125,179585.640625,686276.9375,132570.53125,0.048828125,1.007080078125,-0.118896484375,-0.2746581733226776,0.6713866591453552,1.4038084745407104,86.66667175292969,67298.0,1.0
18:12:19.827038,137064.75,144524.515625,162347.875,159231.59375,182126.578125,179591.0,686478.8125,132556.046875,0.045166015625,1.00537109375,-0.117431640625,-0.3051757514476776,0.6713866591453552,1.3427733182907104,86.66667175292969,67299.0,1.0
18:12:19.829513,137056.875,144513.515625,162349.046875,159225.25,182135.171875,179597.890625,686297.375,132550.671875,0.04443359375,1.00537109375,-0.114013671875,-0.3356933295726776,0.7934569716453552,1.0986326932907104,86.66667175292969,67300.0,1.0
18:12:19.832015,137036.140625,144480.609375,162338.21875,159230.53125,182122.375,179579.828125,686209.5,132561.3125,0.04296875,1.00634765625,-0.11669921875,-0.2136230319738388,0.7934569716453552,1.0070799589157104,86.66667175292969,67301.0,1.0
18:12:19.834514,137022.90625,144471.671875,162322.3125,159214.96875,182102.265625,179561.859375,686266.6875,132548.71875,0.043212890625,1.00830078125,-0.116943359375,-0.2746581733226776,0.7629393935203552,0.8239745497703552,86.66667175292969,67302.0,1.0
18:12:19.836975,137036.671875,144496.078125,162322.75,159214.515625,182099.578125,179563.90625,686441.0,132544.59375,0.040771484375,1.008544921875,-0.114501953125,-0.2746581733226776,0.9460448622703552,0.7019042372703552,86.66667175292969,67303.0,1.0
18:12:19.839518,137044.625,144506.09375,162335.625,159217.390625,182118.0,179582.421875,686351.8125,132552.28125,0.0380859375,1.009765625,-0.112548828125,-0.3356933295726776,0.8239745497703552,0.3967284858226776,86.66667175292969,67304.0,1.0
18:12:19.842034,137027.46875,144482.671875,162329.46875,159213.453125,182112.546875,179577.40625,686198.0625,132544.421875,0.039306640625,1.01123046875,-0.11328125,-0.3662109076976776,0.7629393935203552,0.3356933295726776,86.66667175292969,67305.0,1.0
18:12:19.844515,137020.578125,144472.390625,162320.875,159212.28125,182101.375,179565.515625,686267.0625,132543.890625,0.037841796875,1.012451171875,-0.110107421875,-0.4272460639476776,0.6713866591453552,0.1831054538488388,86.66667175292969,67306.0,1.0
18:12:19.847025,137039.265625,144501.0,162327.671875,159219.0,182106.734375,179572.578125,686425.125,132548.890625,0.039306640625,1.01171875,-0.11279296875,-0.5187987685203552,0.5493163466453552,0.2136230319738388,86.66667175292969,67307.0,1.0
18:12:19.849525,137050.625,144514.578125,162337.78125,159220.953125,182121.3125,179588.046875,686423.6875,132550.859375,0.040283203125,1.01318359375,-0.113525390625,-0.7019042372703552,0.5798339247703552,0.03051757626235485,86.66667175292969,67308.0,1.0
18:12:19.852017,137033.453125,144485.53125,162332.59375,159224.359375,182118.796875,179581.171875,686195.75,132555.234375,0.040771484375,1.01416015625,-0.115478515625,-0.9155272841453552,0.4882812201976776,-0.1220703050494194,86.66667175292969,67309.0,1.0
18:12:19.855076,137015.75,144463.0,162316.59375,159219.625,182099.3125,179557.921875,686237.125,132553.09375,0.041015625,1.015380859375,-0.116455078125,-1.0070799589157104,0.4882812201976776,-0.1220703050494194,86.66667175292969,67310.0,1.0
18:12:19.855101,137036.234375,144495.1875,162326.25,159215.328125,182106.90625,179568.65625,686331.25,132545.578125,0.044189453125,1.01513671875,-0.115966796875,-1.0681151151657104,0.4577636420726776,-0.0610351525247097,86.66667175292969,67311.0,1.0
18:12:19.858191,137055.984375,144519.140625,162343.046875,159225.25,182127.03125,179587.6875,686416.0,132553.625,0.0439453125,1.01318359375,-0.115966796875,-1.1901854276657104,0.4272460639476776,0.0,86.66667175292969,67312.0,1.0
18:12:19.858234,137047.3125,144508.421875,162349.3125,159226.5,182138.828125,179600.390625,686176.4375,132559.4375,0.041748046875,1.011962890625,-0.11572265625,-1.3122557401657104,0.3967284858226776,-0.03051757626235485,86.66667175292969,67313.0,1.0
18:12:19.858236,137024.421875,144474.703125,162327.40625,159218.453125,182112.90625,179570.609375,686176.5,132556.046875,0.0400390625,1.009765625,-0.11328125,-1.4648436307907104,0.3356933295726776,0.0610351525247097,86.66667175292969,67314.0,1.0
18:12:19.861342,137035.6875,144494.828125,162329.8125,159218.90625,182112.546875,179573.390625,686234.5,132552.375,0.0361328125,1.010498046875,-0.111572265625,-1.5258787870407104,0.3051757514476776,0.1220703050494194,86.66667175292969,67315.0,1.0
18:12:19.861350,137055.8125,144520.3125,162341.4375,159224.71875,182123.453125,179586.34375,686383.375,132551.75,0.037353515625,1.0107421875,-0.114501953125,-1.4953612089157104,0.2746581733226776,0.2441406100988388,86.66667175292969,67316.0,1.0
18:12:19.863291,137049.640625,144512.4375,162348.234375,159223.640625,182134.09375,179597.96875,686174.25,132553.359375,0.037109375,1.009765625,-0.113525390625,-1.5869139432907104,0.1831054538488388,0.1831054538488388,86.66667175292969,67317.0,1.0
18:12:19.866376,137024.96875,144476.671875,162327.765625,159217.390625,182109.5,179568.65625,686160.6875,132551.9375,0.03466796875,1.008544921875,-0.114013671875,-1.8005369901657104,0.1831054538488388,0.0610351525247097,86.66667175292969,67318.0,1.0
18:12:19.866408,137040.15625,144499.390625,162336.34375,159226.140625,182116.484375,179576.0625,686178.75,132562.84375,0.035888671875,1.008056640625,-0.111328125,-1.8615721464157104,0.0610351525247097,0.1525878757238388,86.66667175292969,67319.0,1.0
18:12:19.868383,137061.0,144526.828125,162347.34375,159231.875,182125.421875,179588.3125,686358.5625,132560.328125,0.033935546875,1.00732421875,-0.10986328125,-2.075195074081421,-0.1525878757238388,0.1831054538488388,86.66667175292969,67320.0,1.0
18:12:19.874511,137060.8125,144528.265625,162357.796875,159233.65625,182142.671875,179610.3125,686190.8125,132564.09375,0.032958984375,1.005859375,-0.112548828125,-2.136230230331421,-0.3356933295726776,0.1525878757238388,86.66667175292969,67321.0,1.0
18:12:19.881406,137031.671875,144486.59375,162334.375,159226.234375,182118.0,179580.453125,686151.5625,132562.65625,0.033447265625,1.008544921875,-0.112060546875,-2.166747808456421,-0.4882812201976776,0.0610351525247097,86.66667175292969,67322.0,1.0
18:12:19.881461,137021.390625,144480.875,162319.453125,159212.015625,182101.375,179564.53125,686133.9375,132547.109375,0.031494140625,1.00830078125,-0.1103515625,-2.227782964706421,-0.5798339247703552,0.1525878757238388,86.66667175292969,67323.0,1.0
18:12:19.887604,137035.0625,144503.859375,162321.328125,159208.265625,182100.296875,179568.375,686303.9375,132537.09375,0.03466796875,1.0087890625,-0.109130859375,-2.319335699081421,-0.7019042372703552,0.0915527269244194,86.66667175292969,67324.0,1.0
18:12:19.887642,137038.90625,144508.234375,162332.59375,159205.140625,182117.46875,179587.609375,686210.8125,132532.265625,0.0322265625,1.00830078125,-0.11083984375,-2.349853277206421,-0.7934569716453552,0.0610351525247097,86.66667175292969,67325.0,1.0
18:12:19.893337,137021.828125,144479.71875,162324.546875,159209.34375,182108.515625,179574.109375,686113.75,132539.6875,0.03271484375,1.0087890625,-0.112060546875,-2.471923589706421,-0.9765624403953552,-0.0610351525247097,86.66667175292969,67326.0,1.0
18:12:19.902554,137018.25,144477.75,162318.5625,159209.515625,182100.75,179565.34375,686101.5625,132541.828125,0.033935546875,1.00537109375,-0.11083984375,-2.563476324081421,-1.0986326932907104,-0.1220703050494194,86.66667175292969,67327.0,1.0
18:12:19.902564,137036.859375,144506.09375,162325.625,159210.859375,182104.859375,179573.390625,686238.3125,132539.6875,0.03466796875,1.00732421875,-0.11328125,-2.624511480331421,-1.0681151151657104,-0.1831054538488388,86.66667175292969,67328.0,1.0
18:12:19.905204,137044.71875,144515.484375,162336.609375,159212.28125,182123.359375,179592.078125,686216.3125,132541.46875,0.0361328125,1.005615234375,-0.111572265625,-2.685546636581421,-1.2512205839157104,-0.1831054538488388,86.66667175292969,67329.0,1.0
18:12:19.905216,137025.40625,144482.578125,162327.671875,159212.375,182116.484375,179577.328125,686092.4375,132546.390625,0.0361328125,1.007568359375,-0.11279296875,-2.593993902206421,-1.3732908964157104,-0.1220703050494194,86.66667175292969,67330.0,1.0
18:12:19.915717,137012.0,144464.96875,162312.390625,159205.3125,182098.6875,179557.03125,686081.125,132542.359375,0.0361328125,1.007080078125,-0.111572265625,-2.532958745956421,-1.4648436307907104,-0.0915527269244194,86.66667175292969,67331.0,1.0
18:12:19.918932,137028.1875,144493.9375,162318.015625,159205.765625,182101.8125,179565.78125,686155.5,132538.96875,0.037841796875,1.005859375,-0.111572265625,-2.593993902206421,-1.5563963651657104,-0.0610351525247097,86.66667175292969,67332.0,1.0
18:12:19.918951,137037.921875,144507.796875,162329.015625,159206.46875,182116.5625,179583.21875,686211.1875,132539.859375,0.039306640625,1.001953125,-0.111572265625,-2.471923589706421,-1.4953612089157104,0.0,86.66667175292969,67333.0,1.0
18:12:19.924612,137024.6875,144486.328125,162327.578125,159207.546875,182118.53125,179583.84375,686038.125,132540.84375,0.038818359375,1.001220703125,-0.11279296875,-2.471923589706421,-1.4953612089157104,0.0610351525247097,86.66667175292969,67334.0,1.0
18:12:19.932698,137006.0,144461.03125,162308.8125,159201.203125,182094.125,179556.046875,686104.5,132535.484375,0.04248046875,1.002197265625,-0.11279296875,-2.502441167831421,-1.5563963651657104,0.0,86.66667175292969,67335.0,1.0
18:12:19.932706,137025.859375,144492.234375,162318.015625,159211.21875,182099.3125,179565.515625,686140.5,132541.46875,0.041748046875,1.00146484375,-0.112548828125,-2.319335699081421,-1.5563963651657104,-0.0610351525247097,86.66667175292969,67336.0,1.0
18:12:19.934535,137039.359375,144511.71875,162327.3125,159210.859375,182110.75,179576.875,686197.5,132541.296875,0.044189453125,1.002685546875,-0.111083984375,-2.319335699081421,-1.3732908964157104,0.0915527269244194,86.66667175292969,67337.0,1.0
18:12:19.944626,137027.46875,144490.4375,162328.484375,159207.109375,182116.5625,179578.484375,686009.5625,132538.34375,0.045654296875,1.0048828125,-0.111328125,-2.197265386581421,-1.2512205839157104,0.1831054538488388,86.66667175292969,67338.0,1.0
18:12:19.953838,137007.609375,144459.59375,162308.90625,159200.671875,182091.71875,179550.671875,686070.9375,132531.1875,0.04541015625,1.003662109375,-0.111083984375,-2.227782964706421,-1.2512205839157104,0.4577636420726776,86.66667175292969,67339.0,1.0
18:12:19.953851,137020.578125,144480.4375,162312.75,159204.875,182093.234375,179554.25,686136.0625,132531.09375,0.046875,1.001220703125,-0.114013671875,-2.197265386581421,-1.1596678495407104,0.3967284858226776,86.66667175292969,67340.0,1.0
18:12:19.958233,137038.90625,144503.046875,162323.828125,159220.6875,182103.515625,179566.234375,686189.3125,132540.3125,0.0458984375,1.00146484375,-0.1171875,-1.9836424589157104,-1.0681151151657104,0.5493163466453552,86.66667175292969,67341.0,1.0
18:12:19.960768,137035.328125,144499.46875,162332.5,159214.34375,182118.984375,179585.09375,686023.875,132541.5625,0.045654296875,0.99853515625,-0.115478515625,-1.8615721464157104,-1.0070799589157104,0.4577636420726776,86.66667175292969,67342.0,1.0
18:12:19.963820,137009.40625,144461.921875,162309.703125,159200.84375,182094.03125,179555.859375,686046.4375,132535.125,0.04345703125,0.99853515625,-0.11328125,-1.7395018339157104,-0.8239745497703552,0.4272460639476776,86.66667175292969,67343.0,1.0
18:12:19.963827,137012.984375,144472.03125,162307.109375,159199.234375,182088.859375,179552.28125,686148.1875,132531.640625,0.044677734375,1.00244140625,-0.112548828125,-1.5563963651657104,-0.7629393935203552,0.4882812201976776,86.66667175292969,67344.0,1.0
18:12:19.965715,137035.875,144502.515625,162320.796875,159207.734375,182099.84375,179565.96875,686199.5625,132536.109375,0.0458984375,1.00244140625,-0.11328125,-1.4953612089157104,-0.5493163466453552,0.3967284858226776,86.66667175292969,67345.0,1.0
18:12:19.973306,137048.390625,144515.484375,162343.953125,159222.75,182129.796875,179596.546875,686063.5,132553.09375,0.04541015625,1.003662109375,-0.11376953125,-1.4038084745407104,-0.6103515028953552,0.4882812201976776,86.66667175292969,67346.0,1.0
18:12:19.981328,137027.28125,144481.328125,162329.28125,159217.390625,182113.171875,179575.265625,686044.5625,132550.5,0.044189453125,1.004638671875,-0.11279296875,-1.3427733182907104,-0.5187987685203552,0.4577636420726776,86.66667175292969,67347.0,1.0
18:12:19.981341,137029.15625,144484.90625,162325.703125,159217.828125,182106.46875,179567.390625,686139.6875,132549.15625,0.0458984375,1.006103515625,-0.10986328125,-1.2512205839157104,-0.3662109076976776,0.5187987685203552,86.66667175292969,67348.0,1.0
18:12:19.987653,137053.21875,144519.0625,162337.59375,159225.703125,182115.140625,179578.484375,686193.5,132551.75,0.0458984375,1.009521484375,-0.108642578125,-1.1596678495407104,-0.2746581733226776,0.3356933295726776,86.66667175292969,67349.0,1.0
18:12:19.987725,137053.65625,144520.484375,162345.90625,159222.75,182130.421875,179592.96875,686102.8125,132551.84375,0.0458984375,1.0087890625,-0.10888671875,-1.2207030057907104,-0.1831054538488388,0.3662109076976776,86.66667175292969,67350.0,1.0
18:12:20.003151,137040.25,144495.09375,162341.171875,159230.96875,182124.703125,179583.671875,686009.125,132564.171875,0.045654296875,1.009033203125,-0.109375,-1.3427733182907104,-0.0915527269244194,0.3356933295726776,86.66667175292969,67351.0,1.0
18:12:20.003165,137035.15625,144493.21875,162332.953125,159226.953125,182113.34375,179574.90625,686117.125,132566.953125,0.044921875,1.00732421875,-0.1103515625,-1.3122557401657104,0.03051757626235485,0.3662109076976776,86.66667175292969,67352.0,1.0
18:12:20.003170,137047.140625,144512.171875,162332.765625,159222.296875,182109.859375,179570.171875,686176.5625,132555.328125,0.044921875,1.005859375,-0.10986328125,-1.3122557401657104,0.1220703050494194,0.1831054538488388,86.66667175292969,67353.0,1.0
18:12:20.008904,137054.203125,144521.375,162344.125,159223.203125,182125.953125,179588.140625,686144.75,132546.921875,0.04345703125,1.004638671875,-0.107666015625,-1.4343260526657104,0.1831054538488388,0.2441406100988388,86.66667175292969,67354.0,1.0
18:12:20.009035,137039.265625,144499.125,162340.640625,159222.484375,182124.796875,179585.28125,686007.0625,132552.46875,0.044677734375,1.007568359375,-0.1103515625,-1.4648436307907104,0.3662109076976776,0.2441406100988388,86.66667175292969,67355.0,1.0
18:12:20.010782,137028.1875,144481.765625,162328.296875,159221.140625,182108.703125,179566.234375,686116.9375,132554.171875,0.044677734375,1.00830078125,-0.11181640625,-1.4648436307907104,0.4272460639476776,0.1831054538488388,86.66667175292969,67356.0,1.0
18:12:20.017205,137048.65625,144513.6875,162337.78125,159227.9375,182115.3125,179576.78125,686166.9375,132555.59375,0.04541015625,1.00634765625,-0.11181640625,-1.4343260526657104,0.5798339247703552,0.3051757514476776,86.66667175292969,67357.0,1.0
18:12:20.028881,137058.75,144529.515625,162346.8125,159229.09375,182127.75,179591.625,686178.3125,132557.828125,0.046142578125,1.005859375,-0.1142578125,-1.4343260526657104,0.7324218153953552,0.3356933295726776,86.66667175292969,67358.0,1.0
18:12:20.028939,137042.75,144504.390625,162343.953125,159229.09375,182128.1875,179588.59375,685998.875,132561.140625,0.04541015625,1.004638671875,-0.1123046875,-1.4953612089157104,0.7019042372703552,0.2746581733226776,86.66667175292969,67359.0,1.0
18:12:20.031322,137015.03125,144467.46875,162315.15625,159212.203125,182095.109375,179554.34375,686091.3125,132547.28125,0.04296875,1.00830078125,-0.11279296875,-1.4953612089157104,0.8544921278953552,0.2746581733226776,86.66667175292969,67360.0,1.0
18:12:20.031371,137016.015625,144476.234375,162305.40625,159203.53125,182081.4375,179543.171875,686137.8125,132532.53125,0.0439453125,1.009521484375,-0.11279296875,-1.5563963651657104,0.9155272841453552,0.2746581733226776,86.66667175292969,67361.0,1.0
18:12:20.033293,137026.65625,144491.34375,162310.328125,159200.671875,182087.953125,179553.453125,686197.1875,132528.234375,0.04052734375,1.01025390625,-0.11572265625,-1.5563963651657104,1.0681151151657104,0.3967284858226776,86.66667175292969,67362.0,1.0
18:12:20.045749,137016.5625,144478.109375,162314.171875,159201.921875,182098.953125,179564.171875,686023.0,132533.875,0.040771484375,1.0087890625,-0.11376953125,-1.4953612089157104,1.0681151151657104,0.3967284858226776,86.66667175292969,67363.0,1.0
18:12:20.048807,137000.640625,144450.484375,162300.40625,159204.15625,182080.8125,179541.5625,686053.125,132539.234375,0.04248046875,1.00634765625,-0.115234375,-1.5869139432907104,1.0986326932907104,0.3662109076976776,86.66667175292969,67364.0,1.0
18:12:20.048834,137017.8125,144477.484375,162310.421875,159209.0625,182088.765625,179552.375,686108.8125,132540.9375,0.04052734375,1.0078125,-0.112548828125,-1.5563963651657104,1.0681151151657104,0.5493163466453552,86.66667175292969,67365.0,1.0
18:12:20.050827,137029.609375,144497.6875,162314.703125,159207.109375,182093.6875,179559.265625,686210.125,132537.0,0.038818359375,1.0087890625,-0.1123046875,-1.6479490995407104,1.1291502714157104,0.4272460639476776,86.66667175292969,67366.0,1.0
18:12:20.061365,137027.640625,144491.515625,162324.640625,159209.609375,182110.3125,179573.203125,686045.625,132542.984375,0.03662109375,1.010009765625,-0.1103515625,-1.7089842557907104,1.1901854276657104,0.4882812201976776,86.66667175292969,67367.0,1.0
18:12:20.061406,137010.390625,144464.15625,162313.09375,159209.34375,182094.84375,179555.421875,686051.5,132545.3125,0.03515625,1.009521484375,-0.10986328125,-1.7395018339157104,1.1291502714157104,0.2441406100988388,86.66667175292969,67368.0,1.0
18:12:20.063294,137013.34375,144475.328125,162311.3125,159202.359375,182090.28125,179553.265625,686111.0625,132533.421875,0.034423828125,1.009521484375,-0.1103515625,-1.7395018339157104,1.1291502714157104,0.2136230319738388,86.66667175292969,67369.0,1.0
18:12:20.070720,137039.71875,144508.953125,162326.875,159220.25,182103.515625,179569.71875,686208.4375,132545.9375,0.031005859375,1.00732421875,-0.109375,-1.8005369901657104,1.0070799589157104,0.0915527269244194,86.66667175292969,67370.0,1.0
18:12:20.078852,137045.34375,144514.234375,162342.609375,159227.84375,182125.6875,179589.125,686087.4375,132554.703125,0.03271484375,1.0048828125,-0.10791015625,-1.8310545682907104,0.9155272841453552,-0.0915527269244194,86.66667175292969,67371.0,1.0
18:12:20.078923,137012.53125,144469.078125,162316.59375,159216.484375,182098.59375,179557.65625,686036.375,132545.671875,0.03173828125,1.00439453125,-0.10693359375,-1.8005369901657104,0.8850097060203552,-0.1525878757238388,86.66667175292969,67372.0,1.0
18:12:20.081344,137004.046875,144463.53125,162302.375,159204.15625,182081.703125,179542.90625,686126.875,132534.140625,0.031982421875,1.006591796875,-0.110107421875,-1.7395018339157104,0.7324218153953552,-0.1220703050494194,86.66667175292969,67373.0,1.0
18:12:20.081405,137020.21875,144489.90625,162306.84375,159195.65625,182084.921875,179550.3125,686206.25,132524.921875,0.0322265625,1.00634765625,-0.107666015625,-1.7395018339157104,0.5798339247703552,-0.1525878757238388,86.66667175292969,67374.0,1.0
18:12:20.093318,137031.21875,144501.265625,162324.015625,159203.078125,182110.046875,179575.078125,686141.25,132533.609375,0.030517578125,1.0078125,-0.1083984375,-1.7700194120407104,0.5493163466453552,0.03051757626235485,86.66667175292969,67375.0,1.0
18:12:20.097569,137016.46875,144473.546875,162318.90625,159207.1875,182105.125,179564.796875,686034.4375,132541.296875,0.029541015625,1.00830078125,-0.106689453125,-1.9531248807907104,0.4272460639476776,0.03051757626235485,86.66667175292969,67376.0,1.0
18:12:20.097599,137012.265625,144469.4375,162314.0,159206.65625,182095.109375,179553.359375,686056.25,132541.203125,0.030517578125,1.00830078125,-0.11083984375,-1.8920897245407104,0.3967284858226776,0.1831054538488388,86.66667175292969,67377.0,1.0
18:12:20.100074,137029.515625,144497.78125,162319.984375,159207.546875,182097.078125,179558.359375,686149.9375,132536.28125,0.031005859375,1.008056640625,-0.111083984375,-1.9836424589157104,0.2136230319738388,0.0610351525247097,86.66667175292969,67378.0,1.0
18:12:20.100100,137037.484375,144508.859375,162330.265625,159210.046875,182113.171875,179576.875,686169.5,132539.0625,0.033203125,1.00830078125,-0.110107421875,-1.9836424589157104,0.1525878757238388,0.2441406100988388,86.66667175292969,67379.0,1.0
18:12:20.116987,137023.265625,144484.09375,162327.859375,159210.765625,182111.828125,179570.4375,686022.5625,132543.265625,0.03271484375,1.00830078125,-0.1103515625,-1.9836424589157104,0.03051757626235485,0.3051757514476776,86.66667175292969,67380.0,1.0
18:12:20.120063,137017.1875,144472.390625,162319.8125,159213.8125,182097.53125,179556.84375,686076.5625,132548.890625,0.03369140625,1.010986328125,-0.11083984375,-1.9836424589157104,0.0,0.4577636420726776,86.66667175292969,67381.0,1.0
18:12:20.120087,137032.109375,144495.984375,162323.375,159209.515625,182098.78125,179558.359375,686139.6875,132545.140625,0.032958984375,1.01025390625,-0.107421875,-2.075195074081421,-0.1220703050494194,0.5798339247703552,86.66667175292969,67382.0,1.0
18:12:20.128846,137038.90625,144504.84375,162326.59375,159207.8125,182105.75,179564.796875,686210.0625,132540.84375,0.033203125,1.007568359375,-0.10693359375,-2.136230230331421,-0.0915527269244194,0.6103515028953552,86.66667175292969,67383.0,1.0
18:12:20.128893,137023.359375,144484.8125,162324.90625,159205.671875,182108.609375,179565.34375,686026.375,132537.0,0.03369140625,1.0068359375,-0.1083984375,-2.136230230331421,-0.1525878757238388,0.7019042372703552,86.66667175292969,67384.0,1.0
18:12:20.175690,137003.59375,144456.109375,162305.765625,159198.34375,182085.359375,179540.21875,686067.0,132530.203125,0.034423828125,1.00537109375,-0.10791015625,-2.105712652206421,-0.2136230319738388,0.7934569716453552,86.66667175292969,67385.0,1.0
18:12:20.175714,137016.921875,144478.640625,162311.3125,159205.046875,182089.296875,179544.953125,686102.5,132539.765625,0.033447265625,1.006103515625,-0.108154296875,-2.136230230331421,-0.4272460639476776,0.9155272841453552,86.66667175292969,67386.0,1.0
18:12:20.175718,137031.21875,144499.5625,162319.53125,159201.46875,182097.796875,179557.921875,686221.5,132532.53125,0.033935546875,1.005859375,-0.108642578125,-2.136230230331421,-0.4882812201976776,0.9460448622703552,86.66667175292969,67387.0,1.0
18:12:20.188823,137023.625,144488.484375,162324.015625,159202.359375,182107.09375,179568.828125,686041.25,132530.390625,0.03369140625,1.006591796875,-0.11083984375,-2.227782964706421,-0.5187987685203552,1.0375975370407104,86.66667175292969,67388.0,1.0
18:12:20.188860,137009.671875,144464.78125,162312.03125,159204.515625,182090.1875,179550.59375,686073.0625,132538.078125,0.033203125,1.008056640625,-0.108642578125,-2.288818120956421,-0.5798339247703552,1.0070799589157104,86.66667175292969,67389.0,1.0
18:12:20.195670,137015.484375,144475.609375,162310.0625,159201.921875,182086.890625,179546.03125,686094.1875,132534.5,0.034423828125,1.007568359375,-0.107666015625,-2.227782964706421,-0.6713866591453552,0.9155272841453552,86.66667175292969,67390.0,1.0
18:12:20.195704,137036.5,144502.78125,162322.21875,159207.640625,182098.15625,179559.703125,686232.5,132535.5625,0.03662109375,1.0087890625,-0.1064453125,-2.258300542831421,-0.6103515028953552,1.0986326932907104,86.66667175292969,67391.0,1.0
18:12:20.195719,137042.671875,144505.015625,162340.8125,159219.0,182123.453125,179582.6875,686086.9375,132548.171875,0.03564453125,1.010009765625,-0.107421875,-2.288818120956421,-0.7019042372703552,0.9460448622703552,86.66667175292969,67392.0,1.0
18:12:20.203162,137017.8125,144468.1875,162321.140625,159214.4375,182100.921875,179556.125,686057.6875,132551.75,0.037109375,1.006103515625,-0.104248046875,-2.349853277206421,-0.6713866591453552,0.9155272841453552,86.66667175292969,67393.0,1.0
18:12:20.203170,137022.453125,144478.828125,162320.796875,159211.578125,182096.90625,179552.90625,686068.75,132550.59375,0.03857421875,1.00634765625,-0.109130859375,-2.288818120956421,-0.7019042372703552,0.8850097060203552,86.66667175292969,67394.0,1.0
18:12:20.203173,137041.59375,144505.015625,162329.1875,159216.765625,182103.34375,179561.046875,686227.9375,132546.65625,0.04052734375,1.00390625,-0.110107421875,-2.258300542831421,-0.5798339247703552,0.8544921278953552,86.66667175292969,67395.0,1.0
18:12:20.205849,137043.640625,144506.8125,162339.921875,159218.015625,182121.671875,179578.75,686123.3125,132549.0625,0.0419921875,1.001708984375,-0.109130859375,-2.166747808456421,-0.6103515028953552,0.9155272841453552,86.66667175292969,67396.0,1.0
18:12:20.216272,137023.625,144478.828125,162328.203125,159218.09375,182110.046875,179564.890625,686062.6875,132557.5625,0.042236328125,1.002197265625,-0.108642578125,-2.014159917831421,-0.6103515028953552,0.8850097060203552,86.66667175292969,67397.0,1.0
18:12:20.216291,137010.65625,144466.75,162310.953125,159205.140625,182088.40625,179543.53125,686044.0,132541.015625,0.0439453125,1.00439453125,-0.10986328125,-2.014159917831421,-0.5187987685203552,0.8239745497703552,86.66667175292969,67398.0,1.0
18:12:20.216296,137028.09375,144492.59375,162316.3125,159217.390625,182090.546875,179549.609375,686187.125,132543.4375,0.0458984375,1.003662109375,-0.107177734375,-2.014159917831421,-0.5187987685203552,0.8850097060203552,86.66667175292969,67399.0,1.0
18:12:20.218931,137031.125,144499.46875,162324.09375,159205.3125,182104.046875,179568.734375,686168.375,132535.296875,0.0458984375,1.004638671875,-0.10791015625,-1.8920897245407104,-0.3662109076976776,0.8850097060203552,86.66667175292969,67400.0,1.0
18:12:20.220748,137010.390625,144468.890625,162313.8125,159200.046875,182093.5,179555.953125,686045.375,132536.015625,0.04541015625,1.005859375,-0.1064453125,-1.8615721464157104,-0.2746581733226776,0.8850097060203552,86.66667175292969,67401.0,1.0
18:12:20.223278,137001.171875,144457.546875,162301.203125,159197.890625,182077.59375,179539.140625,686043.3125,132537.171875,0.04736328125,1.0048828125,-0.1064453125,-1.8310545682907104,-0.1220703050494194,0.7934569716453552,86.66667175292969,67402.0,1.0
18:12:20.230339,137025.953125,144490.890625,162315.0625,159208.625,182088.046875,179548.984375,686151.75,132546.75,0.045654296875,1.002685546875,-0.109619140625,-1.7089842557907104,-0.03051757626235485,0.7629393935203552,86.66667175292969,67403.0,1.0
18:12:20.230363,137035.78125,144504.21875,162326.875,159206.65625,182103.421875,179566.5,686212.375,132538.96875,0.0458984375,1.00439453125,-0.109619140625,-1.6784666776657104,0.1525878757238388,0.7019042372703552,86.66667175292969,67404.0,1.0
18:12:20.230713,137022.734375,144483.46875,162325.34375,159212.203125,182104.5,179566.40625,686062.5,132549.0625,0.045654296875,1.00341796875,-0.10986328125,-1.6174315214157104,0.2746581733226776,0.7629393935203552,86.66667175292969,67405.0,1.0
18:12:20.233387,137015.21875,144467.5625,162315.421875,159215.328125,182090.640625,179548.0,686084.0625,132553.546875,0.04443359375,1.003173828125,-0.10693359375,-1.6479490995407104,0.4577636420726776,0.7629393935203552,86.66667175292969,67406.0,1.0
18:12:20.235830,137024.96875,144488.203125,162314.890625,159209.0625,182086.796875,179546.03125,686125.4375,132541.46875,0.044189453125,1.0029296875,-0.105224609375,-1.5869139432907104,0.5493163466453552,0.5493163466453552,86.66667175292969,67407.0,1.0
18:12:20.243392,137042.03125,144512.625,162329.8125,159210.5,182103.96875,179569.09375,686247.75,132540.390625,0.043212890625,1.00341796875,-0.10595703125,-1.5258787870407104,0.6103515028953552,0.6103515028953552,86.66667175292969,67408.0,1.0
18:12:20.245767,137030.859375,144495.0,162332.234375,159213.890625,182111.390625,179573.390625,686078.0,132546.65625,0.0439453125,1.001953125,-0.1044921875,-1.5869139432907104,0.6408690810203552,0.6408690810203552,86.66667175292969,67409.0,1.0
18:12:20.248899,137011.1875,144463.890625,162312.65625,159207.28125,182087.875,179544.78125,686097.4375,132545.5,0.04345703125,1.003173828125,-0.105712890625,-1.5258787870407104,0.7019042372703552,0.5798339247703552,86.66667175292969,67410.0,1.0
18:12:20.248930,137021.65625,144483.03125,162314.625,159208.265625,182088.3125,179545.765625,686112.375,132539.765625,0.04345703125,1.003662109375,-0.1064453125,-1.4038084745407104,0.8239745497703552,0.5493163466453552,86.66667175292969,67411.0,1.0
18:12:20.251349,137036.234375,144503.859375,162322.484375,159209.609375,182096.71875,179555.859375,686280.0625,132542.1875,0.03955078125,1.003173828125,-0.106201171875,-1.3122557401657104,0.8239745497703552,0.4272460639476776,86.66667175292969,67412.0,1.0
18:12:20.251379,137028.53125,144495.359375,162327.765625,159209.96875,182107.0,179569.09375,686110.4375,132545.21875,0.041748046875,1.004150390625,-0.1083984375,-1.3122557401657104,0.8850097060203552,0.3967284858226776,86.66667175292969,67413.0,1.0
18:12:20.253382,137000.375,144455.484375,162301.5625,159190.296875,182076.15625,179538.609375,686109.25,132523.140625,0.04052734375,1.00537109375,-0.10595703125,-1.2207030057907104,0.9155272841453552,0.3356933295726776,86.66667175292969,67414.0,1.0
18:12:20.258288,137015.125,144478.109375,162309.96875,159197.984375,182083.046875,179545.21875,686116.625,132530.46875,0.0380859375,1.005126953125,-0.106201171875,-1.2207030057907104,0.8239745497703552,0.2746581733226776,86.66667175292969,67415.0,1.0
18:12:20.263270,137036.9375,144507.078125,162322.40625,159206.65625,182094.3125,179558.640625,686305.25,132536.28125,0.036865234375,1.004638671875,-0.109375,-1.1596678495407104,0.9155272841453552,0.1220703050494194,86.66667175292969,67416.0,1.0
18:12:20.265860,137033.09375,144500.28125,162329.90625,159207.109375,182109.5,179571.15625,686154.75,132539.0625,0.0361328125,1.005126953125,-0.10888671875,-1.0986326932907104,0.9460448622703552,0.0610351525247097,86.66667175292969,67417.0,1.0
18:12:20.268891,137008.78125,144465.234375,162312.03125,159201.921875,182090.375,179547.90625,686111.75,132538.609375,0.033935546875,1.0048828125,-0.106689453125,-1.0070799589157104,0.9155272841453552,0.2136230319738388,86.66667175292969,67418.0,1.0
18:12:20.268951,137005.296875,144467.375,162303.53125,159192.625,182079.90625,179539.328125,686115.8125,132530.921875,0.033935546875,1.008544921875,-0.107666015625,-0.9765624403953552,0.8239745497703552,0.2746581733226776,86.66667175292969,67419.0,1.0
18:12:20.270772,137020.578125,144491.34375,162306.65625,159188.140625,182081.4375,179544.6875,686292.375,132521.359375,0.033203125,1.008544921875,-0.10888671875,-0.9765624403953552,0.7324218153953552,0.3356933295726776,86.66667175292969,67420.0,1.0
18:12:20.273309,137032.65625,144505.828125,162327.765625,159197.984375,182108.703125,179575.625,686193.75,132533.78125,0.033203125,1.00439453125,-0.10546875,-0.8544921278953552,0.5187987685203552,0.3051757514476776,86.66667175292969,67421.0,1.0
18:12:20.277047,137008.15625,144468.625,162312.75,159195.296875,182091.53125,179551.484375,686127.875,132534.765625,0.0322265625,1.00341796875,-0.10693359375,-0.8850097060203552,0.4577636420726776,0.3356933295726776,86.66667175292969,67422.0,1.0
18:12:20.287597,136993.765625,144454.5,162294.0625,159180.734375,182067.84375,179527.078125,686125.5625,132517.78125,0.03076171875,1.00390625,-0.10693359375,-0.8239745497703552,0.4272460639476776,0.3356933295726776,86.66667175292969,67423.0,1.0
18:12:20.287619,137012.171875,144483.828125,162299.59375,159182.15625,182069.546875,179534.5,686275.5625,132515.359375,0.03173828125,1.002685546875,-0.107666015625,-0.7629393935203552,0.2441406100988388,0.3967284858226776,86.66667175292969,67424.0,1.0
18:12:20.290057,137019.421875,144490.0,162311.40625,159188.328125,182085.8125,179550.5,686239.375,132519.5625,0.03173828125,1.004150390625,-0.108154296875,-0.7324218153953552,0.1220703050494194,0.4272460639476776,86.66667175292969,67425.0,1.0
18:12:20.290083,137000.640625,144459.421875,162303.625,159195.921875,182079.203125,179538.25,686112.0625,132529.671875,0.032958984375,1.004638671875,-0.110107421875,-0.6713866591453552,-0.03051757626235485,0.4577636420726776,86.66667175292969,67426.0,1.0
18:12:20.295862,136989.375,144445.5625,162289.140625,159180.8125,182061.046875,179521.265625,686133.25,132521.984375,0.033447265625,1.004638671875,-0.109375,-0.7019042372703552,-0.0915527269244194,0.5493163466453552,86.66667175292969,67427.0,1.0
18:12:20.302618,137007.96875,144474.171875,162295.390625,159178.578125,182064.625,179528.234375,686254.1875,132514.640625,0.03173828125,1.00439453125,-0.1083984375,-0.7324218153953552,-0.2441406100988388,0.6103515028953552,86.66667175292969,67428.0,1.0
18:12:20.302645,137013.34375,144483.03125,162300.765625,159176.53125,182075.359375,179541.203125,686300.3125,132510.453125,0.03369140625,1.00537109375,-0.1064453125,-0.6103515028953552,-0.3662109076976776,0.6408690810203552,86.66667175292969,67429.0,1.0
18:12:20.308225,136993.84375,144456.921875,162295.21875,159173.390625,182073.390625,179535.5625,686128.6875,132509.46875,0.033935546875,1.004638671875,-0.107666015625,-0.5493163466453552,-0.3356933295726776,0.8239745497703552,86.66667175292969,67430.0,1.0
18:12:20.318871,136972.75,144427.859375,162275.015625,159164.015625,182048.984375,179507.9375,686140.5,132504.546875,0.03466796875,1.005615234375,-0.108642578125,-0.5493163466453552,-0.4577636420726776,0.7934569716453552,86.66667175292969,67431.0,1.0
18:12:20.318893,136987.59375,144452.890625,162279.390625,159164.90625,182051.390625,179513.578125,686222.5625,132501.328125,0.0361328125,1.005859375,-0.108642578125,-0.5798339247703552,-0.5493163466453552,0.9155272841453552,86.66667175292969,67432.0,1.0
18:12:20.321391,137005.734375,144482.046875,162294.953125,159172.0625,182069.453125,179536.90625,686341.0,132507.046875,0.037841796875,1.0078125,-0.111083984375,-0.6103515028953552,-0.6103515028953552,1.0070799589157104,86.66667175292969,67433.0,1.0
18:12:20.321412,137005.109375,144473.71875,162308.546875,159190.296875,182088.859375,179550.59375,686150.125,132529.125,0.03759765625,1.00732421875,-0.11181640625,-0.7019042372703552,-0.6408690810203552,0.9460448622703552,86.66667175292969,67434.0,1.0
18:12:20.330825,136978.109375,144436.171875,162282.25,159170.890625,182058.1875,179516.4375,686154.875,132511.421875,0.037841796875,1.0068359375,-0.110107421875,-0.7324218153953552,-0.7324218153953552,0.9460448622703552,86.66667175292969,67435.0,1.0
18:12:20.335181,136977.671875,144446.28125,162273.765625,159160.34375,182047.453125,179509.015625,686189.4375,132499.265625,0.040771484375,1.00830078125,-0.109130859375,-0.6713866591453552,-0.5798339247703552,1.0070799589157104,86.66667175292969,67436.0,1.0
18:12:20.335204,136998.9375,144474.796875,162286.71875,159166.421875,182062.65625,179528.421875,686355.5,132505.96875,0.039306640625,1.011474609375,-0.108642578125,-0.7934569716453552,-0.5798339247703552,1.1596678495407104,86.66667175292969,67437.0,1.0
18:12:20.346361,137001.0,144474.984375,162302.375,159173.578125,182086.703125,179550.953125,686167.1875,132515.28125,0.040771484375,1.01220703125,-0.109375,-0.7629393935203552,-0.6103515028953552,1.0681151151657104,86.66667175292969,67438.0,1.0
18:12:20.346384,136985.71875,144448.328125,162291.109375,159174.828125,182071.5,179531.640625,686155.375,132519.203125,0.041748046875,1.011474609375,-0.111328125,-0.9765624403953552,-0.5187987685203552,1.0681151151657104,86.66667175292969,67439.0,1.0
18:12:20.350785,136996.171875,144468.09375,162295.84375,159181.359375,182073.5625,179537.09375,686181.0,132522.25,0.04052734375,1.00927734375,-0.110107421875,-1.0070799589157104,-0.4577636420726776,1.0375975370407104,86.66667175292969,67440.0,1.0
18:12:20.353513,137012.890625,144490.4375,162302.375,159188.0625,182079.734375,179542.1875,686359.9375,132526.0,0.041259765625,1.0087890625,-0.109619140625,-0.9460448622703552,-0.4272460639476776,1.0375975370407104,86.66667175292969,67441.0,1.0
18:12:20.382619,137012.359375,144488.484375,162312.03125,159186.984375,182096.1875,179557.03125,686195.625,132524.125,0.040771484375,1.0078125,-0.108642578125,-0.9765624403953552,-0.3356933295726776,0.9765624403953552,86.66667175292969,67442.0,1.0
18:12:20.382663,136987.234375,144449.9375,162292.8125,159179.65625,182071.59375,179530.296875,686138.5,132519.125,0.040283203125,1.010009765625,-0.10693359375,-1.0681151151657104,-0.3662109076976776,1.0375975370407104,86.66667175292969,67443.0,1.0
18:12:20.385112,136985.4375,144451.640625,162284.9375,159174.296875,182059.265625,179520.640625,686140.8125,132514.296875,0.04150390625,1.010009765625,-0.10888671875,-1.0375975370407104,-0.2746581733226776,1.0070799589157104,86.66667175292969,67444.0,1.0
18:12:20.385131,137004.9375,144480.078125,162292.53125,159178.140625,182064.265625,179528.140625,686314.875,132513.390625,0.042724609375,1.00830078125,-0.110107421875,-1.1596678495407104,-0.2136230319738388,0.9765624403953552,86.66667175292969,67445.0,1.0
18:12:20.386979,137017.71875,144493.578125,162312.921875,159185.203125,182092.25,179554.703125,686233.25,132521.890625,0.0419921875,1.00634765625,-0.11083984375,-1.1596678495407104,-0.2441406100988388,0.9765624403953552,86.66667175292969,67446.0,1.0
18:12:20.389509,136997.328125,144461.390625,162302.375,159185.015625,182080.8125,179537.796875,686130.8125,132525.46875,0.044189453125,1.00634765625,-0.112060546875,-1.1596678495407104,-0.1525878757238388,0.8850097060203552,86.66667175292969,67447.0,1.0
18:12:20.391997,136999.578125,144465.234375,162301.75,159189.21875,182075.4375,179536.015625,686143.0,132528.234375,0.046630859375,1.005859375,-0.109375,-1.1291502714157104,-0.0610351525247097,0.7934569716453552,86.66667175292969,67448.0,1.0
18:12:20.394508,137020.140625,144496.078125,162311.21875,159194.578125,182081.4375,179544.859375,686286.1875,132530.828125,0.04296875,1.005126953125,-0.10986328125,-1.0986326932907104,-0.03051757626235485,0.7324218153953552,86.66667175292969,67449.0,1.0
18:12:20.396983,137022.375,144498.765625,162316.5,159190.734375,182091.71875,179555.234375,686262.0625,132530.734375,0.04150390625,1.00830078125,-0.108642578125,-1.0681151151657104,0.03051757626235485,0.8544921278953552,86.66667175292969,67450.0,1.0
18:12:20.399514,137005.734375,144471.484375,162311.140625,159197.796875,182085.640625,179547.375,686111.6875,132534.671875,0.04345703125,1.005859375,-0.10986328125,-1.0681151151657104,0.1220703050494194,0.8544921278953552,86.66667175292969,67451.0,1.0
18:12:20.402023,136995.71875,144456.109375,162298.96875,159188.78125,182067.03125,179530.375,686120.6875,132526.890625,0.044189453125,1.006103515625,-0.111083984375,-0.9460448622703552,0.2136230319738388,0.7019042372703552,86.66667175292969,67452.0,1.0
18:12:20.405064,137009.578125,144479.71875,162300.3125,159179.75,182065.15625,179531.8125,686212.0625,132514.921875,0.04443359375,1.005126953125,-0.110595703125,-0.8850097060203552,0.2746581733226776,0.8239745497703552,86.66667175292969,67453.0,1.0
18:12:20.405091,137019.59375,144491.421875,162309.609375,159191.015625,182079.203125,179542.8125,686267.9375,132524.75,0.04443359375,1.004150390625,-0.110107421875,-0.9460448622703552,0.3967284858226776,0.7324218153953552,86.66667175292969,67454.0,1.0
18:12:20.407638,137006.90625,144472.296875,162310.421875,159190.390625,182085.359375,179546.828125,686100.125,132527.171875,0.045654296875,1.001220703125,-0.11181640625,-0.9765624403953552,0.3967284858226776,0.6408690810203552,86.66667175292969,67455.0,1.0
18:12:20.407657,136986.515625,144443.78125,162290.296875,159183.046875,182062.296875,179521.265625,686107.9375,132519.828125,0.046875,1.004150390625,-0.110595703125,-0.8850097060203552,0.3967284858226776,0.5798339247703552,86.66667175292969,67456.0,1.0
18:12:20.422021,136996.0,144466.390625,162292.265625,159182.0625,182062.125,179526.0,686147.375,132514.5625,0.045166015625,1.00390625,-0.111083984375,-0.8239745497703552,0.4882812201976776,0.5798339247703552,86.66667175292969,67457.0,1.0
18:12:20.425078,137012.265625,144489.90625,162303.890625,159187.25,182076.609375,179543.875,686282.75,132518.5,0.04345703125,1.007080078125,-0.10986328125,-0.9460448622703552,0.6103515028953552,0.6408690810203552,86.66667175292969,67458.0,1.0
18:12:20.425107,137003.59375,144474.078125,162306.65625,159186.53125,182084.46875,179549.875,686107.75,132521.078125,0.041259765625,1.007080078125,-0.110107421875,-0.8850097060203552,0.6713866591453552,0.5798339247703552,86.66667175292969,67459.0,1.0
18:12:20.426996,136987.671875,144446.28125,162291.546875,159187.4375,182062.65625,179524.484375,686111.6875,132526.625,0.041259765625,1.007080078125,-0.11279296875,-0.9460448622703552,0.7629393935203552,0.6408690810203552,86.66667175292969,67460.0,1.0
18:12:20.433301,136998.140625,144464.96875,162295.484375,159190.828125,182062.75,179525.546875,686117.375,132529.578125,0.04150390625,1.006591796875,-0.111572265625,-0.9460448622703552,0.7324218153953552,0.5798339247703552,86.66667175292969,67461.0,1.0
18:12:20.442909,137010.203125,144482.9375,162298.96875,159186.09375,182064.890625,179528.59375,686286.5625,132518.40625,0.041748046875,1.0078125,-0.112548828125,-1.0070799589157104,0.7324218153953552,0.6103515028953552,86.66667175292969,67462.0,1.0
18:12:20.442938,137011.46875,144484.90625,162312.390625,159186.890625,182084.828125,179550.59375,686126.8125,132520.1875,0.041748046875,1.007568359375,-0.11328125,-0.9765624403953552,0.7324218153953552,0.4882812201976776,86.66667175292969,67463.0,1.0
18:12:20.448950,136995.90625,144457.546875,162301.296875,159188.78125,182070.96875,179532.890625,686111.5,132525.640625,0.04345703125,1.0048828125,-0.11279296875,-1.0070799589157104,0.7629393935203552,0.5187987685203552,86.66667175292969,67464.0,1.0
18:12:20.448957,137002.15625,144469.703125,162302.546875,159191.015625,182070.078125,179531.359375,686086.125,132527.4375,0.04150390625,1.005859375,-0.11181640625,-1.0986326932907104,0.7019042372703552,0.5493163466453552,86.66667175292969,67465.0,1.0
18:12:20.451497,137015.578125,144489.015625,162306.3125,159192.34375,182072.484375,179531.90625,686255.875,132523.671875,0.0390625,1.007080078125,-0.1123046875,-1.1291502714157104,0.7324218153953552,0.6103515028953552,86.66667175292969,67466.0,1.0
18:12:20.451516,137020.3125,144494.828125,162320.875,159196.828125,182093.765625,179552.90625,686136.625,132531.359375,0.0380859375,1.00732421875,-0.1123046875,-1.0070799589157104,0.7324218153953552,0.6103515028953552,86.66667175292969,67467.0,1.0
18:12:20.467086,136996.625,144460.9375,162301.921875,159191.453125,182071.328125,179530.46875,686082.375,132531.546875,0.03662109375,1.006103515625,-0.113525390625,-1.0375975370407104,0.6103515028953552,0.5493163466453552,86.66667175292969,67468.0,1.0
18:12:20.470102,136992.859375,144457.90625,162292.359375,159182.875,182057.03125,179517.953125,686038.375,132523.328125,0.03857421875,1.006591796875,-0.11376953125,-0.9460448622703552,0.5798339247703552,0.4882812201976776,86.66667175292969,67469.0,1.0
18:12:20.470152,137014.046875,144488.296875,162300.765625,159190.5625,182063.546875,179528.6875,686180.8125,132526.53125,0.035888671875,1.007080078125,-0.1103515625,-0.8544921278953552,0.5187987685203552,0.5493163466453552,86.66667175292969,67470.0,1.0
18:12:20.472618,137019.515625,144496.4375,162312.296875,159187.515625,182081.703125,179547.734375,686145.6875,132518.671875,0.036376953125,1.008056640625,-0.111083984375,-0.9460448622703552,0.5187987685203552,0.5493163466453552,86.66667175292969,67471.0,1.0
18:12:20.472674,137001.8125,144467.28125,162305.5,159189.84375,182074.375,179534.140625,686046.9375,132525.375,0.036376953125,1.0068359375,-0.110595703125,-1.0070799589157104,0.3356933295726776,0.5187987685203552,86.66667175292969,67472.0,1.0
18:12:20.487118,137003.59375,144469.796875,162305.5,159196.375,182070.53125,179531.09375,686053.3125,132532.96875,0.038330078125,1.0078125,-0.10986328125,-1.1596678495407104,0.2136230319738388,0.5798339247703552,86.66667175292969,67473.0,1.0
18:12:20.490092,137021.921875,144495.90625,162313.453125,159201.734375,182076.6875,179535.03125,686137.1875,132537.0,0.037353515625,1.005615234375,-0.11083984375,-1.1901854276657104,0.1220703050494194,0.6713866591453552,86.66667175292969,67474.0,1.0
18:12:20.490127,137025.953125,144504.84375,162321.59375,159196.1875,182091.171875,179549.34375,686151.9375,132528.328125,0.03564453125,1.00634765625,-0.112548828125,-1.0986326932907104,0.0915527269244194,0.7324218153953552,86.66667175292969,67475.0,1.0
18:12:20.496334,137009.3125,144477.75,162315.6875,159196.640625,182086.890625,179541.46875,685998.75,132525.5625,0.03759765625,1.00830078125,-0.111328125,-1.0681151151657104,0.0610351525247097,0.7019042372703552,86.66667175292969,67476.0,1.0
18:12:20.496361,137004.671875,144469.078125,162310.6875,159217.03125,182078.21875,179532.53125,686084.4375,132546.390625,0.037353515625,1.009765625,-0.114501953125,-1.1291502714157104,-0.0915527269244194,0.7629393935203552,86.66667175292969,67477.0,1.0
18:12:20.527649,137012.984375,144485.96875,162306.75,159192.96875,182071.6875,179529.046875,686143.9375,132525.375,0.03857421875,1.007568359375,-0.112548828125,-1.2512205839157104,-0.0915527269244194,0.8239745497703552,86.66667175292969,67478.0,1.0
18:12:20.527721,137023.703125,144502.15625,162314.0,159187.4375,182080.71875,179543.171875,686188.9375,132521.53125,0.0380859375,1.0078125,-0.1123046875,-1.3427733182907104,-0.1831054538488388,0.7019042372703552,86.66667175292969,67479.0,1.0
18:12:20.550140,137010.390625,144481.328125,162312.390625,159189.84375,182082.59375,179546.125,686011.75,132524.75,0.03955078125,1.0087890625,-0.11083984375,-1.3732908964157104,-0.2136230319738388,0.7019042372703552,86.66667175292969,67480.0,1.0
18:12:20.550209,136991.796875,144457.359375,162294.328125,159185.015625,182060.328125,179523.046875,686087.5625,132522.875,0.039794921875,1.008544921875,-0.111572265625,-1.4648436307907104,-0.2746581733226776,0.6103515028953552,86.66667175292969,67481.0,1.0
18:12:20.554327,136996.265625,144471.3125,162289.5,159179.65625,182053.265625,179517.6875,686138.3125,132514.640625,0.040283203125,1.009765625,-0.111083984375,-1.5258787870407104,-0.2746581733226776,0.5493163466453552,86.66667175292969,67482.0,1.0
18:12:20.554393,137008.875,144488.296875,162296.5625,159182.78125,182061.5,179526.984375,686202.9375,132515.8125,0.0400390625,1.008544921875,-0.112060546875,-1.5258787870407104,-0.3051757514476776,0.5798339247703552,86.66667175292969,67483.0,1.0
18:12:20.554419,136996.265625,144472.109375,162297.90625,159176.34375,182069.546875,179533.953125,686018.625,132515.8125,0.0400390625,1.009765625,-0.110595703125,-1.6174315214157104,-0.3662109076976776,0.6103515028953552,86.66667175292969,67484.0,1.0
18:12:20.557845,136981.515625,144447.703125,162286.453125,159179.46875,182055.421875,179515.1875,686077.6875,132524.84375,0.04052734375,1.01171875,-0.109375,-1.7089842557907104,-0.3356933295726776,0.5187987685203552,86.66667175292969,67485.0,1.0
18:12:20.557896,136987.859375,144459.59375,162284.9375,159178.40625,182052.109375,179509.90625,686142.875,132522.515625,0.0400390625,1.009765625,-0.112548828125,-1.6784666776657104,-0.4272460639476776,0.4272460639476776,86.66667175292969,67486.0,1.0
18:12:20.564530,137006.8125,144484.71875,162294.328125,159178.046875,182060.421875,179519.921875,686205.1875,132511.875,0.0400390625,1.00732421875,-0.111572265625,-1.7700194120407104,-0.3967284858226776,0.3356933295726776,86.66667175292969,67487.0,1.0
18:12:20.570807,137011.640625,144487.765625,162311.140625,159187.875,182083.484375,179543.609375,686034.4375,132519.75,0.040771484375,1.007080078125,-0.11279296875,-1.8005369901657104,-0.4272460639476776,0.4577636420726776,86.66667175292969,67488.0,1.0
18:12:20.573354,136994.828125,144456.46875,162299.953125,159193.421875,182067.03125,179522.0625,686027.0,132528.5,0.039794921875,1.006103515625,-0.111328125,-1.7395018339157104,-0.4577636420726776,0.4577636420726776,86.66667175292969,67489.0,1.0
18:12:20.575721,136995.453125,144464.25,162294.140625,159185.734375,182057.734375,179515.546875,686118.8125,132517.59375,0.041748046875,1.005126953125,-0.11083984375,-1.7700194120407104,-0.3356933295726776,0.3662109076976776,86.66667175292969,67490.0,1.0
18:12:20.578267,137018.703125,144498.21875,162306.125,159190.828125,182068.28125,179530.5625,686192.4375,132519.390625,0.04052734375,1.005126953125,-0.1103515625,-1.7700194120407104,-0.3967284858226776,0.3051757514476776,86.66667175292969,67491.0,1.0
18:12:20.580813,137038.8125,144519.59375,162335.90625,159208.4375,182105.484375,179568.109375,686081.375,132542.625,0.04052734375,1.00634765625,-0.112548828125,-1.8310545682907104,-0.4272460639476776,0.4272460639476776,86.66667175292969,67492.0,1.0
