Timestamp,Fz,FC3,FCz,FC4,Cz,C3,C4
18:15:35.484829,133937.734375,143505.8125,159920.296875,157060.4375,174561.234375,172343.671875,686048.0,130112.1015625,0.034912109375,1.00927734375,-0.1015625,-1.2207030057907104,0.2441406100988388,0.3356933295726776,86.66667175292969,116265.0,1.0
18:15:35.489150,133961.703125,143538.34375,159930.859375,157068.046875,174569.90625,172355.734375,686168.875,130111.2109375,0.034423828125,1.009521484375,-0.102294921875,-1.2207030057907104,0.2441406100988388,0.3051757514476776,86.66667175292969,116266.0,1.0
18:15:35.489172,133974.65625,143552.03125,159950.96875,157079.484375,174596.015625,172380.953125,686140.3125,130125.6953125,0.03369140625,1.009033203125,-0.10009765625,-1.2817381620407104,0.2441406100988388,0.3051757514476776,86.66667175292969,116267.0,1.0
18:15:35.494808,133954.453125,143523.0625,159944.078125,157078.046875,174590.28125,172370.765625,686042.9375,130132.3125,0.032958984375,1.009033203125,-0.099609375,-1.1901854276657104,0.1831054538488388,0.2136230319738388,86.66667175292969,116268.0,1.0
18:15:35.505426,133932.28125,143500.984375,159920.484375,157056.59375,174564.625,172343.84375,686090.75,130112.90625,0.032958984375,1.010498046875,-0.09814453125,-1.3122557401657104,0.0610351525247097,0.2136230319738388,86.66667175292969,116269.0,1.0
18:15:35.505451,133950.34375,143532.890625,159924.140625,157054.09375,174563.375,172351.265625,686161.8125,130104.859375,0.032958984375,1.010498046875,-0.09765625,-1.3427733182907104,0.0,0.1831054538488388,86.66667175292969,116270.0,1.0
18:15:35.507314,133953.65625,143536.109375,159929.15625,157053.5625,174572.046875,172358.328125,686165.875,130101.9140625,0.032470703125,1.00927734375,-0.097900390625,-1.4038084745407104,-0.0610351525247097,0.1831054538488388,86.66667175292969,116271.0,1.0
18:15:35.511053,133945.34375,143516.0,159933.53125,157064.28125,174579.5625,172358.875,686029.875,130115.234375,0.03369140625,1.008544921875,-0.099853515625,-1.4343260526657104,-0.0915527269244194,0.3051757514476776,86.66667175292969,116272.0,1.0
18:15:35.517869,133933.0,143499.453125,159920.03125,157060.4375,174562.296875,172341.171875,686048.75,130114.0703125,0.032470703125,1.009033203125,-0.102294921875,-1.3427733182907104,-0.1220703050494194,0.1831054538488388,86.66667175292969,116273.0,1.0
18:15:35.517895,133946.671875,143524.40625,159922.453125,157057.84375,174562.390625,172344.390625,686091.375,130109.328125,0.0341796875,1.008056640625,-0.10302734375,-1.3427733182907104,-0.2136230319738388,0.1525878757238388,86.66667175292969,116274.0,1.0
18:15:35.519858,133960.71875,143543.09375,159933.796875,157061.609375,174576.515625,172360.203125,686177.375,130113.890625,0.032958984375,1.006591796875,-0.10107421875,-1.3732908964157104,-0.2136230319738388,0.2136230319738388,86.66667175292969,116275.0,1.0
18:15:35.529833,133951.234375,143525.03125,159937.015625,157068.484375,174584.03125,172363.78125,686025.0625,130130.5234375,0.032470703125,1.005615234375,-0.10009765625,-1.3122557401657104,-0.3356933295726776,0.2441406100988388,86.66667175292969,116276.0,1.0
18:15:35.532857,133926.5625,143493.015625,159914.3125,157056.421875,174557.390625,172335.359375,686053.375,130114.15625,0.0341796875,1.006103515625,-0.10107421875,-1.3427733182907104,-0.3356933295726776,0.2746581733226776,86.66667175292969,116277.0,1.0
18:15:35.532874,133938.546875,143515.46875,159919.234375,157057.21875,174560.78125,172338.65625,686107.1875,130111.03125,0.0341796875,1.00537109375,-0.099853515625,-1.2512205839157104,-0.3967284858226776,0.2746581733226776,86.66667175292969,116278.0,1.0
18:15:35.538536,133956.328125,143538.796875,159929.953125,157062.9375,174572.40625,172351.984375,686205.5625,130113.625,0.03466796875,1.0048828125,-0.105712890625,-1.2817381620407104,-0.4882812201976776,0.4577636420726776,86.66667175292969,116279.0,1.0
18:15:35.554167,133955.171875,143533.609375,159939.875,157066.96875,174586.0,172367.359375,686057.75,130118.6328125,0.03369140625,1.002685546875,-0.102294921875,-1.1291502714157104,-0.4577636420726776,0.4577636420726776,86.66667175292969,116280.0,1.0
18:15:35.554200,133929.328125,143496.59375,159917.4375,157056.6875,174558.90625,172336.96875,686044.375,130110.765625,0.036376953125,0.999267578125,-0.102294921875,-0.9460448622703552,-0.4272460639476776,0.3662109076976776,86.66667175292969,116281.0,1.0
18:15:35.556046,133931.21875,143506.796875,159912.96875,157051.5,174553.8125,172332.9375,686060.5625,130104.5,0.03564453125,1.000732421875,-0.10400390625,-0.9765624403953552,-0.4577636420726776,0.4882812201976776,86.66667175292969,116282.0,1.0
18:15:35.584161,133947.125,143530.578125,159920.84375,157052.390625,174562.578125,172343.9375,686198.6875,130102.265625,0.03466796875,1.000732421875,-0.101318359375,-0.9155272841453552,-0.3967284858226776,0.4272460639476776,86.66667175292969,116283.0,1.0
18:15:35.584189,133944.625,143525.75,159929.953125,157053.375,174578.84375,172360.484375,686070.9375,130106.203125,0.0322265625,1.000244140625,-0.10595703125,-0.8850097060203552,-0.5798339247703552,0.4577636420726776,86.66667175292969,116284.0,1.0
18:15:35.586036,133928.0,143499.453125,159917.171875,157055.96875,174563.828125,172344.390625,686045.0625,130112.7265625,0.031494140625,1.001708984375,-0.106689453125,-0.7934569716453552,-0.5493163466453552,0.3967284858226776,86.66667175292969,116285.0,1.0
18:15:35.589738,133924.859375,143504.015625,159908.859375,157048.640625,174553.8125,172337.765625,686056.3125,130107.2734375,0.031494140625,1.001953125,-0.103515625,-0.7324218153953552,-0.5798339247703552,0.3662109076976776,86.66667175292969,116286.0,1.0
18:15:35.589770,133944.09375,143532.890625,159917.984375,157049.984375,174560.25,172348.765625,686190.75,130105.0390625,0.031982421875,1.002685546875,-0.10546875,-0.6103515028953552,-0.6408690810203552,0.1831054538488388,86.66667175292969,116287.0,1.0
18:15:35.589776,133955.4375,143541.484375,159938.1875,157059.71875,174586.4375,172371.921875,686117.0625,130116.9296875,0.031982421875,1.00537109375,-0.104736328125,-0.7019042372703552,-0.6408690810203552,0.1220703050494194,86.66667175292969,116288.0,1.0
18:15:35.593542,133934.875,143507.953125,159926.65625,157059.640625,174573.921875,172351.984375,686037.5625,130122.3828125,0.03271484375,1.004638671875,-0.1064453125,-0.6103515028953552,-0.6103515028953552,0.0610351525247097,86.66667175292969,116289.0,1.0
18:15:35.593560,133928.171875,143501.78125,159915.828125,157055.25,174559.171875,172336.609375,686033.0,130117.46875,0.033935546875,1.00537109375,-0.1044921875,-0.6713866591453552,-0.7019042372703552,0.0610351525247097,86.66667175292969,116290.0,1.0
18:15:35.593567,133960.0,143542.109375,159933.796875,157069.109375,174572.671875,172354.9375,686157.4375,130121.3125,0.037841796875,1.004150390625,-0.103515625,-0.6713866591453552,-0.6408690810203552,0.03051757626235485,86.66667175292969,116291.0,1.0
18:15:35.596635,133972.703125,143553.109375,159950.796875,157076.984375,174594.21875,172375.953125,686147.875,130123.4609375,0.040283203125,1.006103515625,-0.107421875,-0.6103515028953552,-0.6713866591453552,0.2441406100988388,86.66667175292969,116292.0,1.0
18:15:35.596652,133953.921875,143524.21875,159942.65625,157075.90625,174586.4375,172365.3125,686039.25,130126.5,0.0419921875,1.0078125,-0.107177734375,-0.6103515028953552,-0.6408690810203552,0.3356933295726776,86.66667175292969,116293.0,1.0
18:15:35.601049,133938.453125,143504.734375,159924.0625,157063.84375,174564.71875,172342.328125,686039.1875,130118.2734375,0.04248046875,1.00927734375,-0.10595703125,-0.5187987685203552,-0.5493163466453552,0.4577636420726776,86.66667175292969,116294.0,1.0
18:15:35.607299,133951.328125,143528.421875,159927.09375,157063.921875,174565.25,172344.828125,686117.3125,130116.3046875,0.043212890625,1.009521484375,-0.10693359375,-0.4882812201976776,-0.4272460639476776,0.5187987685203552,86.66667175292969,116295.0,1.0
18:15:35.609764,133960.8125,143543.265625,159938.71875,157066.078125,174582.59375,172363.78125,686166.9375,130117.203125,0.040771484375,1.010009765625,-0.107421875,-0.5187987685203552,-0.3051757514476776,0.5798339247703552,86.66667175292969,116296.0,1.0
18:15:35.617897,133953.921875,143528.0625,159944.703125,157073.140625,174591.8125,172368.4375,686038.1875,130128.46875,0.037109375,1.008544921875,-0.106689453125,-0.4882812201976776,-0.1525878757238388,0.4272460639476776,86.66667175292969,116297.0,1.0
18:15:35.617916,133940.421875,143505.8125,159929.6875,157066.703125,174571.6875,172345.28125,686045.625,130123.90625,0.035888671875,1.009765625,-0.106201171875,-0.5187987685203552,-0.1525878757238388,0.3967284858226776,86.66667175292969,116298.0,1.0
18:15:35.627941,133952.578125,143527.703125,159930.40625,157069.375,174570.34375,172346.171875,686088.875,130121.3984375,0.037353515625,1.010498046875,-0.10400390625,-0.5798339247703552,-0.0915527269244194,0.3356933295726776,86.66667175292969,116299.0,1.0
18:15:35.627966,133966.625,143548.90625,159941.765625,157071.34375,174582.421875,172363.15625,686204.6875,130124.3515625,0.033203125,1.013916015625,-0.10498046875,-0.5493163466453552,-0.03051757626235485,0.2746581733226776,86.66667175292969,116300.0,1.0
18:15:35.634111,133966.4375,143541.84375,159954.8125,157082.609375,174599.3125,172378.71875,686069.0625,130138.03125,0.031982421875,1.014892578125,-0.1044921875,-0.7019042372703552,-0.1220703050494194,0.1525878757238388,86.66667175292969,116301.0,1.0
18:15:35.634125,133951.859375,143519.390625,159943.09375,157085.390625,174584.5625,172361.28125,686045.625,130141.515625,0.0322265625,1.015380859375,-0.103759765625,-0.7934569716453552,-0.0915527269244194,0.0915527269244194,86.66667175292969,116302.0,1.0
18:15:35.636607,133959.734375,143538.0,159942.46875,157082.96875,174581.96875,172362.0,686034.375,130136.6015625,0.032470703125,1.01611328125,-0.101806640625,-0.8850097060203552,-0.1220703050494194,-0.03051757626235485,86.66667175292969,116303.0,1.0
18:15:35.636630,133960.359375,143543.171875,159934.515625,157064.28125,174573.125,172356.1875,686186.5,130113.7109375,0.032470703125,1.013916015625,-0.104248046875,-1.0375975370407104,-0.1831054538488388,-0.2136230319738388,86.66667175292969,116304.0,1.0
18:15:35.678676,133960.625,143538.796875,159945.515625,157072.0625,174589.390625,172373.4375,686047.3125,130122.3828125,0.033447265625,1.01318359375,-0.10302734375,-1.0986326932907104,-0.1220703050494194,-0.3356933295726776,86.66667175292969,116305.0,1.0
18:15:35.696643,133938.0,143506.15625,159925.9375,157068.484375,174566.859375,172347.96875,686044.8125,130127.2109375,0.03369140625,1.0126953125,-0.10107421875,-1.2817381620407104,-0.1525878757238388,-0.4577636420726776,86.66667175292969,116306.0,1.0
18:15:35.696673,133938.546875,143518.140625,159921.640625,157060.0,174561.59375,172345.90625,686065.125,130114.9609375,0.035888671875,1.013427734375,-0.103271484375,-1.4343260526657104,-0.1831054538488388,-0.3662109076976776,86.66667175292969,116307.0,1.0
18:15:35.698519,133951.234375,143540.859375,159925.75,157058.390625,174565.875,172353.953125,686202.9375,130108.078125,0.0380859375,1.012451171875,-0.10009765625,-1.4953612089157104,-0.1220703050494194,-0.3356933295726776,86.66667175292969,116308.0,1.0
18:15:35.701025,133944.53125,143534.234375,159930.578125,157054.625,174578.046875,172366.921875,686097.75,130109.6875,0.038818359375,1.01318359375,-0.1005859375,-1.5869139432907104,-0.0610351525247097,-0.3051757514476776,86.66667175292969,116309.0,1.0
18:15:35.703614,133928.34375,143506.609375,159920.484375,157057.578125,174564.359375,172349.84375,686047.5,130118.09375,0.040283203125,1.01171875,-0.101806640625,-1.6479490995407104,0.03051757626235485,-0.3356933295726776,86.66667175292969,116310.0,1.0
18:15:35.706039,133935.5,143518.59375,159922.53125,157061.609375,174562.484375,172349.921875,686028.375,130119.1640625,0.03955078125,1.012451171875,-0.102294921875,-1.8005369901657104,0.03051757626235485,-0.0915527269244194,86.66667175292969,116311.0,1.0
18:15:35.708594,133955.0,143546.21875,159930.859375,157064.734375,174567.671875,172357.171875,686182.6875,130115.234375,0.03662109375,1.013427734375,-0.102783203125,-1.8920897245407104,0.0915527269244194,0.0,86.66667175292969,116312.0,1.0
18:15:35.715060,133958.125,143548.1875,159942.75,157066.34375,174584.390625,172372.734375,686121.9375,130118.2734375,0.033935546875,1.013671875,-0.100830078125,-1.9531248807907104,0.1831054538488388,0.0915527269244194,86.66667175292969,116313.0,1.0
18:15:35.717688,133941.578125,143516.71875,159933.890625,157069.828125,174574.109375,172354.671875,686042.75,130127.484375,0.03125,1.012939453125,-0.099853515625,-2.105712652206421,0.1220703050494194,0.0915527269244194,86.66667175292969,116314.0,1.0
18:15:35.720170,133941.578125,143516.625,159930.21875,157070.0,174567.671875,172346.796875,686015.8125,130128.1953125,0.0302734375,1.013916015625,-0.100830078125,-2.258300542831421,0.1831054538488388,0.03051757626235485,86.66667175292969,116315.0,1.0
18:15:35.722381,133954.28125,143537.1875,159930.5,157064.640625,174564.453125,172346.625,686126.875,130113.3515625,0.030029296875,1.009521484375,-0.09716796875,-2.319335699081421,0.1831054538488388,0.1525878757238388,86.66667175292969,116316.0,1.0
18:15:35.724777,133955.625,143539.328125,159935.953125,157061.875,174573.65625,172357.265625,686142.8125,130109.2421875,0.031005859375,1.0078125,-0.10009765625,-2.410888433456421,0.2441406100988388,0.0915527269244194,86.66667175292969,116317.0,1.0
18:15:35.727465,133941.765625,143517.078125,159933.984375,157066.703125,174572.59375,172353.953125,686027.5625,130118.453125,0.03076171875,1.006591796875,-0.096435546875,-2.471923589706421,0.1220703050494194,0.2441406100988388,86.66667175292969,116318.0,1.0
18:15:35.729731,133930.234375,143503.125,159919.40625,157057.578125,174556.046875,172334.46875,686061.0625,130113.984375,0.02978515625,1.008544921875,-0.095703125,-2.502441167831421,0.0915527269244194,0.1525878757238388,86.66667175292969,116319.0,1.0
18:15:35.734873,133952.484375,143536.203125,159930.40625,157064.640625,174564.0,172344.921875,686130.25,130117.5546875,0.030029296875,1.009033203125,-0.094970703125,-2.502441167831421,-0.03051757626235485,0.1220703050494194,86.66667175292969,116320.0,1.0
18:15:35.737962,133971.890625,143559.0,159950.703125,157074.296875,174587.78125,172370.21875,686186.6875,130125.6953125,0.0302734375,1.0078125,-0.093505859375,-2.563476324081421,-0.0915527269244194,0.0915527269244194,86.66667175292969,116321.0,1.0
18:15:35.737978,133964.203125,143542.46875,159956.59375,157082.53125,174596.90625,172376.390625,686051.0,130137.046875,0.03125,1.006103515625,-0.096435546875,-2.471923589706421,-0.1525878757238388,0.0915527269244194,86.66667175292969,116322.0,1.0
18:15:35.744095,133945.34375,143518.6875,159936.578125,157073.9375,174575.265625,172352.609375,686054.4375,130133.828125,0.030029296875,1.005615234375,-0.097900390625,-2.502441167831421,-0.1525878757238388,0.1525878757238388,86.66667175292969,116323.0,1.0
18:15:35.744114,133962.140625,143547.640625,159942.390625,157076.09375,174578.390625,172359.671875,686113.3125,130125.515625,0.03076171875,1.0048828125,-0.096435546875,-2.563476324081421,-0.2136230319738388,0.2136230319738388,86.66667175292969,116324.0,1.0
18:15:35.746077,133974.21875,143564.1875,159950.609375,157076.0,174587.34375,172371.828125,686202.6875,130125.875,0.03125,1.00341796875,-0.09765625,-2.441406011581421,-0.3051757514476776,0.1220703050494194,86.66667175292969,116325.0,1.0
18:15:35.748798,133966.078125,143548.8125,159955.703125,157083.78125,174598.25,172380.5,686056.875,130139.28125,0.031494140625,1.003662109375,-0.099365234375,-2.288818120956421,-0.4272460639476776,0.2136230319738388,86.66667175292969,116326.0,1.0
18:15:35.751655,133945.34375,143519.3125,159936.65625,157076.171875,174575.71875,172354.84375,686055.1875,130133.2890625,0.0302734375,1.002685546875,-0.09912109375,-2.288818120956421,-0.3967284858226776,0.1220703050494194,86.66667175292969,116327.0,1.0
18:15:35.751677,133943.546875,143526.8125,159927.1875,157062.9375,174564.984375,172345.8125,686089.6875,130115.234375,0.03125,1.003173828125,-0.101318359375,-2.166747808456421,-0.4577636420726776,0.2746581733226776,86.66667175292969,116328.0,1.0
18:15:35.753560,133959.46875,143548.09375,159935.5,157064.828125,174571.953125,172357.171875,686204.5,130111.65625,0.031494140625,1.002685546875,-0.1015625,-2.166747808456421,-0.3356933295726776,0.2441406100988388,86.66667175292969,116329.0,1.0
18:15:35.756045,133957.765625,143541.03125,159944.703125,157070.546875,174586.53125,172371.125,686071.875,130120.59375,0.0302734375,1.003173828125,-0.101318359375,-2.014159917831421,-0.3356933295726776,0.2746581733226776,86.66667175292969,116330.0,1.0
18:15:35.759130,133926.65625,143497.046875,159916.8125,157058.46875,174553.90625,172333.390625,686047.375,130112.1953125,0.031982421875,1.00146484375,-0.101806640625,-1.8920897245407104,-0.3967284858226776,0.1831054538488388,86.66667175292969,116331.0,1.0
18:15:35.759148,133933.53125,143512.78125,159918.515625,157055.078125,174553.09375,172335.171875,686038.8125,130108.6171875,0.034912109375,1.000732421875,-0.09716796875,-1.8310545682907104,-0.3967284858226776,0.3356933295726776,86.66667175292969,116332.0,1.0
18:15:35.761069,133963.75,143548.625,159939.53125,157072.25,174572.59375,172353.953125,686195.625,130120.7734375,0.0341796875,1.0009765625,-0.10107421875,-1.6784666776657104,-0.3051757514476776,0.3356933295726776,86.66667175292969,116333.0,1.0
18:15:35.766622,133962.328125,143547.203125,159948.734375,157072.953125,174587.0625,172370.5,686095.125,130123.4609375,0.033447265625,1.000244140625,-0.1015625,-1.5869139432907104,-0.2441406100988388,0.3356933295726776,86.66667175292969,116334.0,1.0
18:15:35.766656,133935.0625,143509.03125,159926.109375,157065.8125,174562.578125,172343.484375,686036.6875,130120.8671875,0.033203125,1.000732421875,-0.100830078125,-1.3427733182907104,-0.3051757514476776,0.4577636420726776,86.66667175292969,116335.0,1.0
18:15:35.768677,133929.78125,143505.890625,159914.765625,157056.421875,174549.78125,172331.0625,686048.5625,130115.0546875,0.03466796875,1.002197265625,-0.1015625,-1.1291502714157104,-0.3051757514476776,0.6103515028953552,86.66667175292969,116336.0,1.0
18:15:35.771003,133945.34375,143530.484375,159919.9375,157058.734375,174551.9375,172336.078125,686174.4375,130112.015625,0.034912109375,0.999267578125,-0.102294921875,-0.8544921278953552,-0.2136230319738388,0.6408690810203552,86.66667175292969,116337.0,1.0
18:15:35.781731,133948.921875,143535.9375,159932.8125,157062.046875,174572.234375,172355.734375,686117.6875,130113.625,0.0341796875,0.998779296875,-0.1015625,-0.7629393935203552,-0.1831054538488388,0.5798339247703552,86.66667175292969,116338.0,1.0
18:15:35.781744,133928.796875,143504.109375,159921.375,157055.609375,174559.4375,172340.8125,686037.375,130108.3515625,0.03369140625,1.001953125,-0.104248046875,-0.6408690810203552,-0.1220703050494194,0.7629393935203552,86.66667175292969,116339.0,1.0
18:15:35.784154,133928.0,143502.046875,159916.09375,157057.125,174549.609375,172332.046875,686051.4375,130109.9609375,0.03515625,1.0048828125,-0.10107421875,-0.4577636420726776,-0.0915527269244194,0.8239745497703552,86.66667175292969,116340.0,1.0
18:15:35.784191,133950.171875,143532.890625,159923.515625,157063.390625,174553.09375,172339.921875,686142.0,130109.0625,0.0341796875,1.00341796875,-0.1025390625,-0.3051757514476776,-0.03051757626235485,0.9460448622703552,86.66667175292969,116341.0,1.0
18:15:35.793660,133961.078125,143545.0625,159936.65625,157067.140625,174571.421875,172360.5625,686148.875,130113.53125,0.033935546875,1.00390625,-0.103515625,-0.1525878757238388,0.03051757626235485,0.8544921278953552,86.66667175292969,116342.0,1.0
18:15:35.797978,133943.109375,143513.765625,159929.328125,157066.34375,174565.25,172348.3125,686035.25,130115.9453125,0.033447265625,1.005859375,-0.103515625,-0.03051757626235485,0.03051757626235485,0.7934569716453552,86.66667175292969,116343.0,1.0
18:15:35.798033,133933.265625,143499.09375,159919.671875,157063.125,174552.109375,172330.53125,686066.1875,130115.859375,0.033935546875,1.005615234375,-0.10107421875,0.03051757626235485,0.0915527269244194,0.8544921278953552,86.66667175292969,116344.0,1.0
18:15:35.807301,133955.078125,143531.28125,159933.09375,157069.203125,174564.8125,172341.4375,686120.8125,130118.453125,0.03173828125,1.005126953125,-0.10009765625,0.0915527269244194,0.1525878757238388,0.7629393935203552,86.66667175292969,116345.0,1.0
18:15:35.810395,133973.328125,143553.28125,159952.484375,157078.765625,174588.40625,172365.484375,686186.1875,130128.015625,0.031494140625,1.00830078125,-0.102783203125,0.1831054538488388,0.1220703050494194,0.7324218153953552,86.66667175292969,116346.0,1.0
18:15:35.810436,133954.546875,143526.28125,159945.15625,157074.125,174584.125,172359.859375,686036.375,130126.859375,0.033203125,1.008544921875,-0.104248046875,0.2441406100988388,0.1220703050494194,0.6103515028953552,86.66667175292969,116347.0,1.0
18:15:35.821009,133930.59375,143496.234375,159918.875,157056.234375,174552.46875,172328.203125,686036.3125,130113.1796875,0.03173828125,1.010009765625,-0.103759765625,0.2441406100988388,0.0610351525247097,0.6713866591453552,86.66667175292969,116348.0,1.0
18:15:35.824131,133949.359375,143527.171875,159927.90625,157063.84375,174559.0,172338.578125,686080.0625,130116.5703125,0.032470703125,1.008056640625,-0.10302734375,0.2441406100988388,0.1525878757238388,0.6408690810203552,86.66667175292969,116349.0,1.0
18:15:35.824160,133967.6875,143552.65625,159942.828125,157069.46875,174575.984375,172359.046875,686209.25,130123.1015625,0.034423828125,1.00537109375,-0.10302734375,0.2136230319738388,0.1831054538488388,0.6408690810203552,86.66667175292969,116350.0,1.0
18:15:35.826030,133957.859375,143537.8125,159945.15625,157067.59375,174584.484375,172365.75,686066.5625,130125.515625,0.03564453125,1.00634765625,-0.10400390625,0.0610351525247097,0.3356933295726776,0.6103515028953552,86.66667175292969,116351.0,1.0
18:15:35.832285,133934.4375,143504.015625,159924.140625,157059.8125,174560.25,172337.328125,686045.5,130118.8125,0.035400390625,1.005615234375,-0.10546875,0.1525878757238388,0.3356933295726776,0.6408690810203552,86.66667175292969,116352.0,1.0
18:15:35.851119,133943.546875,143521.8125,159928.34375,157063.921875,174562.484375,172339.109375,686067.0,130122.4765625,0.036865234375,1.00732421875,-0.107177734375,0.0915527269244194,0.2136230319738388,0.6713866591453552,86.66667175292969,116353.0,1.0
18:15:35.851143,133958.390625,143545.40625,159936.75,157061.421875,174571.0625,172351.625,686199.5,130117.828125,0.037841796875,1.009033203125,-0.10791015625,0.0610351525247097,0.3662109076976776,0.8239745497703552,86.66667175292969,116354.0,1.0
18:15:35.851149,133949.625,143534.140625,159940.6875,157062.5,174583.140625,172362.265625,686071.8125,130120.5078125,0.038818359375,1.009033203125,-0.106689453125,0.0610351525247097,0.5187987685203552,0.8850097060203552,86.66667175292969,116355.0,1.0
18:15:35.856634,133919.859375,143490.96875,159912.609375,157046.9375,174550.859375,172326.234375,686045.8125,130105.7578125,0.0361328125,1.010009765625,-0.106689453125,0.03051757626235485,0.6103515028953552,0.8239745497703552,86.66667175292969,116356.0,1.0
18:15:35.856654,133937.5625,143513.3125,159921.015625,157059.71875,174554.53125,172333.203125,686028.0,130113.890625,0.03564453125,1.00830078125,-0.105224609375,-0.0610351525247097,0.7019042372703552,0.9460448622703552,86.66667175292969,116357.0,1.0
18:15:35.858937,133944.890625,143527.078125,159917.171875,157052.3125,174548.265625,172331.59375,686176.25,130102.984375,0.036376953125,1.008056640625,-0.10498046875,-0.0915527269244194,0.7629393935203552,0.8544921278953552,86.66667175292969,116358.0,1.0
18:15:35.862457,133938.359375,143520.203125,159922.8125,157047.921875,174561.40625,172343.671875,686079.0625,130102.8046875,0.036865234375,1.006103515625,-0.10595703125,-0.1831054538488388,0.7934569716453552,0.8544921278953552,86.66667175292969,116359.0,1.0
18:15:35.863549,133918.34375,143489.625,159912.171875,157045.59375,174548.265625,172326.0625,686047.75,130103.875,0.03515625,1.0068359375,-0.106689453125,-0.2441406100988388,0.8850097060203552,0.9155272841453552,86.66667175292969,116360.0,1.0
18:15:35.866170,133919.328125,143495.609375,159906.71875,157041.75,174539.328125,172320.875,686067.875,130099.2265625,0.03466796875,1.0087890625,-0.1064453125,-0.3662109076976776,0.9155272841453552,0.9765624403953552,86.66667175292969,116361.0,1.0
18:15:35.872287,133937.5625,143522.96875,159910.015625,157042.5625,174539.953125,172327.578125,686174.25,130093.953125,0.03466796875,1.0078125,-0.104736328125,-0.3662109076976776,0.9460448622703552,0.8850097060203552,86.66667175292969,116362.0,1.0
18:15:35.880417,133951.234375,143537.640625,159931.03125,157053.28125,174567.484375,172356.1875,686132.875,130108.3515625,0.033447265625,1.007568359375,-0.10595703125,-0.5187987685203552,0.9155272841453552,0.7629393935203552,86.66667175292969,116363.0,1.0
18:15:35.880445,133929.953125,143501.25,159919.765625,157052.84375,174554.96875,172336.515625,686047.5,130111.7421875,0.031494140625,1.008056640625,-0.103271484375,-0.5187987685203552,0.7934569716453552,0.7629393935203552,86.66667175292969,116364.0,1.0
18:15:35.882869,133922.8125,143491.40625,159909.84375,157051.765625,174543.265625,172319.4375,686068.5,130107.6328125,0.027099609375,1.008056640625,-0.10546875,-0.6713866591453552,0.8850097060203552,0.6713866591453552,86.66667175292969,116365.0,1.0
18:15:35.882896,133937.109375,143517.25,159913.234375,157046.40625,174543.703125,172323.546875,686155.5,130097.171875,0.02734375,1.008056640625,-0.10888671875,-0.7629393935203552,0.8239745497703552,0.5798339247703552,86.66667175292969,116366.0,1.0
18:15:35.893692,133947.125,143529.5,159925.9375,157046.84375,174560.6875,172342.59375,686157.8125,130097.7109375,0.02783203125,1.0087890625,-0.1083984375,-0.7934569716453552,0.7019042372703552,0.5493163466453552,86.66667175292969,116367.0,1.0
18:15:35.900483,133948.28125,143521.09375,159939.34375,157069.203125,174575.890625,172353.953125,686043.8125,130128.640625,0.0283203125,1.0087890625,-0.109130859375,-0.9765624403953552,0.7019042372703552,0.4882812201976776,86.66667175292969,116368.0,1.0
18:15:35.900511,133928.34375,143498.828125,159919.859375,157054.265625,174554.890625,172329.1875,686064.8125,130115.140625,0.0302734375,1.010498046875,-0.10546875,-1.0070799589157104,0.7324218153953552,0.3967284858226776,86.66667175292969,116369.0,1.0
18:15:35.902930,133946.140625,143527.0,159928.609375,157060.0,174561.5,172336.25,686122.3125,130110.1328125,0.02978515625,1.009765625,-0.107666015625,-1.0375975370407104,0.6103515028953552,0.3662109076976776,86.66667175292969,116370.0,1.0
18:15:35.902949,133964.5625,143547.921875,159944.796875,157067.421875,174580.8125,172359.140625,686183.75,130117.6484375,0.0302734375,1.0107421875,-0.107177734375,-1.1291502714157104,0.5493163466453552,0.3662109076976776,86.66667175292969,116371.0,1.0
18:15:35.911030,133960.625,143536.03125,159951.859375,157075.375,174591.09375,172367.09375,686040.4375,130129.359375,0.029296875,1.010498046875,-0.109375,-1.1901854276657104,0.4577636420726776,0.4272460639476776,86.66667175292969,116372.0,1.0
18:15:35.919136,133943.109375,143512.78125,159935.59375,157071.96875,174570.34375,172343.9375,686052.125,130128.1953125,0.030517578125,1.009521484375,-0.106689453125,-1.2207030057907104,0.3356933295726776,0.4272460639476776,86.66667175292969,116373.0,1.0
18:15:35.919164,133963.21875,143544.703125,159947.75,157078.953125,174581.53125,172355.734375,686088.6875,130133.7421875,0.029052734375,1.010498046875,-0.10693359375,-1.3732908964157104,0.3356933295726776,0.5187987685203552,86.66667175292969,116374.0,1.0
18:15:35.927936,133974.9375,143562.40625,159953.828125,157077.421875,174588.859375,172365.9375,686195.25,130128.109375,0.028564453125,1.012451171875,-0.106201171875,-1.5563963651657104,0.2746581733226776,0.6103515028953552,86.66667175292969,116375.0,1.0
18:15:35.927975,133959.90625,143539.15625,159950.703125,157073.5,174590.015625,172364.953125,686033.5625,130129.625,0.0283203125,1.01220703125,-0.10302734375,-1.6479490995407104,0.2441406100988388,0.7324218153953552,86.66667175292969,116376.0,1.0
18:15:35.933525,133941.3125,143509.375,159933.625,157071.4375,174568.390625,172339.734375,686047.125,130128.2890625,0.031982421875,1.009033203125,-0.1044921875,-1.6784666776657104,0.2441406100988388,0.6408690810203552,86.66667175292969,116377.0,1.0
18:15:35.936074,133944.53125,143520.828125,159928.703125,157064.640625,174560.25,172334.1875,686088.6875,130116.3046875,0.0322265625,1.010498046875,-0.10302734375,-1.8310545682907104,0.1525878757238388,0.7324218153953552,86.66667175292969,116378.0,1.0
18:15:35.938597,133952.9375,143534.5,159928.34375,157057.40625,174558.90625,172336.078125,686197.9375,130106.2890625,0.031494140625,1.010498046875,-0.10595703125,-1.8310545682907104,0.0,0.8239745497703552,86.66667175292969,116379.0,1.0
18:15:35.948631,133950.171875,143529.59375,159936.9375,157060.265625,174573.921875,172351.71875,686072.25,130111.2109375,0.030517578125,1.0087890625,-0.104736328125,-1.8615721464157104,-0.0915527269244194,0.9765624403953552,86.66667175292969,116380.0,1.0
18:15:35.951609,133921.109375,143488.90625,159911.453125,157049.796875,174545.40625,172320.609375,686036.3125,130104.953125,0.030517578125,1.00927734375,-0.105712890625,-1.9531248807907104,-0.0915527269244194,0.9155272841453552,86.66667175292969,116381.0,1.0
18:15:35.951637,133930.140625,143503.21875,159913.6875,157051.40625,174544.328125,172322.921875,686071.25,130106.5625,0.03076171875,1.009521484375,-0.1064453125,-2.136230230331421,-0.1220703050494194,0.9460448622703552,86.66667175292969,116382.0,1.0
18:15:35.958069,133948.015625,143528.609375,159920.65625,157053.015625,174550.0625,172329.546875,686196.625,130109.15625,0.03076171875,1.009521484375,-0.106689453125,-2.105712652206421,-0.1831054538488388,0.8850097060203552,86.66667175292969,116383.0,1.0
18:15:35.958156,133948.203125,143533.4375,159930.859375,157052.03125,174567.484375,172351.890625,686097.4375,130107.9921875,0.02978515625,1.0087890625,-0.106201171875,-2.136230230331421,-0.2441406100988388,0.8850097060203552,86.66667175292969,116384.0,1.0
18:15:35.982877,133921.828125,143494.8125,159911.359375,157047.75,174546.75,172325.875,686029.6875,130103.609375,0.03125,1.009521484375,-0.1044921875,-2.136230230331421,-0.3967284858226776,0.9155272841453552,86.66667175292969,116385.0,1.0
18:15:35.982896,133922.265625,143499.453125,159908.328125,157044.34375,174540.671875,172322.390625,686025.5,130100.65625,0.032958984375,1.0107421875,-0.103271484375,-2.166747808456421,-0.4272460639476776,0.8239745497703552,86.66667175292969,116386.0,1.0
18:15:35.985380,133941.9375,143526.1875,159916.375,157051.140625,174546.21875,172329.359375,686151.5,130102.1796875,0.033203125,1.009521484375,-0.1044921875,-2.288818120956421,-0.4272460639476776,0.7019042372703552,86.66667175292969,116387.0,1.0
18:15:35.985407,133951.6875,143536.5625,159932.375,157055.796875,174566.953125,172351.890625,686129.125,130109.15625,0.033447265625,1.0087890625,-0.10693359375,-2.319335699081421,-0.3356933295726776,0.7019042372703552,86.66667175292969,116388.0,1.0
18:15:35.988531,133938.8125,143507.421875,159927.90625,157060.53125,174561.40625,172339.015625,686027.4375,130115.4140625,0.035400390625,1.00732421875,-0.10498046875,-2.410888433456421,-0.4272460639476776,0.6408690810203552,86.66667175292969,116389.0,1.0
18:15:35.988562,133928.890625,143494.546875,159915.828125,157054.984375,174545.5,172318.71875,686077.0,130108.2578125,0.036376953125,1.008544921875,-0.10498046875,-2.441406011581421,-0.4272460639476776,0.5187987685203552,86.66667175292969,116390.0,1.0
18:15:35.988574,133946.765625,143523.421875,159922.53125,157058.390625,174549.25,172325.078125,686150.3125,130105.9375,0.037353515625,1.00927734375,-0.106689453125,-2.319335699081421,-0.3662109076976776,0.4882812201976776,86.66667175292969,116391.0,1.0
18:15:35.991013,133960.09375,143540.578125,159939.078125,157062.40625,174570.703125,172348.5,686156.1875,130113.1796875,0.036865234375,1.007080078125,-0.1064453125,-2.288818120956421,-0.4272460639476776,0.3967284858226776,86.66667175292969,116392.0,1.0
18:15:35.995354,133941.671875,143512.953125,159934.078125,157059.09375,174568.109375,172341.609375,686029.875,130110.671875,0.037109375,1.005615234375,-0.10546875,-2.319335699081421,-0.4272460639476776,0.5493163466453552,86.66667175292969,116393.0,1.0
18:15:35.995369,133931.21875,143496.234375,159922.890625,157056.234375,174553.09375,172323.28125,686056.25,130109.78125,0.0390625,1.005615234375,-0.103271484375,-2.319335699081421,-0.4272460639476776,0.4882812201976776,86.66667175292969,116394.0,1.0
18:15:36.004828,133949.890625,143525.828125,159930.859375,157062.3125,174558.28125,172330.96875,686105.0625,130111.2109375,0.040283203125,1.004150390625,-0.104736328125,-2.349853277206421,-0.2441406100988388,0.3967284858226776,86.66667175292969,116395.0,1.0
18:15:36.044126,133969.921875,143552.203125,159948.203125,157072.0625,174577.765625,172355.65625,686186.8125,130118.5390625,0.040283203125,1.004638671875,-0.103759765625,-2.258300542831421,-0.2746581733226776,0.3967284858226776,86.66667175292969,116396.0,1.0
18:15:36.044163,133962.0625,143536.03125,159952.9375,157079.75,174585.375,172360.75,686042.6875,130129.5390625,0.041748046875,1.00439453125,-0.10546875,-2.258300542831421,-0.2746581733226776,0.4272460639476776,86.66667175292969,116397.0,1.0
18:15:36.060367,133936.671875,143503.65625,159927.09375,157066.078125,174554.96875,172328.921875,686048.0,130117.9140625,0.0390625,1.002197265625,-0.106201171875,-2.227782964706421,-0.1525878757238388,0.4272460639476776,86.66667175292969,116398.0,1.0
18:15:36.060383,133945.515625,143522.171875,159927.28125,157062.765625,174554.796875,172329.640625,686071.75,130115.9453125,0.04052734375,1.003662109375,-0.10400390625,-2.105712652206421,-0.1220703050494194,0.3051757514476776,86.66667175292969,116399.0,1.0
18:15:36.062293,133962.765625,143547.5625,159940.59375,157066.96875,174570.796875,172348.5,686195.5625,130124.53125,0.039306640625,1.003662109375,-0.1044921875,-2.136230230331421,-0.0610351525247097,0.3967284858226776,86.66667175292969,116400.0,1.0
18:15:36.066118,133951.421875,143532.0,159943.1875,157066.609375,174577.953125,172355.921875,686031.1875,130122.1171875,0.039306640625,1.004150390625,-0.104248046875,-2.166747808456421,0.0610351525247097,0.3356933295726776,86.66667175292969,116401.0,1.0
18:15:36.066146,133928.4375,143495.4375,159921.734375,157061.421875,174551.75,172323.546875,686039.375,130116.3984375,0.038330078125,1.004150390625,-0.104248046875,-2.136230230331421,0.03051757626235485,0.1525878757238388,86.66667175292969,116402.0,1.0
18:15:36.066155,133930.59375,143505.71875,159914.3125,157050.421875,174541.5625,172318.453125,686069.1875,130102.4453125,0.035888671875,1.0048828125,-0.1044921875,-2.166747808456421,0.0915527269244194,0.1525878757238388,86.66667175292969,116403.0,1.0
18:15:36.069107,133951.234375,143532.453125,159925.3125,157062.3125,174550.0625,172331.515625,686190.625,130107.1875,0.036865234375,1.003173828125,-0.105712890625,-2.075195074081421,0.1831054538488388,0.1525878757238388,86.66667175292969,116404.0,1.0
18:15:36.069130,133957.59375,143537.359375,159943.71875,157071.609375,174574.109375,172356.71875,686064.75,130119.6171875,0.0380859375,1.004638671875,-0.10498046875,-2.166747808456421,0.2136230319738388,0.2136230319738388,86.66667175292969,116405.0,1.0
18:15:36.071264,133937.828125,143507.0625,159929.0625,157068.390625,174557.5625,172335.796875,686028.625,130121.8515625,0.039306640625,1.00537109375,-0.10302734375,-2.166747808456421,0.1525878757238388,0.1220703050494194,86.66667175292969,116406.0,1.0
18:15:36.073647,133940.875,143516.171875,159926.828125,157064.734375,174552.65625,172332.21875,686048.375,130117.375,0.035888671875,1.00634765625,-0.102294921875,-2.105712652206421,0.1525878757238388,0.1525878757238388,86.66667175292969,116407.0,1.0
18:15:36.078603,133971.71875,143556.328125,159946.765625,157080.46875,174570.34375,172355.921875,686193.3125,130128.375,0.034912109375,1.009033203125,-0.1005859375,-2.105712652206421,0.1831054538488388,0.1220703050494194,86.66667175292969,116408.0,1.0
18:15:36.081316,133969.125,143552.65625,159952.578125,157079.484375,174582.15625,172368.078125,686090.5,130129.5390625,0.033935546875,1.009765625,-0.102294921875,-2.075195074081421,0.1525878757238388,0.0610351525247097,86.66667175292969,116409.0,1.0
18:15:36.083611,133929.0625,143500.53125,159919.59375,157056.234375,174547.375,172326.140625,686014.0625,130110.2265625,0.03466796875,1.009033203125,-0.103515625,-2.075195074081421,0.1831054538488388,0.03051757626235485,86.66667175292969,116410.0,1.0
18:15:36.086101,133928.34375,143499.28125,159914.484375,157054.546875,174540.484375,172316.84375,686071.5625,130107.09375,0.033203125,1.008056640625,-0.103759765625,-2.105712652206421,0.1525878757238388,0.0610351525247097,86.66667175292969,116411.0,1.0
18:15:36.088542,133948.640625,143528.6875,159923.515625,157060.171875,174548.171875,172326.0625,686170.3125,130108.078125,0.0341796875,1.00927734375,-0.10107421875,-2.136230230331421,0.1831054538488388,0.03051757626235485,86.66667175292969,116412.0,1.0
18:15:36.091065,133950.25,143532.0,159929.6875,157057.3125,174560.875,172340.984375,686132.0,130108.4375,0.034423828125,1.008056640625,-0.103271484375,-2.105712652206421,0.03051757626235485,-0.03051757626235485,86.66667175292969,116413.0,1.0
18:15:36.093615,133935.5,143506.25,159923.4375,157059.640625,174553.28125,172331.6875,686021.5,130117.46875,0.032470703125,1.0078125,-0.102783203125,-2.227782964706421,0.03051757626235485,-0.0610351525247097,86.66667175292969,116414.0,1.0
18:15:36.096665,133925.9375,143496.59375,159912.34375,157052.84375,174539.234375,172316.3125,686042.0625,130114.25,0.0322265625,1.008056640625,-0.1025390625,-2.227782964706421,0.0610351525247097,-0.0915527269244194,86.66667175292969,116415.0,1.0
18:15:36.096686,133947.9375,143529.140625,159923.078125,157055.515625,174546.75,172327.578125,686139.875,130106.3828125,0.030517578125,1.009765625,-0.10009765625,-2.288818120956421,-0.03051757626235485,-0.0610351525247097,86.66667175292969,116416.0,1.0
18:15:36.098597,133960.8125,143543.0,159936.9375,157059.09375,174564.265625,172347.609375,686165.75,130106.7421875,0.03076171875,1.010009765625,-0.09912109375,-2.227782964706421,-0.1220703050494194,0.0,86.66667175292969,116417.0,1.0
18:15:36.101660,133943.109375,143518.234375,159932.8125,157061.421875,174563.203125,172344.390625,686028.8125,130113.7109375,0.030029296875,1.009521484375,-0.099609375,-2.288818120956421,-0.1525878757238388,-0.0915527269244194,86.66667175292969,116418.0,1.0
18:15:36.101692,133928.796875,143500.796875,159919.3125,157057.125,174546.390625,172326.953125,686047.75,130110.9375,0.029296875,1.011474609375,-0.103759765625,-2.319335699081421,-0.1525878757238388,0.0,86.66667175292969,116419.0,1.0
18:15:36.103595,133940.6875,143524.21875,159921.46875,157052.578125,174546.21875,172330.265625,686106.3125,130102.71875,0.02978515625,1.00830078125,-0.101318359375,-2.441406011581421,-0.3051757514476776,0.03051757626235485,86.66667175292969,116420.0,1.0
18:15:36.107946,133959.734375,143548.359375,159938.1875,157061.953125,174566.78125,172353.59375,686197.5,130111.2109375,0.030029296875,1.009033203125,-0.1005859375,-2.471923589706421,-0.3051757514476776,0.0,86.66667175292969,116421.0,1.0
18:15:36.107975,133948.828125,143527.984375,159938.265625,157064.828125,174571.0625,172353.234375,686040.8125,130116.84375,0.029296875,1.00732421875,-0.102783203125,-2.532958745956421,-0.3356933295726776,-0.03051757626235485,86.66667175292969,116422.0,1.0
18:15:36.117358,133916.109375,143482.65625,159903.765625,157044.171875,174530.5625,172308.796875,686055.625,130100.2109375,0.03173828125,1.005859375,-0.099365234375,-2.502441167831421,-0.4577636420726776,0.0,86.66667175292969,116423.0,1.0
18:15:36.121893,133929.328125,143502.671875,159907.875,157048.015625,174532.265625,172309.96875,686116.6875,130099.9453125,0.0322265625,1.008056640625,-0.100830078125,-2.502441167831421,-0.4882812201976776,0.1220703050494194,86.66667175292969,116424.0,1.0
18:15:36.121927,133945.0625,143523.515625,159919.765625,157054.359375,174546.03125,172321.671875,686208.75,130105.1328125,0.031494140625,1.008056640625,-0.096923828125,-2.563476324081421,-0.4577636420726776,0.1220703050494194,86.66667175292969,116425.0,1.0
18:15:36.131619,133947.125,143520.828125,159934.703125,157064.28125,174565.25,172340.546875,686065.4375,130119.1640625,0.033203125,1.00830078125,-0.0986328125,-2.532958745956421,-0.4577636420726776,0.2136230319738388,86.66667175292969,116426.0,1.0
18:15:36.131652,133922.1875,143486.9375,159910.640625,157053.28125,174534.859375,172311.75,686054.4375,130107.8125,0.03515625,1.007080078125,-0.099853515625,-2.471923589706421,-0.5798339247703552,0.2746581733226776,86.66667175292969,116427.0,1.0
18:15:36.134124,133926.46875,143500.984375,159908.234375,157048.734375,174530.921875,172311.9375,686076.625,130100.9296875,0.033203125,1.007080078125,-0.1015625,-2.441406011581421,-0.5798339247703552,0.1220703050494194,86.66667175292969,116428.0,1.0
18:15:36.134145,133947.125,143530.03125,159920.75,157052.9375,174543.53125,172328.203125,686214.0625,130101.8203125,0.034423828125,1.006103515625,-0.100341796875,-2.441406011581421,-0.6103515028953552,0.2441406100988388,86.66667175292969,116429.0,1.0
18:15:36.143578,133946.59375,143528.875,159932.90625,157059.375,174561.953125,172346.171875,686079.9375,130114.4296875,0.03466796875,1.00634765625,-0.103515625,-2.563476324081421,-0.5798339247703552,0.3356933295726776,86.66667175292969,116430.0,1.0
18:15:36.149784,133916.28125,143484.96875,159908.671875,157050.609375,174533.0625,172310.765625,686042.0625,130102.5390625,0.035400390625,1.0068359375,-0.099365234375,-2.563476324081421,-0.6408690810203552,0.3662109076976776,86.66667175292969,116431.0,1.0
18:15:36.152297,133919.5,143491.328125,159905.90625,157048.734375,174527.703125,172304.15625,686016.75,130098.3359375,0.033447265625,1.007568359375,-0.10009765625,-2.532958745956421,-0.5798339247703552,0.3662109076976776,86.66667175292969,116432.0,1.0
18:15:36.156636,133937.296875,143517.78125,159912.875,157050.15625,174533.6875,172311.75,686170.25,130095.296875,0.035400390625,1.00634765625,-0.097412109375,-2.410888433456421,-0.6103515028953552,0.3356933295726776,86.66667175292969,116433.0,1.0
18:15:36.156654,133948.28125,143528.34375,159932.8125,157060.4375,174560.25,172338.3125,686110.25,130106.6484375,0.034423828125,1.006103515625,-0.0966796875,-2.532958745956421,-0.6408690810203552,0.3356933295726776,86.66667175292969,116434.0,1.0
18:15:36.166094,133927.546875,143493.734375,159920.390625,157055.703125,174546.125,172318.8125,686042.375,130106.9140625,0.03515625,1.0068359375,-0.09716796875,-2.471923589706421,-0.6103515028953552,0.2746581733226776,86.66667175292969,116435.0,1.0
18:15:36.172926,133926.296875,143492.65625,159914.671875,157054.0,174536.734375,172308.984375,686036.9375,130105.84375,0.035400390625,1.005615234375,-0.098876953125,-2.441406011581421,-0.4882812201976776,0.3051757514476776,86.66667175292969,116436.0,1.0
18:15:36.172947,133949.625,143528.0625,159924.953125,157060.890625,174542.90625,172321.3125,686152.4375,130107.8125,0.036376953125,1.00537109375,-0.095947265625,-2.380370855331421,-0.5187987685203552,0.2746581733226776,86.66667175292969,116437.0,1.0
18:15:36.174848,133952.140625,143530.484375,159932.1875,157057.21875,174556.3125,172334.015625,686138.125,130109.328125,0.0361328125,1.005126953125,-0.098388671875,-2.349853277206421,-0.3967284858226776,0.2441406100988388,86.66667175292969,116438.0,1.0
18:15:36.178529,133936.578125,143505.890625,159928.171875,157061.25,174552.734375,172327.84375,686027.9375,130117.203125,0.036865234375,1.00634765625,-0.097412109375,-2.288818120956421,-0.3967284858226776,0.3356933295726776,86.66667175292969,116439.0,1.0
18:15:36.191706,133919.953125,143489.796875,159910.28125,157047.03125,174532.625,172309.0625,686057.25,130102.265625,0.037353515625,1.007080078125,-0.09619140625,-2.227782964706421,-0.4577636420726776,0.3051757514476776,86.66667175292969,116440.0,1.0
18:15:36.191738,133932.203125,143510.8125,159911.8125,157044.078125,174531.90625,172308.265625,686139.6875,130094.671875,0.035400390625,1.00634765625,-0.096923828125,-2.227782964706421,-0.3967284858226776,0.2136230319738388,86.66667175292969,116441.0,1.0
18:15:36.194172,133946.046875,143527.359375,159925.125,157047.921875,174548.09375,172325.609375,686182.3125,130096.546875,0.03564453125,1.00732421875,-0.096435546875,-2.319335699081421,-0.2746581733226776,0.1220703050494194,86.66667175292969,116442.0,1.0
18:15:36.194224,133946.234375,143518.6875,159937.734375,157065.0,174562.9375,172337.234375,686054.375,130116.0390625,0.036865234375,1.0068359375,-0.101318359375,-2.258300542831421,-0.1831054538488388,0.2441406100988388,86.66667175292969,116443.0,1.0
18:15:36.196182,133919.953125,143486.9375,159910.5625,157047.75,174531.453125,172304.328125,686024.9375,130101.734375,0.037353515625,1.0048828125,-0.099609375,-2.197265386581421,0.0,0.1831054538488388,86.66667175292969,116444.0,1.0
18:15:36.223660,133930.046875,143505.71875,159909.578125,157046.578125,174526.984375,172302.984375,686078.6875,130101.375,0.03515625,1.00537109375,-0.0966796875,-2.136230230331421,0.0,0.1831054538488388,86.66667175292969,116445.0,1.0
18:15:36.226111,133943.8125,143522.96875,159918.0625,157049.625,174536.640625,172316.84375,686185.1875,130097.3515625,0.0361328125,1.005859375,-0.09375,-2.075195074081421,-0.0610351525247097,0.1220703050494194,86.66667175292969,116446.0,1.0
18:15:36.228542,133939.796875,143512.328125,159925.578125,157058.03125,174548.625,172327.3125,686039.25,130106.2890625,0.036376953125,1.00537109375,-0.09521484375,-2.075195074081421,0.0,0.1831054538488388,86.66667175292969,116447.0,1.0
18:15:36.231103,133917.171875,143484.265625,159904.75,157048.546875,174523.6875,172302.359375,686025.75,130100.8359375,0.03466796875,1.00537109375,-0.09521484375,-1.9531248807907104,0.0915527269244194,0.1525878757238388,86.66667175292969,116448.0,1.0
18:15:36.233601,133924.328125,143499.375,159904.921875,157046.765625,174521.984375,172299.40625,686043.5625,130097.796875,0.034912109375,1.00927734375,-0.09619140625,-2.014159917831421,0.0610351525247097,0.2441406100988388,86.66667175292969,116449.0,1.0
18:15:36.236114,133942.296875,143524.9375,159918.328125,157050.515625,174537.71875,172316.40625,686195.125,130100.484375,0.03466796875,1.009765625,-0.095458984375,-2.014159917831421,0.0610351525247097,0.0915527269244194,86.66667175292969,116450.0,1.0
18:15:36.241100,133938.71875,143520.375,159928.4375,157053.203125,174553.8125,172332.671875,686056.8125,130107.6328125,0.033447265625,1.01025390625,-0.09326171875,-1.9531248807907104,0.1525878757238388,0.1525878757238388,86.66667175292969,116451.0,1.0
18:15:36.243607,133918.421875,143490.25,159908.5,157048.90625,174529.765625,172307.453125,686045.8125,130105.84375,0.031982421875,1.010498046875,-0.09423828125,-1.9531248807907104,0.1525878757238388,0.1220703050494194,86.66667175292969,116452.0,1.0
18:15:36.246193,133919.765625,143498.296875,159901.609375,157039.4375,174520.015625,172300.84375,686040.3125,130091.2734375,0.031982421875,1.010009765625,-0.095947265625,-2.014159917831421,0.1525878757238388,0.1525878757238388,86.66667175292969,116453.0,1.0
18:15:36.249180,133934.515625,143523.234375,159908.046875,157036.125,174527.078125,172314.34375,686182.875,130085.1015625,0.031982421875,1.00927734375,-0.093017578125,-1.9226073026657104,0.1220703050494194,0.2136230319738388,86.66667175292969,116454.0,1.0
18:15:36.249220,133937.203125,143522.53125,159923.25,157044.96875,174550.234375,172332.765625,686072.6875,130096.90625,0.03125,1.0087890625,-0.093505859375,-1.8615721464157104,0.1220703050494194,0.2136230319738388,86.66667175292969,116455.0,1.0
18:15:36.253602,133912.53125,143485.421875,159904.484375,157043.453125,174529.046875,172306.828125,686030.0625,130096.0078125,0.029541015625,1.007568359375,-0.0947265625,-1.7700194120407104,0.1220703050494194,0.2441406100988388,86.66667175292969,116456.0,1.0
18:15:36.256094,133902.25,143481.3125,159888.203125,157025.296875,174510.890625,172291.015625,686063.0625,130078.7578125,0.029296875,1.00537109375,-0.093505859375,-1.8005369901657104,0.0915527269244194,0.2136230319738388,86.66667175292969,116457.0,1.0
18:15:36.258563,133923.875,143511.078125,159898.671875,157030.21875,174517.875,172301.5625,686165.875,130078.3046875,0.0302734375,1.00341796875,-0.0966796875,-1.7700194120407104,0.0610351525247097,0.3662109076976776,86.66667175292969,116458.0,1.0
18:15:36.261053,133933.265625,143520.203125,159918.15625,157036.921875,174543.0,172325.609375,686106.75,130086.8046875,0.031982421875,1.00244140625,-0.096923828125,-1.7089842557907104,0.0610351525247097,0.3356933295726776,86.66667175292969,116459.0,1.0
18:15:36.264842,133926.5625,143502.9375,159920.125,157046.3125,174542.8125,172319.34375,686029.0,130101.109375,0.031005859375,1.001220703125,-0.098388671875,-1.4953612089157104,0.0610351525247097,0.5187987685203552,86.66667175292969,116460.0,1.0
18:15:36.282928,133924.78125,143502.3125,159913.78125,157046.140625,174531.1875,172309.421875,686024.75,130102.8046875,0.03076171875,1.00048828125,-0.099853515625,-1.3732908964157104,0.0915527269244194,0.5798339247703552,86.66667175292969,116461.0,1.0
18:15:36.282964,133937.109375,143524.671875,159911.8125,157041.9375,174524.03125,172309.875,686139.875,130085.90625,0.032470703125,0.99951171875,-0.098876953125,-1.3122557401657104,0.1220703050494194,0.6408690810203552,86.66667175292969,116462.0,1.0
18:15:36.289717,133947.125,143536.109375,159926.203125,157050.34375,174545.40625,172332.21875,686146.75,130094.046875,0.033447265625,0.999755859375,-0.0966796875,-1.1291502714157104,0.0,0.6713866591453552,86.66667175292969,116463.0,1.0
18:15:36.289739,133937.65625,143512.421875,159929.6875,157062.5,174552.015625,172328.03125,686043.75,130115.0546875,0.032958984375,1.00244140625,-0.09423828125,-0.9765624403953552,-0.03051757626235485,0.6713866591453552,86.66667175292969,116464.0,1.0
18:15:36.289747,133918.609375,143492.578125,159909.84375,157047.65625,174528.953125,172305.578125,686032.375,130105.21875,0.0283203125,1.00146484375,-0.0947265625,-0.9155272841453552,-0.03051757626235485,0.7324218153953552,86.66667175292969,116465.0,1.0
18:15:36.292287,133937.734375,143523.421875,159914.765625,157048.109375,174528.953125,172312.640625,686119.9375,130095.4765625,0.027587890625,1.0009765625,-0.09765625,-0.8850097060203552,-0.0610351525247097,0.7324218153953552,86.66667175292969,116466.0,1.0
18:15:36.296378,133949.546875,143539.0625,159926.65625,157050.0625,174543.96875,172331.421875,686174.375,130094.1328125,0.028564453125,1.0009765625,-0.09765625,-0.8239745497703552,-0.0610351525247097,0.6713866591453552,86.66667175292969,116467.0,1.0
18:15:36.296559,133934.15625,143515.546875,159926.109375,157052.65625,174548.171875,172329.359375,686041.5625,130103.0703125,0.031005859375,1.00439453125,-0.097900390625,-0.7324218153953552,-0.1525878757238388,0.6103515028953552,86.66667175292969,116468.0,1.0
18:15:36.297337,133919.5,143495.34375,159912.4375,157049.53125,174531.90625,172310.046875,686041.3125,130104.0546875,0.02978515625,1.007080078125,-0.09619140625,-0.6408690810203552,-0.1220703050494194,0.6103515028953552,86.66667175292969,116469.0,1.0
18:15:36.300306,133938.1875,143525.828125,159920.75,157052.9375,174537.359375,172320.25,686083.875,130102.1796875,0.029052734375,1.009521484375,-0.0947265625,-0.6408690810203552,-0.1220703050494194,0.5798339247703552,86.66667175292969,116470.0,1.0
18:15:36.307338,133959.828125,143553.453125,159938.453125,157061.328125,174557.65625,172343.765625,686200.5625,130107.9921875,0.029052734375,1.009033203125,-0.0947265625,-0.7019042372703552,-0.0915527269244194,0.5493163466453552,86.66667175292969,116471.0,1.0
18:15:36.311640,133948.5625,143536.203125,159941.140625,157064.109375,174567.046875,172348.40625,686049.0,130116.3046875,0.029541015625,1.00634765625,-0.09912109375,-0.7629393935203552,-0.1831054538488388,0.4882812201976776,86.66667175292969,116472.0,1.0
18:15:36.311668,133920.578125,143499.453125,159916.546875,157051.140625,174539.421875,172315.59375,686032.3125,130107.8125,0.032958984375,1.0048828125,-0.098876953125,-0.7324218153953552,-0.2136230319738388,0.5798339247703552,86.66667175292969,116473.0,1.0
18:15:36.329289,133940.875,143528.515625,159929.78125,157059.28125,174549.96875,172327.75,686050.375,130112.7265625,0.033935546875,1.00634765625,-0.099853515625,-0.5493163466453552,-0.2136230319738388,0.6103515028953552,86.66667175292969,116474.0,1.0
18:15:36.329328,133961.796875,143559.359375,159943.1875,157065.0,174563.203125,172346.265625,686186.1875,130114.7890625,0.0380859375,1.004638671875,-0.1015625,-0.5493163466453552,-0.0915527269244194,0.7019042372703552,86.66667175292969,116475.0,1.0
18:15:36.331069,133963.484375,143556.671875,159956.59375,157076.796875,174582.875,172362.09375,686048.5,130134.1875,0.03955078125,1.005615234375,-0.102783203125,-0.4882812201976776,0.1220703050494194,0.7934569716453552,86.66667175292969,116476.0,1.0
18:15:36.334142,133936.9375,143518.59375,159932.8125,157063.484375,174554.890625,172330.96875,686035.3125,130121.4921875,0.03857421875,1.006103515625,-0.102783203125,-0.2746581733226776,0.1831054538488388,0.9460448622703552,86.66667175292969,116477.0,1.0
18:15:36.334157,133945.78125,143533.25,159934.515625,157063.5625,174552.46875,172331.328125,686070.625,130115.765625,0.0400390625,1.00732421875,-0.102783203125,-0.1831054538488388,0.2136230319738388,1.0986326932907104,86.66667175292969,116478.0,1.0
18:15:36.343625,133960.625,143555.15625,159939.609375,157064.015625,174555.328125,172335.890625,686191.8125,130110.9375,0.037353515625,1.008544921875,-0.102783203125,-0.1220703050494194,0.3356933295726776,1.0986326932907104,86.66667175292969,116479.0,1.0
18:15:36.346645,133963.75,143555.34375,159954.8125,157070.28125,174576.515625,172354.84375,686080.6875,130118.359375,0.03564453125,1.007568359375,-0.103271484375,-0.03051757626235485,0.3356933295726776,1.0681151151657104,86.66667175292969,116480.0,1.0
18:15:36.346667,133942.65625,143522.25,159940.953125,157066.875,174560.515625,172332.5,686031.375,130118.8984375,0.033203125,1.005126953125,-0.104736328125,0.0,0.3967284858226776,0.9460448622703552,86.66667175292969,116481.0,1.0
18:15:36.348569,133949.546875,143535.671875,159942.46875,157068.84375,174557.65625,172333.75,686064.8125,130119.078125,0.031982421875,1.006591796875,-0.10205078125,0.0,0.4577636420726776,0.8850097060203552,86.66667175292969,116482.0,1.0
18:15:36.367877,133965.1875,143558.015625,159945.6875,157069.375,174556.765625,172335.984375,686178.5625,130114.4296875,0.03173828125,1.009765625,-0.103271484375,0.1831054538488388,0.3967284858226776,0.8239745497703552,86.66667175292969,116483.0,1.0
18:15:36.367905,133975.296875,143567.234375,159962.59375,157077.15625,174579.734375,172360.03125,686121.3125,130124.4453125,0.030517578125,1.013671875,-0.102294921875,0.0915527269244194,0.3356933295726776,0.7019042372703552,86.66667175292969,116484.0,1.0
18:15:36.372909,133959.734375,143539.78125,159957.3125,157082.875,174574.546875,172348.40625,686040.3125,130133.7421875,0.0302734375,1.0146484375,-0.1005859375,0.0915527269244194,0.2746581733226776,0.5798339247703552,86.66667175292969,116485.0,1.0
18:15:36.372925,133950.875,143529.859375,159947.296875,157076.4375,174563.375,172331.421875,686046.6875,130129.984375,0.02978515625,1.013916015625,-0.096923828125,-0.03051757626235485,0.2441406100988388,0.3662109076976776,86.66667175292969,116486.0,1.0
18:15:36.375413,133974.84375,143565.4375,159960.796875,157085.46875,174575.09375,172346.171875,686144.4375,130136.78125,0.02587890625,1.0146484375,-0.098876953125,-0.1220703050494194,0.2136230319738388,0.2441406100988388,86.66667175292969,116487.0,1.0
18:15:36.375432,133978.328125,143574.015625,159966.796875,157079.9375,174587.34375,172364.328125,686145.1875,130129.625,0.02490234375,1.0146484375,-0.09912109375,-0.3356933295726776,0.1525878757238388,0.0915527269244194,86.66667175292969,116488.0,1.0
18:15:36.377302,133949.8125,143531.828125,159948.203125,157070.28125,174570.34375,172340.8125,686032.3125,130125.25,0.028076171875,1.017333984375,-0.098876953125,-0.4577636420726776,0.1831054538488388,-0.0915527269244194,86.66667175292969,116489.0,1.0
18:15:36.402418,133940.953125,143518.140625,159937.734375,157069.375,174556.3125,172324.265625,686068.3125,130128.375,0.030517578125,1.0185546875,-0.1015625,-0.6103515028953552,0.0915527269244194,0.0610351525247097,86.66667175292969,116490.0,1.0
18:15:36.426734,133952.140625,143539.25,159937.5625,157067.59375,174553.1875,172323.015625,686124.3125,130122.3828125,0.03515625,1.0166015625,-0.1025390625,-0.7019042372703552,0.1220703050494194,0.0610351525247097,86.66667175292969,116491.0,1.0
18:15:36.426769,133964.5625,143557.75,159949.359375,157066.078125,174566.59375,172343.140625,686169.8125,130119.703125,0.037109375,1.01318359375,-0.101806640625,-0.8850097060203552,0.1525878757238388,0.2441406100988388,86.66667175292969,116492.0,1.0
18:15:36.430485,133958.21875,143544.515625,159954.015625,157072.78125,174572.5,172353.234375,686035.75,130128.734375,0.037353515625,1.01611328125,-0.10107421875,-0.8850097060203552,0.1831054538488388,0.1831054538488388,86.66667175292969,116493.0,1.0
18:15:36.430516,133931.296875,143509.296875,159926.46875,157056.234375,174539.328125,172318.375,686044.25,130107.71875,0.036865234375,1.01611328125,-0.10205078125,-1.0070799589157104,0.2136230319738388,0.2441406100988388,86.66667175292969,116494.0,1.0
18:15:36.430523,133947.03125,143536.46875,159934.15625,157056.859375,174542.09375,172324.890625,686089.875,130103.7890625,0.03515625,1.014892578125,-0.10009765625,-1.0681151151657104,0.2746581733226776,0.3967284858226776,86.66667175292969,116495.0,1.0
18:15:36.430530,133962.0625,143553.546875,159945.328125,157061.6875,174553.71875,172335.71875,686187.25,130107.2734375,0.033447265625,1.012451171875,-0.099853515625,-1.2512205839157104,0.3051757514476776,0.6103515028953552,86.66667175292969,116496.0,1.0
18:15:36.433630,133954.546875,143540.578125,159949.453125,157064.90625,174561.40625,172344.125,686041.75,130112.8203125,0.029052734375,1.01171875,-0.09912109375,-1.4038084745407104,0.3967284858226776,0.6408690810203552,86.66667175292969,116497.0,1.0
18:15:36.433657,133933.71875,143509.734375,159928.265625,157059.375,174536.203125,172317.5625,686062.875,130108.8828125,0.0283203125,1.010009765625,-0.098388671875,-1.4953612089157104,0.2746581733226776,0.6713866591453552,86.66667175292969,116498.0,1.0
18:15:36.433666,133944.4375,143528.96875,159930.40625,157058.5625,174536.109375,172320.6875,686068.0625,130104.328125,0.0283203125,1.010986328125,-0.099853515625,-1.7089842557907104,0.3662109076976776,0.6103515028953552,86.66667175292969,116499.0,1.0
18:15:36.436213,133948.109375,143539.609375,159927.28125,157049.265625,174533.15625,172320.78125,686187.5625,130093.0625,0.029052734375,1.009033203125,-0.10107421875,-1.7395018339157104,0.3051757514476776,0.6713866591453552,86.66667175292969,116500.0,1.0
18:15:36.438618,133948.46875,143538.53125,159940.953125,157058.296875,174553.28125,172340.984375,686061.25,130104.5,0.0283203125,1.00927734375,-0.099365234375,-1.8310545682907104,0.3051757514476776,0.7019042372703552,86.66667175292969,116501.0,1.0
18:15:36.441130,133927.90625,143505.890625,159923.34375,157055.796875,174531.90625,172317.75,686049.125,130104.4140625,0.028564453125,1.01025390625,-0.096923828125,-1.9226073026657104,0.2746581733226776,0.6103515028953552,86.66667175292969,116502.0,1.0
18:15:36.446144,133923.96875,143504.375,159913.859375,157045.0625,174521.796875,172303.265625,686104.1875,130094.578125,0.02880859375,1.008056640625,-0.099365234375,-2.014159917831421,0.3356933295726776,0.5493163466453552,86.66667175292969,116503.0,1.0
18:15:36.448606,133952.046875,143539.25,159933.53125,157061.609375,174541.296875,172322.390625,686209.3125,130109.6015625,0.028076171875,1.007080078125,-0.09716796875,-2.044677495956421,0.1220703050494194,0.5798339247703552,86.66667175292969,116504.0,1.0
18:15:36.451017,133948.921875,143535.125,159939.34375,157059.28125,174553.453125,172335.0,686094.3125,130109.328125,0.026611328125,1.00634765625,-0.099365234375,-2.105712652206421,0.0,0.4577636420726776,86.66667175292969,116505.0,1.0
18:15:36.453564,133926.203125,143502.671875,159923.078125,157056.859375,174535.921875,172314.171875,686037.125,130112.375,0.02685546875,1.004150390625,-0.099609375,-2.166747808456421,-0.0915527269244194,0.4882812201976776,86.66667175292969,116506.0,1.0
18:15:36.456051,133929.515625,143509.46875,159922.8125,157056.0625,174533.96875,172309.609375,686051.75,130108.8828125,0.0263671875,1.002197265625,-0.09912109375,-2.136230230331421,-0.1525878757238388,0.3051757514476776,86.66667175292969,116507.0,1.0
18:15:36.464845,133963.671875,143552.125,159946.5,157073.578125,174554.171875,172331.421875,686184.3125,130121.9375,0.026123046875,1.00244140625,-0.10009765625,-2.197265386581421,-0.1525878757238388,0.3051757514476776,86.66667175292969,116508.0,1.0
18:15:36.467887,133962.234375,143549.796875,159952.125,157072.515625,174565.609375,172341.96875,686128.75,130126.0546875,0.029296875,1.001953125,-0.10009765625,-2.044677495956421,-0.1831054538488388,0.2746581733226776,86.66667175292969,116509.0,1.0
18:15:36.467910,133928.703125,143505.71875,159927.71875,157057.40625,174539.953125,172312.375,686016.125,130109.6015625,0.02978515625,1.003662109375,-0.100830078125,-1.9836424589157104,-0.1831054538488388,0.3356933295726776,86.66667175292969,116510.0,1.0
18:15:36.469808,133927.015625,143505.359375,159923.25,157057.21875,174533.25,172307.453125,686055.5625,130110.5859375,0.030517578125,1.002685546875,-0.099609375,-1.9226073026657104,-0.1831054538488388,0.3967284858226776,86.66667175292969,116511.0,1.0
18:15:36.472312,133954.546875,143543.171875,159940.953125,157068.390625,174550.859375,172325.25,686149.75,130118.09375,0.031005859375,1.001220703125,-0.102294921875,-1.9531248807907104,-0.2136230319738388,0.3967284858226776,86.66667175292969,116512.0,1.0
18:15:36.474799,133957.3125,143548.8125,159947.578125,157064.90625,174563.375,172339.203125,686157.75,130114.25,0.03125,1.004150390625,-0.099609375,-1.8310545682907104,-0.2441406100988388,0.3967284858226776,86.66667175292969,116513.0,1.0
18:15:36.482844,133948.46875,143529.671875,159947.578125,157070.09375,174564.71875,172339.296875,686038.75,130122.7421875,0.0322265625,1.002685546875,-0.1025390625,-1.6479490995407104,-0.2136230319738388,0.3967284858226776,86.66667175292969,116514.0,1.0
18:15:36.482861,133930.40625,143509.734375,159927.71875,157059.015625,174538.875,172316.21875,686054.3125,130110.4921875,0.03271484375,1.003662109375,-0.101318359375,-1.5258787870407104,-0.2136230319738388,0.5187987685203552,86.66667175292969,116515.0,1.0
18:15:36.489218,133943.28125,143530.03125,159930.578125,157057.765625,174537.53125,172316.046875,686102.625,130104.6796875,0.032470703125,1.003173828125,-0.103271484375,-1.3732908964157104,-0.1831054538488388,0.6408690810203552,86.66667175292969,116516.0,1.0
18:15:36.489241,133956.78125,143547.296875,159942.65625,157062.234375,174552.015625,172333.828125,686177.0625,130110.2265625,0.0322265625,1.00146484375,-0.1044921875,-1.3122557401657104,-0.2136230319738388,0.6713866591453552,86.66667175292969,116517.0,1.0
18:15:36.496129,133941.3125,143526.09375,159939.609375,157059.90625,174551.84375,172334.1875,686027.125,130109.15625,0.031494140625,1.003173828125,-0.10595703125,-1.1596678495407104,-0.2746581733226776,0.7629393935203552,86.66667175292969,116518.0,1.0
18:15:36.503004,133931.84375,143510.1875,159930.859375,157060.4375,174538.875,172319.34375,686052.5,130109.15625,0.03125,1.00341796875,-0.104736328125,-1.0681151151657104,-0.3967284858226776,0.9460448622703552,86.66667175292969,116519.0,1.0
18:15:36.503011,133942.828125,143531.28125,159932.640625,157060.890625,174539.328125,172319.34375,686078.125,130104.7734375,0.030517578125,1.002685546875,-0.10498046875,-0.9765624403953552,-0.3662109076976776,1.0070799589157104,86.66667175292969,116520.0,1.0
18:15:36.520444,133954.375,143548.625,159939.875,157060.984375,174548.625,172329.546875,686183.125,130103.6953125,0.032470703125,1.00341796875,-0.102294921875,-0.7934569716453552,-0.2746581733226776,1.0070799589157104,86.66667175292969,116521.0,1.0
18:15:36.520468,133939.703125,143526.28125,159938.0,157056.15625,174553.28125,172332.765625,686026.125,130107.0078125,0.0341796875,1.0029296875,-0.102294921875,-0.7019042372703552,-0.3051757514476776,1.1291502714157104,86.66667175292969,116522.0,1.0
18:15:36.525397,133916.015625,143492.21875,159917.53125,157050.34375,174528.953125,172304.59375,686058.125,130108.6171875,0.032958984375,1.00390625,-0.10107421875,-0.5798339247703552,-0.2746581733226776,1.1596678495407104,86.66667175292969,116523.0,1.0
18:15:36.525419,133925.9375,143509.734375,159919.59375,157056.6875,174527.25,172305.21875,686101.25,130106.0234375,0.03369140625,1.004638671875,-0.101318359375,-0.4577636420726776,-0.2136230319738388,1.1596678495407104,86.66667175292969,116524.0,1.0
18:15:36.527260,133944.4375,143532.09375,159929.953125,157061.953125,174537.53125,172313.8125,686210.125,130110.3125,0.034423828125,1.00537109375,-0.1015625,-0.3051757514476776,-0.2136230319738388,1.1596678495407104,86.66667175292969,116525.0,1.0
18:15:36.529870,133947.125,143533.796875,159943.640625,157066.703125,174558.28125,172335.0,686064.0,130116.3984375,0.033447265625,1.0068359375,-0.103515625,-0.2136230319738388,-0.1831054538488388,1.0986326932907104,86.66667175292969,116526.0,1.0
18:15:36.532325,133907.34375,143481.578125,159908.59375,157047.296875,174520.1875,172291.28125,686039.4375,130102.1796875,0.033447265625,1.004150390625,-0.104736328125,-0.0915527269244194,-0.0915527269244194,1.0986326932907104,86.66667175292969,116527.0,1.0
18:15:36.534847,133907.609375,143489.171875,159904.03125,157039.25,174512.859375,172284.75,686064.375,130093.4140625,0.03369140625,1.005126953125,-0.105712890625,0.0,0.0610351525247097,1.0986326932907104,86.66667175292969,116528.0,1.0
18:15:36.542948,133922.0,143511.265625,159906.0,157037.828125,174513.125,172288.5,686182.25,130087.25,0.033203125,1.009033203125,-0.10595703125,0.0,0.03051757626235485,1.1596678495407104,86.66667175292969,116529.0,1.0
18:15:36.542966,133931.296875,143519.75,159924.859375,157049.09375,174537.09375,172313.625,686091.8125,130099.9453125,0.035400390625,1.010498046875,-0.10595703125,-0.0610351525247097,0.03051757626235485,1.1596678495407104,86.66667175292969,116530.0,1.0
18:15:36.544847,133918.421875,143493.5625,159916.640625,157053.90625,174525.296875,172298.78125,686035.125,130104.4140625,0.03466796875,1.0107421875,-0.109375,0.03051757626235485,0.0610351525247097,1.0986326932907104,86.66667175292969,116531.0,1.0
18:15:36.552347,133920.578125,143501.25,159914.046875,157052.75,174520.109375,172297.71875,686013.875,130101.734375,0.0341796875,1.01123046875,-0.10693359375,0.03051757626235485,0.1220703050494194,1.0375975370407104,86.66667175292969,116532.0,1.0
18:15:36.556648,133931.921875,143522.703125,159915.390625,157047.75,174519.296875,172299.140625,686149.9375,130091.0,0.036376953125,1.009033203125,-0.104248046875,-0.0610351525247097,0.1220703050494194,0.9765624403953552,86.66667175292969,116533.0,1.0
18:15:36.556678,133932.109375,143524.40625,159923.703125,157042.5625,174534.671875,172315.5,686120.625,130087.609375,0.036376953125,1.007568359375,-0.10693359375,-0.0610351525247097,0.1831054538488388,1.0070799589157104,86.66667175292969,116534.0,1.0
18:15:36.564836,133912.53125,143494.453125,159910.828125,157037.90625,174521.359375,172300.578125,686020.3125,130086.171875,0.038818359375,1.007080078125,-0.109130859375,-0.1525878757238388,0.3662109076976776,0.9765624403953552,86.66667175292969,116535.0,1.0
18:15:36.569108,133911.1875,143492.9375,159905.8125,157038.171875,174513.3125,172295.296875,686066.0,130086.625,0.0390625,1.008056640625,-0.10791015625,-0.2441406100988388,0.5187987685203552,0.9765624403953552,86.66667175292969,116536.0,1.0
18:15:36.569126,133936.9375,143530.921875,159923.15625,157051.40625,174528.953125,172313.265625,686161.125,130096.546875,0.0439453125,1.00830078125,-0.107666015625,-0.2441406100988388,0.6713866591453552,1.0375975370407104,86.66667175292969,116537.0,1.0
18:15:36.577358,133947.390625,143544.34375,159938.8125,157057.9375,174550.140625,172333.828125,686185.875,130106.46875,0.045166015625,1.010009765625,-0.108154296875,-0.3356933295726776,0.8239745497703552,1.0681151151657104,86.66667175292969,116538.0,1.0
18:15:36.580483,133928.4375,143515.734375,159931.03125,157055.171875,174543.34375,172324.53125,686039.0625,130102.8046875,0.044189453125,1.01025390625,-0.108642578125,-0.5187987685203552,0.9155272841453552,1.2207030057907104,86.66667175292969,116539.0,1.0
18:15:36.580497,133916.546875,143500.625,159917.0,157052.3125,174525.828125,172308.625,686034.0,130103.0703125,0.044921875,1.010498046875,-0.1064453125,-0.4577636420726776,1.0375975370407104,1.2207030057907104,86.66667175292969,116540.0,1.0
18:15:36.582319,133929.421875,143521.625,159917.703125,157049.4375,174524.3125,172307.1875,686104.0,130094.8515625,0.041259765625,1.010986328125,-0.106201171875,-0.6408690810203552,1.2817381620407104,1.3122557401657104,86.66667175292969,116541.0,1.0
18:15:36.592432,133944.4375,143536.921875,159929.953125,157054.09375,174538.078125,172320.515625,686196.4375,130100.5703125,0.0380859375,1.009521484375,-0.1064453125,-0.6408690810203552,1.4648436307907104,1.2817381620407104,86.66667175292969,116542.0,1.0
18:15:36.596619,133930.59375,143516.09375,159928.609375,157052.9375,174540.21875,172319.078125,686039.4375,130105.1328125,0.036865234375,1.009033203125,-0.1044921875,-0.8239745497703552,1.4648436307907104,1.2512205839157104,86.66667175292969,116543.0,1.0
18:15:36.596646,133918.609375,143495.609375,159917.625,157057.125,174526.0,172300.84375,686044.25,130109.421875,0.03857421875,1.01025390625,-0.106689453125,-0.8239745497703552,1.6479490995407104,1.3427733182907104,86.66667175292969,116544.0,1.0
18:15:36.602468,133923.515625,143509.921875,159913.78125,157050.15625,174519.84375,172297.71875,686075.0,130099.140625,0.036376953125,1.0107421875,-0.109130859375,-0.8850097060203552,1.6479490995407104,1.1901854276657104,86.66667175292969,116545.0,1.0
18:15:36.610602,133939.078125,143531.828125,159923.25,157049.796875,174529.140625,172311.75,686204.3125,130094.7578125,0.03515625,1.01220703125,-0.1103515625,-1.0375975370407104,1.6174315214157104,1.1901854276657104,86.66667175292969,116546.0,1.0
18:15:36.610627,133931.296875,143520.375,159927.640625,157049.265625,174539.234375,172320.6875,686043.375,130096.1015625,0.03369140625,1.0107421875,-0.10595703125,-1.0681151151657104,1.7700194120407104,1.1596678495407104,86.66667175292969,116547.0,1.0
18:15:36.620402,133910.109375,143484.609375,159910.015625,157046.84375,174516.890625,172290.734375,686043.125,130097.9765625,0.03271484375,1.009033203125,-0.10693359375,-1.2207030057907104,1.7395018339157104,1.0986326932907104,86.66667175292969,116548.0,1.0
18:15:36.620413,133927.09375,143510.640625,159920.390625,157054.0,174524.578125,172299.859375,686068.75,130101.375,0.0302734375,1.01171875,-0.10595703125,-1.3732908964157104,1.6784666776657104,0.9460448622703552,86.66667175292969,116549.0,1.0
18:15:36.622360,133941.84375,143536.5625,159928.171875,157053.109375,174534.140625,172313.265625,686209.125,130098.875,0.0302734375,1.01025390625,-0.107666015625,-1.4038084745407104,1.6784666776657104,0.7934569716453552,86.66667175292969,116550.0,1.0
18:15:36.624840,133946.5,143539.953125,159945.421875,157061.25,174557.390625,172337.5,686089.5,130111.1171875,0.027587890625,1.010498046875,-0.1044921875,-1.4953612089157104,1.5869139432907104,0.7019042372703552,86.66667175292969,116551.0,1.0
18:15:36.628644,133940.0625,143521.546875,159943.546875,157073.578125,174550.859375,172328.65625,686062.4375,130126.140625,0.028564453125,1.0126953125,-0.10595703125,-1.6479490995407104,1.6479490995407104,0.7019042372703552,86.66667175292969,116552.0,1.0
18:15:36.639238,133938.546875,143525.75,159937.109375,157067.5,174542.546875,172319.171875,686038.4375,130121.2265625,0.029541015625,1.014892578125,-0.104736328125,-1.8615721464157104,1.5563963651657104,0.7629393935203552,86.66667175292969,116553.0,1.0
18:15:36.639262,133962.140625,143557.9375,159950.96875,157072.59375,174555.421875,172333.203125,686199.3125,130120.6875,0.0302734375,1.0146484375,-0.104248046875,-2.014159917831421,1.4953612089157104,0.8239745497703552,86.66667175292969,116554.0,1.0
18:15:36.641626,133963.484375,143558.46875,159961.609375,157072.78125,174573.03125,172351.625,686111.9375,130121.671875,0.032470703125,1.01513671875,-0.1025390625,-2.075195074081421,1.3732908964157104,1.0375975370407104,86.66667175292969,116555.0,1.0
18:15:36.641654,133940.6875,143523.859375,159943.1875,157067.421875,174551.21875,172329.984375,686043.9375,130116.484375,0.03173828125,1.013916015625,-0.10205078125,-2.166747808456421,1.3427733182907104,0.9765624403953552,86.66667175292969,116556.0,1.0
18:15:36.651139,133933.359375,143518.234375,159929.953125,157056.59375,174534.859375,172313.359375,686034.5,130103.96875,0.030517578125,1.012451171875,-0.10400390625,-2.166747808456421,1.1901854276657104,1.0375975370407104,86.66667175292969,116557.0,1.0
18:15:36.654838,133955.984375,143547.46875,159942.203125,157063.921875,174545.3125,172322.921875,686164.25,130108.8828125,0.02783203125,1.011474609375,-0.103271484375,-2.349853277206421,1.1901854276657104,0.9765624403953552,86.66667175292969,116558.0,1.0
18:15:36.659301,133967.875,143563.5625,159962.59375,157074.390625,174571.421875,172350.375,686146.125,130121.3125,0.029296875,1.00927734375,-0.105712890625,-2.380370855331421,1.0070799589157104,1.1901854276657104,86.66667175292969,116559.0,1.0
18:15:36.659329,133945.25,143528.421875,159949.625,157073.859375,174557.203125,172331.328125,686037.3125,130123.28125,0.0283203125,1.009765625,-0.10693359375,-2.410888433456421,0.9460448622703552,1.2512205839157104,86.66667175292969,116560.0,1.0
18:15:36.671121,133927.1875,143508.125,159927.71875,157058.734375,174531.09375,172304.59375,686047.9375,130109.6015625,0.027099609375,1.01025390625,-0.102783203125,-2.410888433456421,0.8544921278953552,1.2817381620407104,86.66667175292969,116561.0,1.0
18:15:36.673667,133953.390625,143542.8125,159941.21875,157066.96875,174541.203125,172318.015625,686144.3125,130112.28125,0.027587890625,1.01025390625,-0.10009765625,-2.532958745956421,0.6713866591453552,1.2817381620407104,86.66667175292969,116562.0,1.0
18:15:36.676193,133971.53125,143564.90625,159961.15625,157075.1875,174564.71875,172344.46875,686179.375,130119.4375,0.029541015625,1.006103515625,-0.0986328125,-2.441406011581421,0.6713866591453552,1.4343260526657104,86.66667175292969,116563.0,1.0
18:15:36.691396,133946.234375,143532.453125,159947.65625,157068.578125,174554.078125,172330.078125,686035.6875,130116.6640625,0.02880859375,1.005615234375,-0.103515625,-2.380370855331421,0.6103515028953552,1.3732908964157104,86.66667175292969,116564.0,1.0
18:15:36.694173,133922.09375,143502.765625,159923.25,157058.46875,174525.921875,172297.984375,686063.0625,130110.8515625,0.0283203125,1.00390625,-0.101318359375,-2.349853277206421,0.3356933295726776,1.4648436307907104,86.66667175292969,116565.0,1.0
18:15:36.696134,133929.953125,143520.203125,159921.375,157051.59375,174520.734375,172294.765625,686128.5,130098.2421875,0.0283203125,1.0048828125,-0.10107421875,-2.441406011581421,0.1831054538488388,1.4038084745407104,86.66667175292969,116566.0,1.0
18:15:36.698660,133947.390625,143543.171875,159937.375,157056.59375,174539.78125,172315.953125,686210.0625,130105.7578125,0.027587890625,1.005859375,-0.09912109375,-2.441406011581421,0.0610351525247097,1.4953612089157104,86.66667175292969,116567.0,1.0
18:15:36.701043,133932.640625,143521.71875,159936.3125,157054.890625,174543.796875,172316.40625,686057.5625,130108.703125,0.0302734375,1.0078125,-0.097900390625,-2.410888433456421,0.03051757626235485,1.3427733182907104,86.66667175292969,116568.0,1.0
18:15:36.703639,133908.0625,143487.296875,159911.265625,157043.1875,174512.953125,172284.296875,686040.625,130096.90625,0.030517578125,1.007568359375,-0.095947265625,-2.410888433456421,-0.0610351525247097,1.2817381620407104,86.66667175292969,116569.0,1.0
18:15:36.706138,133918.15625,143508.84375,159911.453125,157039.4375,174510.359375,172286.890625,686060.75,130083.9375,0.032470703125,1.005859375,-0.09765625,-2.288818120956421,-0.03051757626235485,1.1901854276657104,86.66667175292969,116570.0,1.0
18:15:36.708616,133942.125,143534.5,159930.140625,157055.34375,174531.09375,172306.296875,686202.875,130095.7421875,0.0322265625,1.00537109375,-0.100830078125,-2.258300542831421,-0.1525878757238388,1.0986326932907104,86.66667175292969,116571.0,1.0
18:15:36.713021,133937.828125,143525.828125,159939.609375,157060.171875,174546.921875,172321.3125,686049.5625,130103.1640625,0.03271484375,1.004638671875,-0.1005859375,-2.136230230331421,-0.2441406100988388,1.1596678495407104,86.66667175292969,116572.0,1.0
18:15:36.713049,133921.015625,143501.6875,159923.703125,157054.625,174526.71875,172302.1875,686036.75,130101.1953125,0.03564453125,1.00439453125,-0.095947265625,-2.075195074081421,-0.3967284858226776,0.9460448622703552,86.66667175292969,116573.0,1.0
18:15:36.719244,133934.078125,143527.625,159928.609375,157053.90625,174528.59375,172311.125,686029.5,130098.9609375,0.0361328125,1.00390625,-0.096923828125,-2.014159917831421,-0.3662109076976776,0.8544921278953552,86.66667175292969,116574.0,1.0
18:15:36.719271,133946.859375,143543.625,159931.65625,157052.578125,174530.46875,172313.359375,686183.0,130093.7734375,0.03564453125,1.0068359375,-0.09912109375,-1.9531248807907104,-0.3356933295726776,0.8850097060203552,86.66667175292969,116575.0,1.0
18:15:36.728713,133947.578125,143542.90625,159945.25,157056.59375,174551.9375,172332.40625,686067.4375,130102.0,0.038330078125,1.00341796875,-0.10009765625,-1.8615721464157104,-0.4272460639476776,0.8544921278953552,86.66667175292969,116576.0,1.0
18:15:36.735639,133924.5,143511.078125,159930.3125,157055.34375,174535.125,172312.375,686030.0625,130106.109375,0.039306640625,1.002685546875,-0.09765625,-1.8310545682907104,-0.4882812201976776,0.8544921278953552,86.66667175292969,116577.0,1.0
18:15:36.735660,133925.671875,143516.0,159925.75,157053.5625,174528.59375,172306.296875,686042.375,130103.34375,0.041015625,1.00341796875,-0.097412109375,-1.7395018339157104,-0.3967284858226776,0.7019042372703552,86.66667175292969,116578.0,1.0
18:15:36.737923,133942.03125,143535.125,159930.3125,157058.203125,174531.90625,172305.9375,686169.25,130106.203125,0.041015625,1.00390625,-0.099365234375,-1.7089842557907104,-0.3356933295726776,0.5493163466453552,86.66667175292969,116579.0,1.0
18:15:36.737949,133949.1875,143542.109375,159947.65625,157068.125,174557.03125,172329.8125,686109.375,130118.71875,0.041748046875,1.004638671875,-0.099365234375,-1.5563963651657104,-0.2441406100988388,0.5493163466453552,86.66667175292969,116580.0,1.0
18:15:36.747317,133925.578125,143505.890625,159929.328125,157060.703125,174537.0,172307.015625,686047.875,130115.859375,0.039794921875,1.00537109375,-0.0966796875,-1.5258787870407104,-0.2441406100988388,0.6408690810203552,86.66667175292969,116581.0,1.0
18:15:36.775452,133922.546875,143505.625,159920.296875,157053.28125,174523.234375,172298.078125,686042.3125,130107.8125,0.039306640625,1.005859375,-0.099853515625,-1.4953612089157104,-0.1831054538488388,0.3967284858226776,86.66667175292969,116582.0,1.0
18:15:36.775483,133931.296875,143527.53125,159917.4375,157046.671875,174518.5,172296.46875,686145.8125,130097.796875,0.038818359375,1.005126953125,-0.099609375,-1.4038084745407104,-0.0915527269244194,0.3662109076976776,86.66667175292969,116583.0,1.0
18:15:36.801145,133949.0,143549.34375,159941.671875,157059.375,174548.453125,172328.5625,686137.625,130107.9921875,0.039306640625,1.003173828125,-0.099853515625,-1.3427733182907104,-0.0915527269244194,0.3356933295726776,86.66667175292969,116584.0,1.0
18:15:36.801169,133926.46875,143513.671875,159930.671875,157056.6875,174537.453125,172312.640625,686042.6875,130105.578125,0.040771484375,1.00244140625,-0.097900390625,-1.1901854276657104,-0.0610351525247097,0.2746581733226776,86.66667175292969,116585.0,1.0
18:15:36.801176,133913.859375,143497.484375,159916.453125,157050.78125,174520.109375,172293.25,686063.25,130102.1796875,0.040771484375,1.0029296875,-0.09765625,-1.0375975370407104,-0.0610351525247097,0.3356933295726776,86.66667175292969,116586.0,1.0
18:15:36.804715,133922.1875,143516.171875,159913.859375,157041.84375,174514.203125,172291.1875,686129.375,130089.0390625,0.0380859375,1.00439453125,-0.099853515625,-0.9460448622703552,-0.03051757626235485,0.2746581733226776,86.66667175292969,116587.0,1.0
18:15:36.804730,133927.90625,143526.8125,159919.859375,157040.140625,174522.96875,172302.984375,686172.3125,130084.390625,0.03759765625,1.003662109375,-0.098876953125,-0.9765624403953552,0.0610351525247097,0.1831054538488388,86.66667175292969,116588.0,1.0
18:15:36.804734,133924.15625,143515.546875,159926.296875,157050.78125,174529.578125,172310.40625,686043.625,130096.1875,0.0361328125,1.005615234375,-0.095703125,-0.9155272841453552,0.0915527269244194,0.0915527269244194,86.66667175292969,116589.0,1.0
18:15:36.808573,133925.578125,143511.703125,159925.3125,157060.796875,174524.125,172305.765625,686057.5625,130108.2578125,0.035888671875,1.007568359375,-0.098876953125,-0.8544921278953552,0.03051757626235485,0.1220703050494194,86.66667175292969,116590.0,1.0
18:15:36.808586,133938.640625,143535.125,159929.25,157060.265625,174525.203125,172308.625,686108.0,130107.1875,0.035400390625,1.00830078125,-0.09912109375,-0.8544921278953552,0.0,0.0915527269244194,86.66667175292969,116591.0,1.0
18:15:36.808589,133946.953125,143549.96875,159935.40625,157057.40625,174535.296875,172319.984375,686197.6875,130100.390625,0.034912109375,1.0078125,-0.09912109375,-0.8850097060203552,0.0,0.03051757626235485,86.66667175292969,116592.0,1.0
18:15:36.811062,133944.359375,143541.390625,159945.15625,157066.703125,174549.34375,172332.21875,686055.375,130110.9375,0.032958984375,1.005859375,-0.0966796875,-0.8239745497703552,0.0,-0.0915527269244194,86.66667175292969,116593.0,1.0
18:15:36.814173,133922.890625,143509.921875,159924.765625,157057.3125,174523.140625,172302.546875,686051.9375,130103.1640625,0.032470703125,1.007568359375,-0.1005859375,-0.8239745497703552,-0.0610351525247097,-0.0610351525247097,86.66667175292969,116594.0,1.0
18:15:36.814194,133936.3125,143532.71875,159929.875,157058.296875,174526.09375,172307.28125,686052.125,130101.2890625,0.0322265625,1.0068359375,-0.0986328125,-0.7934569716453552,-0.0915527269244194,-0.1220703050494194,86.66667175292969,116595.0,1.0
18:15:36.821082,133953.921875,143553.734375,159940.859375,157063.390625,174537.71875,172318.90625,686200.625,130104.234375,0.032958984375,1.0068359375,-0.099365234375,-0.7629393935203552,-0.1525878757238388,0.0915527269244194,86.66667175292969,116596.0,1.0
18:15:36.823519,133957.140625,143552.75,159957.578125,157075.1875,174561.140625,172338.578125,686065.4375,130118.71875,0.033203125,1.00732421875,-0.098876953125,-0.7324218153953552,-0.1220703050494194,-0.03051757626235485,86.66667175292969,116597.0,1.0
18:15:36.826068,133934.609375,143516.71875,159938.546875,157070.1875,174537.53125,172308.71875,686046.9375,130118.8125,0.032470703125,1.006591796875,-0.099853515625,-0.6713866591453552,-0.1525878757238388,0.0,86.66667175292969,116598.0,1.0
18:15:36.828560,133934.078125,143519.75,159930.3125,157064.640625,174526.71875,172297.359375,686072.4375,130116.84375,0.033203125,1.006591796875,-0.1015625,-0.7019042372703552,-0.2136230319738388,0.1220703050494194,86.66667175292969,116599.0,1.0
18:15:36.831185,133955.265625,143550.0625,159942.75,157070.640625,174538.171875,172311.65625,686198.6875,130118.984375,0.03271484375,1.0068359375,-0.10009765625,-0.6408690810203552,-0.2746581733226776,0.1831054538488388,86.66667175292969,116600.0,1.0
18:15:36.836131,133954.546875,143548.8125,159953.375,157068.84375,174556.3125,172330.703125,686088.0,130119.078125,0.031494140625,1.006103515625,-0.101806640625,-0.5187987685203552,-0.3356933295726776,0.3662109076976776,86.66667175292969,116601.0,1.0
18:15:36.863673,133926.109375,143508.3125,159931.125,157060.4375,174531.28125,172303.265625,686042.6875,130114.515625,0.032470703125,1.0068359375,-0.10009765625,-0.5187987685203552,-0.2746581733226776,0.2746581733226776,86.66667175292969,116602.0,1.0
18:15:36.872942,133925.3125,143512.6875,159925.3125,157054.09375,174522.78125,172296.828125,686055.0625,130104.1484375,0.031005859375,1.00830078125,-0.099609375,-0.5187987685203552,-0.3051757514476776,0.2746581733226776,86.66667175292969,116603.0,1.0
18:15:36.872990,133950.96875,143547.828125,159939.796875,157062.3125,174534.234375,172313.0,686194.625,130105.6640625,0.03076171875,1.009765625,-0.1005859375,-0.4577636420726776,-0.3051757514476776,0.4577636420726776,86.66667175292969,116604.0,1.0
18:15:36.877895,133949.453125,143546.03125,159946.046875,157059.28125,174546.296875,172325.78125,686132.6875,130103.0703125,0.03466796875,1.008544921875,-0.099609375,-0.4882812201976776,-0.2746581733226776,0.6103515028953552,86.66667175292969,116605.0,1.0
18:15:36.877928,133927.1875,143513.40625,159931.125,157055.703125,174530.390625,172307.015625,686046.875,130103.1640625,0.033935546875,1.008056640625,-0.10009765625,-0.5493163466453552,-0.3356933295726776,0.7324218153953552,86.66667175292969,116606.0,1.0
18:15:36.879912,133922.8125,143510.8125,159923.078125,157053.90625,174519.484375,172296.375,686040.1875,130100.390625,0.03515625,1.009033203125,-0.100830078125,-0.5493163466453552,-0.3051757514476776,0.7019042372703552,86.66667175292969,116607.0,1.0
18:15:36.882458,133932.734375,143531.28125,159920.84375,157044.890625,174514.109375,172296.28125,686147.6875,130087.4296875,0.03515625,1.0087890625,-0.1015625,-0.5798339247703552,-0.3051757514476776,0.7629393935203552,86.66667175292969,116608.0,1.0
18:15:36.884878,133942.65625,143545.234375,159936.03125,157046.40625,174534.59375,172319.34375,686161.6875,130091.453125,0.03369140625,1.0078125,-0.10107421875,-0.4882812201976776,-0.3967284858226776,0.7324218153953552,86.66667175292969,116609.0,1.0
18:15:36.887491,133927.90625,143517.96875,159931.296875,157053.640625,174530.65625,172310.765625,686034.6875,130102.359375,0.03515625,1.006591796875,-0.103759765625,-0.5187987685203552,-0.2746581733226776,0.6713866591453552,86.66667175292969,116610.0,1.0
18:15:36.890223,133929.15625,143515.015625,159929.25,157058.734375,174524.484375,172304.234375,686016.625,130110.2265625,0.03515625,1.00830078125,-0.10107421875,-0.5187987685203552,-0.2746581733226776,0.7934569716453552,86.66667175292969,116611.0,1.0
18:15:36.892618,133940.0625,143538.625,159929.0625,157057.671875,174521.265625,172307.1875,686103.4375,130102.4453125,0.03515625,1.008544921875,-0.10009765625,-0.4882812201976776,-0.3051757514476776,0.8239745497703552,86.66667175292969,116612.0,1.0
18:15:36.895026,133943.453125,143543.0,159931.125,157051.328125,174527.609375,172314.25,686166.0625,130097.796875,0.036865234375,1.0078125,-0.09912109375,-0.4272460639476776,-0.2746581733226776,0.8544921278953552,86.66667175292969,116613.0,1.0
18:15:36.902351,133926.5625,143518.40625,159927.984375,157052.9375,174527.53125,172310.765625,686031.1875,130108.8828125,0.038818359375,1.0068359375,-0.102783203125,-0.3967284858226776,-0.2441406100988388,0.7629393935203552,86.66667175292969,116614.0,1.0
18:15:36.904795,133919.234375,143505.8125,159921.28125,157054.0,174516.53125,172297.71875,686055.375,130110.046875,0.037353515625,1.007080078125,-0.103759765625,-0.5187987685203552,-0.3051757514476776,0.7629393935203552,86.66667175292969,116615.0,1.0
18:15:36.907295,133935.5,143531.203125,159927.09375,157054.625,174519.390625,172302.71875,686088.5,130101.109375,0.037841796875,1.0068359375,-0.1064453125,-0.4577636420726776,-0.2136230319738388,0.8850097060203552,86.66667175292969,116616.0,1.0
18:15:36.910367,133950.53125,143550.15625,159940.421875,157062.046875,174535.65625,172317.296875,686186.875,130106.3828125,0.03955078125,1.008544921875,-0.105712890625,-0.4272460639476776,-0.1525878757238388,0.8850097060203552,86.66667175292969,116617.0,1.0
18:15:36.910391,133948.921875,143543.71875,159952.75,157073.9375,174552.921875,172329.8125,686044.0,130123.28125,0.039794921875,1.009033203125,-0.10498046875,-0.4882812201976776,-0.1525878757238388,0.8239745497703552,86.66667175292969,116618.0,1.0
18:15:36.912338,133925.21875,143512.875,159928.796875,157062.140625,174524.75,172302.28125,686041.125,130113.53125,0.04052734375,1.008056640625,-0.10595703125,-0.3967284858226776,-0.0610351525247097,0.7324218153953552,86.66667175292969,116619.0,1.0
18:15:36.914834,133941.3125,143537.359375,159935.328125,157065.265625,174528.78125,172309.34375,686072.875,130112.1953125,0.03955078125,1.0078125,-0.10595703125,-0.4577636420726776,0.0610351525247097,0.7934569716453552,86.66667175292969,116620.0,1.0
18:15:36.920515,133971.984375,143569.734375,159960.53125,157088.78125,174554.96875,172333.203125,686212.25,130134.8984375,0.0390625,1.007080078125,-0.104736328125,-0.5187987685203552,0.2136230319738388,0.7629393935203552,86.66667175292969,116621.0,1.0
18:15:36.920533,133957.234375,143554.4375,159959.109375,157077.78125,174561.671875,172339.5625,686060.125,130129.09375,0.038818359375,1.006591796875,-0.103759765625,-0.5187987685203552,0.1831054538488388,0.7934569716453552,86.66667175292969,116622.0,1.0
18:15:36.922326,133928.0,143514.125,159935.6875,157067.140625,174535.75,172306.75,686047.75,130122.203125,0.035888671875,1.008544921875,-0.1025390625,-0.4577636420726776,0.1220703050494194,0.6713866591453552,86.66667175292969,116623.0,1.0
18:15:36.924846,133927.546875,143523.328125,159930.140625,157057.125,174527.96875,172301.921875,686072.4375,130110.671875,0.0380859375,1.011474609375,-0.10302734375,-0.4577636420726776,0.2136230319738388,0.5493163466453552,86.66667175292969,116624.0,1.0
18:15:36.927956,133944.71875,143546.84375,159934.078125,157057.84375,174528.6875,172307.90625,686194.125,130105.6640625,0.038818359375,1.01025390625,-0.10205078125,-0.5493163466453552,0.2136230319738388,0.4577636420726776,86.66667175292969,116625.0,1.0
18:15:36.927975,133949.359375,143549.4375,159947.21875,157062.234375,174547.375,172328.375,686093.0,130113.3515625,0.036865234375,1.010009765625,-0.104736328125,-0.6103515028953552,0.2746581733226776,0.5493163466453552,86.66667175292969,116626.0,1.0
18:15:36.929838,133927.015625,143515.734375,159931.921875,157056.6875,174529.3125,172307.015625,686043.5625,130108.703125,0.03662109375,1.010986328125,-0.10400390625,-0.7324218153953552,0.3051757514476776,0.4272460639476776,86.66667175292969,116627.0,1.0
18:15:36.933596,133932.28125,143528.421875,159932.640625,157057.125,174526.359375,172309.0625,686056.6875,130107.1875,0.0361328125,1.009033203125,-0.1064453125,-0.6713866591453552,0.3051757514476776,0.4577636420726776,86.66667175292969,116628.0,1.0
18:15:36.944193,133955.078125,143557.296875,159941.578125,157068.390625,174533.0625,172317.5625,686189.8125,130115.234375,0.03466796875,1.009521484375,-0.105712890625,-0.7324218153953552,0.3051757514476776,0.4272460639476776,86.66667175292969,116629.0,1.0
18:15:36.944219,133958.390625,143561.5,159951.953125,157068.125,174550.328125,172334.90625,686128.875,130113.8046875,0.03466796875,1.00830078125,-0.1064453125,-0.7019042372703552,0.3662109076976776,0.3051757514476776,86.66667175292969,116630.0,1.0
18:15:36.949107,133938.1875,143530.578125,159942.109375,157069.65625,174540.125,172320.15625,686054.9375,130116.9296875,0.034423828125,1.008056640625,-0.10498046875,-0.6408690810203552,0.3051757514476776,0.2136230319738388,86.66667175292969,116631.0,1.0
18:15:36.949128,133912.34375,143506.796875,159913.234375,157045.234375,174509.640625,172290.921875,686037.5,130095.5625,0.034423828125,1.008056640625,-0.107177734375,-0.7019042372703552,0.3051757514476776,0.2746581733226776,86.66667175292969,116632.0,1.0
18:15:36.951035,133932.015625,143535.125,159921.015625,157049.890625,174514.828125,172298.515625,686144.75,130097.171875,0.03369140625,1.010498046875,-0.10205078125,-0.8544921278953552,0.2746581733226776,0.3967284858226776,86.66667175292969,116633.0,1.0
18:15:36.962440,133936.484375,143536.921875,159927.71875,157051.328125,174526.71875,172306.03125,686163.875,130097.265625,0.033935546875,1.0107421875,-0.104248046875,-0.8544921278953552,0.3356933295726776,0.3967284858226776,86.66667175292969,116634.0,1.0
18:15:36.966640,133914.40625,143503.921875,159917.890625,157047.203125,174518.234375,172291.09375,686041.75,130100.3046875,0.033447265625,1.009521484375,-0.10693359375,-0.9155272841453552,0.3356933295726776,0.3356933295726776,86.66667175292969,116635.0,1.0
18:15:36.966669,133902.953125,143488.734375,159904.75,157041.21875,174500.796875,172273.3125,686062.25,130099.3203125,0.033447265625,1.008544921875,-0.108642578125,-0.9765624403953552,0.3356933295726776,0.2746581733226776,86.66667175292969,116636.0,1.0
18:15:36.976134,133911.625,143505.71875,159901.171875,157033.171875,174493.015625,172267.9375,686129.5625,130083.2265625,0.033203125,1.0078125,-0.107177734375,-1.0070799589157104,0.2441406100988388,0.2441406100988388,86.66667175292969,116637.0,1.0
18:15:36.985996,133934.609375,143534.328125,159924.328125,157047.203125,174518.5,172296.640625,686176.9375,130095.1171875,0.032470703125,1.008056640625,-0.10693359375,-0.9460448622703552,0.2441406100988388,0.3051757514476776,86.66667175292969,116638.0,1.0
18:15:36.986019,133928.796875,143517.25,159934.25,157059.71875,174533.15625,172301.65625,686028.0625,130114.515625,0.031982421875,1.01025390625,-0.106689453125,-1.0070799589157104,0.0915527269244194,0.3356933295726776,86.66667175292969,116639.0,1.0
18:15:36.986024,133913.59375,143492.84375,159917.890625,157055.34375,174512.328125,172279.125,686046.25,130111.03125,0.032958984375,1.0107421875,-0.105224609375,-1.0375975370407104,0.0,0.3662109076976776,86.66667175292969,116640.0,1.0
18:15:36.988549,133925.484375,143514.65625,159917.890625,157054.625,174508.125,172281.625,686089.875,130101.2890625,0.032470703125,1.0126953125,-0.10498046875,-1.1291502714157104,-0.0915527269244194,0.3662109076976776,86.66667175292969,116641.0,1.0
18:15:36.991060,133952.140625,143548.8125,159939.703125,157065.171875,174532.796875,172311.21875,686186.8125,130110.046875,0.0341796875,1.01220703125,-0.104736328125,-1.0986326932907104,-0.03051757626235485,0.3662109076976776,86.66667175292969,116642.0,1.0
18:15:36.993606,133951.953125,143544.15625,159953.296875,157075.90625,174552.375,172327.84375,686043.3125,130124.9765625,0.033447265625,1.009521484375,-0.107421875,-1.0681151151657104,-0.1525878757238388,0.4577636420726776,86.66667175292969,116643.0,1.0
18:15:36.996016,133925.046875,143505.625,159928.4375,157063.84375,174523.765625,172294.40625,686045.5,130120.1484375,0.033203125,1.009033203125,-0.105712890625,-1.0681151151657104,-0.1525878757238388,0.6103515028953552,86.66667175292969,116644.0,1.0
18:15:37.007437,133942.75,143532.984375,159936.75,157068.046875,174528.515625,172304.6875,686099.0625,130120.1484375,0.033203125,1.008056640625,-0.107666015625,-1.0986326932907104,-0.1220703050494194,0.5493163466453552,86.66667175292969,116645.0,1.0
18:15:37.010939,133965.015625,143562.9375,159951.234375,157079.9375,174541.921875,172322.390625,686216.8125,130121.8515625,0.031982421875,1.006103515625,-0.1083984375,-1.0681151151657104,-0.1831054538488388,0.6713866591453552,86.66667175292969,116646.0,1.0
18:15:37.010956,133956.328125,143549.078125,159954.984375,157078.859375,174551.578125,172329.28125,686064.5625,130121.9375,0.033203125,1.00390625,-0.10302734375,-1.1291502714157104,-0.1831054538488388,0.7934569716453552,86.66667175292969,116647.0,1.0
18:15:37.016819,133934.4375,143514.65625,159936.84375,157073.3125,174530.203125,172302.984375,686052.75,130119.6171875,0.031005859375,1.001220703125,-0.10302734375,-1.0375975370407104,-0.3967284858226776,0.7324218153953552,86.66667175292969,116648.0,1.0
18:15:37.016894,133935.5,143524.484375,159931.296875,157066.15625,174522.421875,172296.90625,686058.125,130110.3125,0.029541015625,1.000732421875,-0.10546875,-1.0681151151657104,-0.3662109076976776,0.5798339247703552,86.66667175292969,116649.0,1.0
18:15:37.018607,133955.890625,143552.65625,159940.234375,157067.59375,174527.890625,172307.546875,686193.5625,130108.2578125,0.03173828125,1.003173828125,-0.10693359375,-1.0070799589157104,-0.4577636420726776,0.5798339247703552,86.66667175292969,116650.0,1.0
18:15:37.031267,133953.390625,143550.859375,159948.015625,157068.046875,174542.640625,172322.65625,686084.75,130113.53125,0.03125,1.005126953125,-0.10595703125,-0.9155272841453552,-0.5798339247703552,0.5798339247703552,86.66667175292969,116651.0,1.0
18:15:37.036748,133933.265625,143519.65625,159935.328125,157069.46875,174527.796875,172302.28125,686038.8125,130120.6875,0.030517578125,1.00537109375,-0.10498046875,-1.0070799589157104,-0.5187987685203552,0.5187987685203552,86.66667175292969,116652.0,1.0
18:15:37.036787,133923.703125,143514.296875,159921.46875,157056.234375,174511.703125,172287.078125,686082.8125,130106.203125,0.031494140625,1.004150390625,-0.107421875,-1.0681151151657104,-0.6103515028953552,0.5187987685203552,86.66667175292969,116653.0,1.0
18:15:37.038545,133942.125,143542.546875,159928.34375,157055.796875,174516.34375,172296.109375,686185.5625,130099.40625,0.032958984375,1.00439453125,-0.111083984375,-1.0681151151657104,-0.7019042372703552,0.4577636420726776,86.66667175292969,116654.0,1.0
18:15:37.041110,133946.140625,143547.828125,159941.40625,157058.828125,174536.375,172314.078125,686131.8125,130105.6640625,0.034912109375,1.002685546875,-0.10888671875,-0.8850097060203552,-0.6408690810203552,0.3662109076976776,86.66667175292969,116655.0,1.0
18:15:37.052947,133923.703125,143514.921875,159930.765625,157056.421875,174527.078125,172298.96875,686034.25,130110.765625,0.04052734375,1.00439453125,-0.109619140625,-0.8850097060203552,-0.5187987685203552,0.3967284858226776,86.66667175292969,116656.0,1.0
18:15:37.052966,133913.59375,143503.84375,159915.828125,157052.21875,174510.09375,172282.421875,686045.375,130106.0234375,0.043212890625,1.0068359375,-0.109130859375,-0.9155272841453552,-0.4882812201976776,0.4577636420726776,86.66667175292969,116657.0,1.0
18:15:37.058031,133929.6875,143527.796875,159917.890625,157050.703125,174508.21875,172283.859375,686140.3125,130099.140625,0.046630859375,1.0068359375,-0.11181640625,-0.8850097060203552,-0.3967284858226776,0.6103515028953552,86.66667175292969,116658.0,1.0
18:15:37.058060,133943.453125,143541.296875,159935.046875,157057.578125,174528.78125,172305.140625,686148.4375,130106.7421875,0.045654296875,1.007080078125,-0.11181640625,-0.7019042372703552,-0.2746581733226776,0.7934569716453552,86.66667175292969,116659.0,1.0
18:15:37.059888,133931.484375,143521.359375,159935.40625,157062.765625,174531.1875,172305.9375,686022.625,130117.203125,0.044677734375,1.009033203125,-0.111328125,-0.7629393935203552,-0.03051757626235485,0.8850097060203552,86.66667175292969,116660.0,1.0
18:15:37.068758,133921.28125,143508.3125,159923.078125,157056.421875,174515.8125,172290.296875,686040.8125,130108.078125,0.041015625,1.008056640625,-0.111083984375,-0.7324218153953552,-0.03051757626235485,0.9155272841453552,86.66667175292969,116661.0,1.0
18:15:37.075492,133938.90625,143536.65625,159930.40625,157057.484375,174520.640625,172296.375,686115.0,130106.9140625,0.036865234375,1.008544921875,-0.112060546875,-0.7019042372703552,0.0915527269244194,0.8850097060203552,86.66667175292969,116662.0,1.0
18:15:37.075509,133962.0625,143564.8125,159953.296875,157073.140625,174546.03125,172324.453125,686192.6875,130120.59375,0.03662109375,1.009033203125,-0.1103515625,-0.6408690810203552,0.1831054538488388,0.7629393935203552,86.66667175292969,116663.0,1.0
18:15:37.077928,133951.78125,143547.015625,159956.0625,157074.484375,174551.75,172328.65625,686041.4375,130126.140625,0.036376953125,1.008544921875,-0.10888671875,-0.6103515028953552,0.2136230319738388,0.7019042372703552,86.66667175292969,116664.0,1.0
18:15:37.077940,133930.859375,143518.59375,159934.78125,157064.015625,174526.546875,172303.265625,686054.75,130114.609375,0.034912109375,1.010498046875,-0.1064453125,-0.5493163466453552,0.1831054538488388,0.5798339247703552,86.66667175292969,116665.0,1.0
18:15:37.086134,133947.21875,143542.546875,159941.046875,157066.96875,174529.40625,172308.4375,686096.375,130111.390625,0.0322265625,1.01416015625,-0.104736328125,-0.7629393935203552,0.2136230319738388,0.4577636420726776,86.66667175292969,116666.0,1.0
18:15:37.089843,133957.9375,143559.09375,159947.390625,157065.265625,174536.734375,172318.8125,686207.375,130107.2734375,0.033447265625,1.015625,-0.10498046875,-0.8239745497703552,0.1831054538488388,0.2441406100988388,86.66667175292969,116667.0,1.0
18:15:37.101750,133943.453125,143536.734375,159947.578125,157063.390625,174543.265625,172318.28125,686048.3125,130110.9375,0.033447265625,1.014892578125,-0.10693359375,-0.9460448622703552,0.1831054538488388,0.1220703050494194,86.66667175292969,116668.0,1.0
18:15:37.101783,133921.203125,143504.546875,159928.078125,157059.375,174520.28125,172290.46875,686042.8125,130109.6875,0.033447265625,1.0146484375,-0.104736328125,-1.1291502714157104,0.0610351525247097,0.0,86.66667175292969,116669.0,1.0
18:15:37.104195,133935.234375,143528.96875,159935.046875,157066.078125,174523.6875,172297.453125,686070.125,130114.9609375,0.035400390625,1.0166015625,-0.1044921875,-1.3122557401657104,0.0610351525247097,-0.0610351525247097,86.66667175292969,116670.0,1.0
18:15:37.104215,133953.46875,143555.34375,159944.625,157064.46875,174531.734375,172310.40625,686200.3125,130108.5234375,0.034423828125,1.015380859375,-0.1044921875,-1.3732908964157104,0.03051757626235485,-0.3051757514476776,86.66667175292969,116671.0,1.0
18:15:37.109865,133947.84375,143547.640625,159950.515625,157064.828125,174544.6875,172321.59375,686057.75,130109.15625,0.03662109375,1.015380859375,-0.106689453125,-1.4648436307907104,0.0915527269244194,-0.2136230319738388,86.66667175292969,116672.0,1.0
18:15:37.160459,133921.28125,143508.84375,159926.65625,157054.265625,174516.890625,172291.546875,686028.5625,130101.375,0.038330078125,1.01416015625,-0.1025390625,-1.6479490995407104,0.1220703050494194,-0.1220703050494194,86.66667175292969,116673.0,1.0
18:15:37.160486,133922.546875,143517.25,159920.484375,157047.921875,174507.859375,172286.265625,686050.4375,130094.046875,0.040283203125,1.01416015625,-0.1044921875,-1.7700194120407104,0.1525878757238388,-0.03051757626235485,86.66667175292969,116674.0,1.0
18:15:37.164697,133935.953125,143538.703125,159923.78125,157049.265625,174509.734375,172289.765625,686186.625,130096.6328125,0.042236328125,1.01416015625,-0.10595703125,-1.9226073026657104,0.2441406100988388,0.03051757626235485,86.66667175292969,116675.0,1.0
18:15:37.164716,133931.75,143535.578125,159928.796875,157046.140625,174522.25,172304.515625,686089.625,130098.15625,0.0380859375,1.0146484375,-0.106201171875,-1.9531248807907104,0.3051757514476776,0.0915527269244194,86.66667175292969,116676.0,1.0
18:15:37.164722,133902.6875,143494.453125,159907.421875,157035.578125,174499.1875,172277.328125,686036.9375,130089.21875,0.035888671875,1.01416015625,-0.10205078125,-2.105712652206421,0.3967284858226776,0.1831054538488388,86.66667175292969,116677.0,1.0
18:15:37.170079,133890.359375,143486.21875,159892.578125,157023.0625,174482.90625,172260.34375,686078.0,130075.625,0.032470703125,1.01318359375,-0.099609375,-2.166747808456421,0.3051757514476776,0.3967284858226776,86.66667175292969,116678.0,1.0
18:15:37.170103,133906.359375,143510.90625,159896.4375,157021.546875,174484.96875,172265.265625,686172.125,130068.1171875,0.0302734375,1.01220703125,-0.101318359375,-2.319335699081421,0.3356933295726776,0.3356933295726776,86.66667175292969,116679.0,1.0
18:15:37.170109,133926.734375,143531.109375,159923.15625,157039.875,174516.796875,172297.453125,686134.1875,130085.8203125,0.029296875,1.01123046875,-0.09912109375,-2.380370855331421,0.3051757514476776,0.3051757514476776,86.66667175292969,116680.0,1.0
18:15:37.170115,133916.1875,143508.484375,159922.71875,157049.359375,174514.5625,172290.734375,686034.375,130096.3671875,0.0283203125,1.007568359375,-0.1025390625,-2.502441167831421,0.3051757514476776,0.2746581733226776,86.66667175292969,116681.0,1.0
18:15:37.172874,133906.0,143497.9375,159908.953125,157039.703125,174497.3125,172275.0,686048.3125,130086.9765625,0.030029296875,1.006591796875,-0.10107421875,-2.563476324081421,0.1525878757238388,0.3967284858226776,86.66667175292969,116682.0,1.0
18:15:37.172891,133922.0,143524.578125,159912.96875,157038.53125,174499.09375,172280.546875,686146.8125,130081.703125,0.0283203125,1.00732421875,-0.100830078125,-2.624511480331421,0.1220703050494194,0.4272460639476776,86.66667175292969,116683.0,1.0
18:15:37.180582,133937.375,143541.84375,159930.3125,157047.65625,174518.9375,172303.171875,686180.5,130090.734375,0.02685546875,1.00634765625,-0.100341796875,-2.746581792831421,0.03051757626235485,0.3356933295726776,86.66667175292969,116684.0,1.0
18:15:37.180614,133936.046875,143528.0625,159940.234375,157062.3125,174530.125,172308.984375,686049.1875,130107.9921875,0.028076171875,1.0068359375,-0.1005859375,-2.777099370956421,-0.1220703050494194,0.2136230319738388,86.66667175292969,116685.0,1.0
18:15:37.182405,133913.328125,143501.875,159917.0,157049.4375,174505.4375,172281.890625,686040.25,130097.265625,0.025634765625,1.00390625,-0.09912109375,-2.838134527206421,-0.2136230319738388,0.1831054538488388,86.66667175292969,116686.0,1.0
18:15:37.189834,133931.5625,143529.5,159924.953125,157056.234375,174511.609375,172288.953125,686116.0625,130099.6796875,0.026611328125,1.003662109375,-0.101318359375,-2.777099370956421,-0.1831054538488388,0.3051757514476776,86.66667175292969,116687.0,1.0
18:15:37.192413,133938.546875,143541.390625,159929.59375,157050.34375,174517.78125,172300.046875,686189.3125,130094.21875,0.02880859375,1.002197265625,-0.10205078125,-2.655029058456421,-0.2746581733226776,0.2136230319738388,86.66667175292969,116688.0,1.0
18:15:37.194880,133927.1875,143522.25,159931.5625,157057.046875,174522.96875,172300.84375,686032.375,130106.828125,0.030029296875,1.00439453125,-0.100830078125,-2.746581792831421,-0.3967284858226776,0.3051757514476776,86.66667175292969,116689.0,1.0
18:15:37.199828,133908.59375,143496.953125,159914.046875,157050.34375,174501.859375,172275.71875,686043.75,130106.9140625,0.02880859375,1.00341796875,-0.0986328125,-2.593993902206421,-0.4272460639476776,0.2746581733226776,86.66667175292969,116690.0,1.0
18:15:37.202423,133915.390625,143515.734375,159913.15625,157041.578125,174498.5625,172277.328125,686067.4375,130088.5,0.028564453125,1.00341796875,-0.100830078125,-2.624511480331421,-0.3967284858226776,0.2746581733226776,86.66667175292969,116691.0,1.0
18:15:37.204855,133924.59375,143529.40625,159917.890625,157038.171875,174503.828125,172282.0625,686193.125,130078.7578125,0.031494140625,1.00439453125,-0.101318359375,-2.563476324081421,-0.5187987685203552,0.3356933295726776,86.66667175292969,116692.0,1.0
18:15:37.207597,133916.109375,143515.8125,159920.65625,157036.5625,174511.96875,172290.65625,686044.0,130081.2578125,0.03125,1.00439453125,-0.09912109375,-2.502441167831421,-0.4882812201976776,0.2746581733226776,86.66667175292969,116693.0,1.0
18:15:37.212941,133888.203125,143479.078125,159894.375,157024.671875,174482.015625,172261.140625,686045.5,130072.5,0.033447265625,1.002197265625,-0.100830078125,-2.532958745956421,-0.4882812201976776,0.3967284858226776,86.66667175292969,116694.0,1.0
18:15:37.212966,133894.90625,143495.4375,159894.640625,157021.546875,174480.59375,172261.421875,686063.75,130065.7890625,0.0322265625,1.001220703125,-0.099853515625,-2.471923589706421,-0.6103515028953552,0.5187987685203552,86.66667175292969,116695.0,1.0
18:15:37.214950,133915.390625,143523.0625,159905.640625,157027.890625,174491.40625,172275.546875,686201.625,130068.203125,0.0322265625,1.001220703125,-0.100341796875,-2.349853277206421,-0.5493163466453552,0.4882812201976776,86.66667175292969,116696.0,1.0
18:15:37.217500,133911.359375,143519.03125,159912.703125,157026.5625,174504.90625,172292.4375,686071.75,130070.0859375,0.033203125,1.001220703125,-0.09912109375,-2.166747808456421,-0.4882812201976776,0.5187987685203552,86.66667175292969,116697.0,1.0
18:15:37.222504,133896.4375,143491.140625,159901.34375,157033.265625,174490.328125,172274.203125,686047.875,130080.5390625,0.03466796875,0.99951171875,-0.102294921875,-1.9836424589157104,-0.5187987685203552,0.5798339247703552,86.66667175292969,116698.0,1.0
18:15:37.225541,133897.78125,143498.390625,159896.25,157030.671875,174482.734375,172268.921875,686086.0,130075.8046875,0.033935546875,0.999267578125,-0.1025390625,-1.8310545682907104,-0.4882812201976776,0.7019042372703552,86.66667175292969,116699.0,1.0
18:15:37.225559,133906.984375,143514.65625,159895.359375,157025.03125,174480.140625,172267.765625,686199.3125,130065.703125,0.037841796875,0.999267578125,-0.1025390625,-1.6784666776657104,-0.3967284858226776,0.8239745497703552,86.66667175292969,116700.0,1.0
18:15:37.227292,133912.078125,143519.03125,159910.734375,157029.140625,174502.21875,172288.5,686099.6875,130076.0703125,0.03662109375,1.001220703125,-0.103271484375,-1.4953612089157104,-0.3051757514476776,0.9460448622703552,86.66667175292969,116701.0,1.0
18:15:37.229974,133892.59375,143488.734375,159899.375,157031.65625,174488.453125,172271.875,686035.0625,130082.953125,0.03515625,1.003173828125,-0.10546875,-1.4343260526657104,-0.2746581733226776,0.9765624403953552,86.66667175292969,116702.0,1.0
18:15:37.239164,133892.59375,143488.90625,159895.359375,157027.1875,174480.765625,172262.3125,686035.5,130076.25,0.03662109375,1.003662109375,-0.1064453125,-1.2512205839157104,-0.3662109076976776,0.9765624403953552,86.66667175292969,116703.0,1.0
18:15:37.239179,133913.59375,143518.765625,159904.03125,157031.65625,174488.09375,172270.171875,686163.625,130081.5234375,0.0380859375,1.00439453125,-0.105224609375,-1.0681151151657104,-0.2136230319738388,1.0070799589157104,86.66667175292969,116704.0,1.0
18:15:37.242923,133928.625,143535.125,159922.53125,157042.296875,174511.34375,172296.375,686147.625,130088.3203125,0.037109375,1.003662109375,-0.10107421875,-0.9460448622703552,-0.1220703050494194,1.0681151151657104,86.66667175292969,116705.0,1.0
18:15:37.242937,133915.65625,143511.53125,159919.046875,157045.234375,174507.140625,172287.96875,686055.0,130092.609375,0.036376953125,1.003173828125,-0.104736328125,-0.7934569716453552,-0.03051757626235485,0.9765624403953552,86.66667175292969,116706.0,1.0
18:15:37.249798,133907.875,143502.9375,159910.46875,157043.1875,174496.328125,172274.828125,686038.9375,130090.5546875,0.03515625,1.003173828125,-0.107177734375,-0.7324218153953552,0.1220703050494194,0.9765624403953552,86.66667175292969,116707.0,1.0
18:15:37.256742,133932.203125,143537.8125,159925.671875,157054.8125,174509.90625,172290.296875,686122.4375,130098.6015625,0.03759765625,1.00390625,-0.1044921875,-0.5798339247703552,0.0915527269244194,0.8850097060203552,86.66667175292969,116708.0,1.0
18:15:37.256768,133949.984375,143556.40625,159945.6875,157063.84375,174535.65625,172315.0625,686179.625,130107.8125,0.037841796875,1.00537109375,-0.104248046875,-0.3967284858226776,0.2136230319738388,0.9155272841453552,86.66667175292969,116709.0,1.0
18:15:37.263581,133936.671875,143536.5625,159943.640625,157060.625,174536.828125,172315.5,686043.4375,130106.2890625,0.037353515625,1.00634765625,-0.107177734375,-0.3662109076976776,0.2136230319738388,0.8850097060203552,86.66667175292969,116710.0,1.0
18:15:37.271708,133924.421875,143521.90625,159929.328125,157054.09375,174518.5,172298.25,686037.3125,130101.5546875,0.0361328125,1.0087890625,-0.1044921875,-0.2136230319738388,0.1525878757238388,0.8239745497703552,86.66667175292969,116711.0,1.0
18:15:37.271737,133947.84375,143553.546875,159942.109375,157067.953125,174528.859375,172307.734375,686109.375,130110.2265625,0.037109375,1.008544921875,-0.104736328125,-0.2746581733226776,0.3051757514476776,0.7629393935203552,86.66667175292969,116712.0,1.0
18:15:37.286615,133951.6875,143559.09375,159944.890625,157063.5625,174533.6875,172310.5,686194.0,130104.5,0.035400390625,1.0078125,-0.100341796875,-0.3051757514476776,0.3356933295726776,0.8544921278953552,86.66667175292969,116713.0,1.0
18:15:37.286642,133933.09375,143535.21875,159938.1875,157056.421875,174529.84375,172307.734375,686038.75,130099.5,0.035400390625,1.008544921875,-0.100830078125,-0.2136230319738388,0.4272460639476776,0.7934569716453552,86.66667175292969,116714.0,1.0
18:15:37.288524,133909.390625,143505.0,159914.671875,157042.828125,174501.59375,172280.015625,686034.0,130086.53125,0.036376953125,1.01025390625,-0.10009765625,-0.3051757514476776,0.5187987685203552,0.7324218153953552,86.66667175292969,116715.0,1.0
18:15:37.291642,133925.046875,143531.109375,159919.859375,157043.984375,174503.65625,172286.546875,686069.1875,130081.8828125,0.037841796875,1.00927734375,-0.103271484375,-0.3662109076976776,0.5493163466453552,0.6713866591453552,86.66667175292969,116716.0,1.0
18:15:37.291661,133939.609375,143550.859375,159928.609375,157044.171875,174513.40625,172298.25,686206.4375,130080.3671875,0.038330078125,1.009521484375,-0.10595703125,-0.4577636420726776,0.5493163466453552,0.6408690810203552,86.66667175292969,116717.0,1.0
18:15:37.296065,133933.0,143540.765625,159935.59375,157045.953125,174526.359375,172310.40625,686067.0625,130087.0703125,0.036376953125,1.007568359375,-0.10400390625,-0.5493163466453552,0.6103515028953552,0.7019042372703552,86.66667175292969,116718.0,1.0
18:15:37.298547,133906.53125,143505.53125,159913.78125,157038.984375,174501.0625,172282.25,686038.8125,130088.5859375,0.0380859375,1.005859375,-0.1044921875,-0.5493163466453552,0.7019042372703552,0.6103515028953552,86.66667175292969,116719.0,1.0
18:15:37.302372,133919.5,143525.296875,159919.671875,157048.109375,174505.53125,172286.890625,686053.1875,130091.2734375,0.038330078125,1.00634765625,-0.109619140625,-0.5493163466453552,0.7019042372703552,0.7324218153953552,86.66667175292969,116720.0,1.0
18:15:37.309265,133942.125,143555.6875,159931.484375,157052.390625,174515.90625,172302.28125,686203.6875,130087.515625,0.040771484375,1.0087890625,-0.1083984375,-0.6103515028953552,0.7324218153953552,0.8239745497703552,86.66667175292969,116721.0,1.0
18:15:37.309318,133938.546875,143549.25,159939.875,157052.75,174529.84375,172315.0625,686083.625,130089.75,0.04052734375,1.007568359375,-0.10986328125,-0.6103515028953552,0.8239745497703552,0.9765624403953552,86.66667175292969,116722.0,1.0
18:15:37.322032,133917.890625,143515.546875,159925.046875,157053.28125,174512.328125,172292.53125,686044.25,130095.203125,0.038330078125,1.006591796875,-0.109375,-0.7019042372703552,1.0070799589157104,0.8850097060203552,86.66667175292969,116723.0,1.0
18:15:37.322087,133913.59375,143515.46875,159914.578125,157043.984375,174499.453125,172280.1875,686038.25,130086.890625,0.034423828125,1.007080078125,-0.10693359375,-0.7019042372703552,1.0681151151657104,0.9155272841453552,86.66667175292969,116724.0,1.0
18:15:37.324080,133937.828125,143546.390625,159927.1875,157054.0,174508.03125,172291.640625,686185.6875,130093.8671875,0.031005859375,1.004638671875,-0.107421875,-0.7324218153953552,1.0986326932907104,0.9460448622703552,86.66667175292969,116725.0,1.0
18:15:37.324094,133951.59375,143557.390625,159947.921875,157068.046875,174533.96875,172317.75,686128.0625,130109.8671875,0.03076171875,1.004150390625,-0.10791015625,-0.8239745497703552,1.0070799589157104,0.9155272841453552,86.66667175292969,116726.0,1.0
18:15:37.326063,133939.34375,143535.125,159943.1875,157070.984375,174527.890625,172308.53125,686046.25,130117.203125,0.03125,1.00732421875,-0.107177734375,-0.7934569716453552,1.0070799589157104,0.7629393935203552,86.66667175292969,116727.0,1.0
18:15:37.334864,133934.515625,143531.46875,159936.03125,157066.515625,174518.671875,172296.734375,686020.6875,130109.15625,0.030517578125,1.0087890625,-0.1083984375,-0.7934569716453552,0.9460448622703552,0.6713866591453552,86.66667175292969,116728.0,1.0
18:15:37.345453,133958.84375,143563.5625,159948.46875,157077.609375,174528.515625,172307.28125,686151.8125,130115.234375,0.028564453125,1.010498046875,-0.107421875,-0.7629393935203552,0.8239745497703552,0.7629393935203552,86.66667175292969,116729.0,1.0
18:15:37.345490,133968.578125,143577.6875,159964.5625,157080.5625,174551.046875,172331.59375,686151.3125,130120.59375,0.029052734375,1.010986328125,-0.10791015625,-0.9155272841453552,0.8239745497703552,0.6713866591453552,86.66667175292969,116730.0,1.0
18:15:37.350424,133950.171875,143551.3125,159956.875,157080.109375,174545.859375,172324.0,686045.625,130125.421875,0.02783203125,1.009521484375,-0.105224609375,-0.9765624403953552,0.7019042372703552,0.6103515028953552,86.66667175292969,116731.0,1.0
18:15:37.350466,133937.375,143533.171875,159940.328125,157072.15625,174525.296875,172301.734375,686013.8125,130118.5390625,0.027099609375,1.008544921875,-0.10498046875,-1.1596678495407104,0.7019042372703552,0.5493163466453552,86.66667175292969,116732.0,1.0
18:15:37.352351,133964.5625,143570.359375,159954.984375,157083.859375,174535.75,172318.09375,686111.5,130125.78125,0.026611328125,1.01025390625,-0.102783203125,-1.1901854276657104,0.5187987685203552,0.5493163466453552,86.66667175292969,116733.0,1.0
18:15:37.356058,133979.765625,143591.28125,159971.984375,157088.15625,174557.203125,172342.234375,686190.4375,130133.5625,0.026611328125,1.010986328125,-0.103759765625,-1.0681151151657104,0.4272460639476776,0.3967284858226776,86.66667175292969,116734.0,1.0
18:15:37.366640,133962.0625,143567.9375,159968.84375,157084.671875,174556.21875,172339.375,686053.1875,130126.40625,0.02880859375,1.00927734375,-0.10400390625,-1.1901854276657104,0.3051757514476776,0.3356933295726776,86.66667175292969,116735.0,1.0
18:15:37.366662,133945.15625,143548.09375,159951.59375,157075.375,174535.921875,172319.265625,686053.5625,130117.9140625,0.030517578125,1.010498046875,-0.10400390625,-1.4038084745407104,0.2746581733226776,0.3662109076976776,86.66667175292969,116736.0,1.0
18:15:37.371038,133959.46875,143569.640625,159953.03125,157077.78125,174533.6875,172319.984375,686126.375,130115.234375,0.0322265625,1.0107421875,-0.10595703125,-1.4953612089157104,0.1220703050494194,0.4577636420726776,86.66667175292969,116737.0,1.0
18:15:37.373608,133962.234375,143573.578125,159950.96875,157071.890625,174533.421875,172321.59375,686210.125,130108.8828125,0.029541015625,1.010009765625,-0.10791015625,-1.5563963651657104,0.0915527269244194,0.5187987685203552,86.66667175292969,116738.0,1.0
18:15:37.377270,133944.71875,143551.3125,159946.3125,157068.046875,174534.859375,172322.65625,686068.0625,130107.6328125,0.03369140625,1.010009765625,-0.10693359375,-1.6174315214157104,0.0610351525247097,0.5798339247703552,86.66667175292969,116739.0,1.0
18:15:37.385397,133925.21875,143523.328125,159927.453125,157062.40625,174512.234375,172299.140625,686070.5625,130104.7734375,0.03173828125,1.009521484375,-0.10791015625,-1.7089842557907104,0.0610351525247097,0.6103515028953552,86.66667175292969,116740.0,1.0
18:15:37.385413,133930.40625,143539.421875,159924.6875,157057.046875,174506.25,172295.84375,686080.75,130096.1015625,0.0302734375,1.0087890625,-0.107666015625,-1.7700194120407104,0.0,0.7019042372703552,86.66667175292969,116741.0,1.0
18:15:37.391655,133943.640625,143559.09375,159932.46875,157059.90625,174513.578125,172305.046875,686210.125,130097.796875,0.030029296875,1.00927734375,-0.107177734375,-1.7089842557907104,-0.0610351525247097,0.8850097060203552,86.66667175292969,116742.0,1.0
