Timestamp,Fz,FC3,FCz,FC4,Cz,C3,C4
18:09:35.447071,138713.953125,144060.125,164648.859375,161247.8125,188585.875,185334.953125,686000.8125,133462.546875,0.050048828125,1.005126953125,-0.104248046875,-2.075195074081421,1.2817381620407104,1.6174315214157104,86.66667175292969,26172.0,1.0
18:09:35.452596,138687.125,144017.296875,164625.796875,161242.28125,188559.234375,185299.8125,686008.25,133461.640625,0.048583984375,1.006103515625,-0.10107421875,-1.9531248807907104,1.3732908964157104,1.4953612089157104,86.66667175292969,26173.0,1.0
18:09:35.452667,138705.90625,144043.40625,164637.953125,161252.5625,188568.53125,185310.28125,686012.4375,133468.703125,0.046630859375,1.009033203125,-0.09912109375,-1.8920897245407104,1.4953612089157104,1.3732908964157104,86.66667175292969,26174.0,1.0
18:09:35.455107,138721.109375,144070.140625,164642.25,161248.078125,188569.421875,185322.4375,686187.5,133457.265625,0.039306640625,1.01220703125,-0.09765625,-1.8310545682907104,1.5563963651657104,1.2817381620407104,86.66667175292969,26175.0,1.0
18:09:35.455168,138715.640625,144060.671875,164648.59375,161246.125,188580.609375,185330.921875,686037.1875,133456.375,0.038818359375,1.011962890625,-0.09716796875,-1.8005369901657104,1.4953612089157104,1.1596678495407104,86.66667175292969,26176.0,1.0
18:09:35.457009,138692.484375,144022.046875,164631.421875,161245.3125,188560.578125,185300.34375,686006.4375,133462.546875,0.036376953125,1.01123046875,-0.095703125,-1.8005369901657104,1.4038084745407104,1.0070799589157104,86.66667175292969,26177.0,1.0
18:09:35.464470,138691.0625,144025.53125,164624.71875,161240.84375,188551.1875,185292.9375,685996.1875,133456.28125,0.03662109375,1.010009765625,-0.09814453125,-1.9531248807907104,1.3427733182907104,0.8544921278953552,86.66667175292969,26178.0,1.0
18:09:35.471364,138719.21875,144064.515625,164638.578125,161250.765625,188562.984375,185310.984375,686172.125,133459.671875,0.0390625,1.008544921875,-0.094970703125,-1.9531248807907104,1.2817381620407104,0.6713866591453552,86.66667175292969,26179.0,1.0
18:09:35.471436,138723.515625,144068.53125,164651.546875,161253.8125,188583.375,185330.484375,686077.8125,133464.59375,0.041259765625,1.009521484375,-0.095703125,-2.014159917831421,1.1901854276657104,0.3662109076976776,86.66667175292969,26180.0,1.0
18:09:35.475121,138702.765625,144035.71875,164640.984375,161254.96875,188571.65625,185313.859375,686003.125,133468.703125,0.03955078125,1.009765625,-0.09326171875,-1.9836424589157104,1.2512205839157104,0.1831054538488388,86.66667175292969,26181.0,1.0
18:09:35.475187,138695.171875,144026.875,164629.640625,161249.25,188558.15625,185297.84375,686027.75,133466.828125,0.041015625,1.012451171875,-0.095703125,-2.075195074081421,1.0986326932907104,0.1525878757238388,86.66667175292969,26182.0,1.0
18:09:35.487099,138712.78125,144055.921875,164633.484375,161248.625,188558.078125,185306.15625,686169.1875,133459.40625,0.0400390625,1.012939453125,-0.096923828125,-2.075195074081421,1.0070799589157104,0.03051757626235485,86.66667175292969,26183.0,1.0
18:09:35.490126,138713.5,144061.015625,164638.84375,161241.375,188569.078125,185318.046875,686140.125,133450.109375,0.037841796875,1.01416015625,-0.0927734375,-2.044677495956421,1.0070799589157104,-0.1220703050494194,86.66667175292969,26184.0,1.0
18:09:35.490149,138693.03125,144028.65625,164630.078125,161241.828125,188562.546875,185305.890625,686010.3125,133453.6875,0.03662109375,1.015380859375,-0.092041015625,-2.075195074081421,0.9460448622703552,-0.1220703050494194,86.66667175292969,26185.0,1.0
18:09:35.495657,138683.28125,144015.78125,164618.28125,161237.71875,188547.53125,185290.15625,686038.125,133453.875,0.036376953125,1.012451171875,-0.091796875,-2.197265386581421,0.8850097060203552,-0.1525878757238388,86.66667175292969,26186.0,1.0
18:09:35.503767,138711.625,144056.90625,164635.0,161247.546875,188561.03125,185306.609375,686157.0,133458.34375,0.036376953125,1.012939453125,-0.09375,-2.288818120956421,0.7019042372703552,-0.1220703050494194,86.66667175292969,26187.0,1.0
18:09:35.503813,138726.90625,144077.5625,164650.375,161248.796875,188582.125,185330.84375,686207.625,133459.40625,0.037109375,1.0126953125,-0.093017578125,-2.319335699081421,0.5798339247703552,-0.1525878757238388,86.66667175292969,26188.0,1.0
18:09:35.506330,138710.109375,144054.234375,164647.96875,161250.046875,188582.921875,185334.0625,686044.6875,133464.15625,0.037841796875,1.011474609375,-0.092041015625,-2.410888433456421,0.5493163466453552,-0.1525878757238388,86.66667175292969,26189.0,1.0
18:09:35.506374,138689.8125,144019.984375,164627.3125,161243.890625,188557.09375,185296.6875,686080.1875,133462.0,0.03515625,1.01123046875,-0.08935546875,-2.502441167831421,0.4577636420726776,0.0610351525247097,86.66667175292969,26190.0,1.0
18:09:35.513256,138708.234375,144047.703125,164635.171875,161247.8125,188560.125,185302.5,686150.125,133459.859375,0.035888671875,1.012451171875,-0.0888671875,-2.471923589706421,0.3356933295726776,0.2136230319738388,86.66667175292969,26191.0,1.0
18:09:35.523938,138725.21875,144070.765625,164648.140625,161251.921875,188573.546875,185321.265625,686263.5625,133461.375,0.035400390625,1.01025390625,-0.088134765625,-2.471923589706421,0.1831054538488388,0.2746581733226776,86.66667175292969,26192.0,1.0
18:09:35.524020,138715.296875,144055.921875,164651.09375,161252.46875,188580.328125,185327.4375,686072.375,133465.3125,0.033935546875,1.009521484375,-0.090087890625,-2.502441167831421,0.0915527269244194,0.3051757514476776,86.66667175292969,26193.0,1.0
18:09:35.526693,138695.265625,144025.078125,164632.3125,161247.1875,188555.296875,185300.265625,686105.25,133461.734375,0.031494140625,1.01025390625,-0.091796875,-2.593993902206421,-0.03051757626235485,0.4577636420726776,86.66667175292969,26194.0,1.0
18:09:35.526764,138703.671875,144040.453125,164631.515625,161243.609375,188551.546875,185297.125,686138.0,133454.5,0.0283203125,1.012451171875,-0.0888671875,-2.624511480331421,-0.1525878757238388,0.5798339247703552,86.66667175292969,26195.0,1.0
18:09:35.538414,138724.046875,144066.921875,164642.875,161246.5625,188563.703125,185311.53125,686306.3125,133452.4375,0.028564453125,1.012939453125,-0.090087890625,-2.716064214706421,-0.2441406100988388,0.6103515028953552,86.66667175292969,26196.0,1.0
18:09:35.541459,138721.546875,144064.15625,164654.9375,161252.109375,188585.703125,185331.546875,686110.625,133461.46875,0.02880859375,1.010986328125,-0.08984375,-2.746581792831421,-0.3662109076976776,0.6103515028953552,86.66667175292969,26197.0,1.0
18:09:35.541499,138699.375,144032.140625,164638.125,161249.609375,188565.9375,185308.578125,686109.875,133464.859375,0.028076171875,1.0087890625,-0.091064453125,-2.777099370956421,-0.5493163466453552,0.6103515028953552,86.66667175292969,26198.0,1.0
18:09:35.543341,138709.03125,144050.828125,164640.546875,161250.140625,188565.21875,185311.53125,686138.0625,133464.78125,0.029052734375,1.0068359375,-0.0908203125,-2.746581792831421,-0.7934569716453552,0.7019042372703552,86.66667175292969,26199.0,1.0
18:09:35.555665,138727.53125,144075.59375,164648.859375,161253.984375,188572.640625,185321.453125,686324.0,133463.4375,0.027099609375,1.00390625,-0.091552734375,-2.807616949081421,-1.0681151151657104,0.6408690810203552,86.66667175292969,26200.0,1.0
18:09:35.558776,138724.671875,144070.234375,164657.796875,161255.328125,188590.890625,185340.140625,686146.625,133465.671875,0.031005859375,1.0048828125,-0.08984375,-2.746581792831421,-1.1901854276657104,0.5798339247703552,86.66667175292969,26201.0,1.0
18:09:35.558799,138705.359375,144035.984375,164643.21875,161257.203125,188573.546875,185314.828125,686110.8125,133473.265625,0.031005859375,1.00390625,-0.089111328125,-2.685546636581421,-1.2512205839157104,0.5798339247703552,86.66667175292969,26202.0,1.0
18:09:35.560668,138710.546875,144047.34375,164643.5,161258.28125,188569.515625,185315.375,686135.75,133475.859375,0.032958984375,1.003173828125,-0.090087890625,-2.685546636581421,-1.2817381620407104,0.6713866591453552,86.66667175292969,26203.0,1.0
18:09:35.570685,138742.921875,144087.484375,164663.875,161274.1875,188586.5,185334.234375,686330.75,133488.015625,0.036376953125,1.002685546875,-0.09326171875,-2.716064214706421,-1.4038084745407104,0.6103515028953552,86.66667175292969,26204.0,1.0
18:09:35.573765,138729.59375,144075.6875,164660.21875,161257.65625,188590.703125,185336.296875,686199.0625,133474.078125,0.0380859375,1.0009765625,-0.092529296875,-2.532958745956421,-1.5563963651657104,0.5187987685203552,86.66667175292969,26205.0,1.0
18:09:35.573783,138707.875,144040.640625,164648.140625,161257.390625,188578.640625,185319.84375,686105.8125,133473.8125,0.039794921875,1.00146484375,-0.093505859375,-2.349853277206421,-1.6784666776657104,0.6103515028953552,86.66667175292969,26206.0,1.0
18:09:35.579515,138699.640625,144030.265625,164635.71875,161251.65625,188564.328125,185305.09375,686130.5625,133469.6875,0.0419921875,1.00146484375,-0.094482421875,-2.227782964706421,-1.6174315214157104,0.6103515028953552,86.66667175292969,26207.0,1.0
18:09:35.587572,138718.0625,144059.859375,164641.4375,161250.671875,188565.40625,185311.265625,686283.5,133465.671875,0.044921875,1.001220703125,-0.093505859375,-2.136230230331421,-1.6784666776657104,0.6408690810203552,86.66667175292969,26208.0,1.0
18:09:35.587591,138722.0,144066.828125,164649.21875,161247.8125,188578.546875,185325.109375,686244.25,133462.359375,0.04736328125,1.001220703125,-0.093017578125,-2.105712652206421,-1.5563963651657104,0.7629393935203552,86.66667175292969,26209.0,1.0
18:09:35.590091,138712.078125,144045.203125,164650.015625,161258.546875,188580.421875,185323.5,686116.625,133474.609375,0.0478515625,1.002197265625,-0.097900390625,-1.7700194120407104,-1.4953612089157104,0.8850097060203552,86.66667175292969,26210.0,1.0
18:09:35.590101,138702.6875,144032.765625,164638.578125,161258.1875,188565.3125,185308.578125,686148.3125,133476.9375,0.048583984375,1.001220703125,-0.099853515625,-1.6174315214157104,-1.3122557401657104,0.9765624403953552,86.66667175292969,26211.0,1.0
18:09:35.599475,138719.765625,144063.53125,164644.390625,161259.4375,188568.171875,185316.09375,686267.8125,133472.640625,0.046875,1.0029296875,-0.095458984375,-1.5258787870407104,-1.2512205839157104,1.0681151151657104,86.66667175292969,26212.0,1.0
18:09:35.608861,138728.703125,144079.359375,164652.875,161257.828125,188581.765625,185334.5,686299.5,133469.15625,0.046142578125,1.00244140625,-0.0986328125,-1.4343260526657104,-1.2207030057907104,1.2207030057907104,86.66667175292969,26213.0,1.0
18:09:35.608874,138709.921875,144047.703125,164647.515625,161256.125,188581.046875,185326.90625,686122.9375,133471.390625,0.047119140625,1.00244140625,-0.0966796875,-1.3122557401657104,-1.0986326932907104,1.1596678495407104,86.66667175292969,26214.0,1.0
18:09:35.643964,138695.984375,144023.46875,164632.234375,161254.25,188560.046875,185298.5625,686172.9375,133472.640625,0.0478515625,1.002197265625,-0.099365234375,-1.1291502714157104,-1.0375975370407104,1.0986326932907104,86.66667175292969,26215.0,1.0
18:09:35.643998,138711.453125,144052.265625,164637.328125,161253.890625,188562.453125,185305.265625,686256.6875,133468.4375,0.04736328125,1.002197265625,-0.09716796875,-1.0681151151657104,-0.9155272841453552,1.1291502714157104,86.66667175292969,26216.0,1.0
18:09:35.660005,138726.28125,144075.59375,164647.34375,161254.34375,188572.375,185323.328125,686363.75,133466.75,0.04736328125,1.00439453125,-0.09765625,-0.9460448622703552,-0.7629393935203552,1.0375975370407104,86.66667175292969,26217.0,1.0
18:09:35.660025,138712.96875,144057.625,164648.765625,161252.90625,188578.8125,185329.046875,686144.3125,133465.578125,0.046142578125,1.007568359375,-0.0966796875,-0.7629393935203552,-0.6103515028953552,1.0986326932907104,86.66667175292969,26218.0,1.0
18:09:35.663222,138703.21875,144035.90625,164641.96875,161260.609375,188566.65625,185311.53125,686181.5,133476.125,0.047119140625,1.008544921875,-0.09814453125,-0.7019042372703552,-0.4882812201976776,0.9765624403953552,86.66667175292969,26219.0,1.0
18:09:35.663235,138721.375,144063.4375,164649.9375,161265.96875,188571.75,185319.484375,686240.5,133476.9375,0.046875,1.008544921875,-0.097412109375,-0.6713866591453552,-0.4577636420726776,0.8850097060203552,86.66667175292969,26220.0,1.0
18:09:35.663237,138729.0625,144078.71875,164649.03125,161257.921875,188570.234375,185322.34375,686389.375,133465.578125,0.046142578125,1.010986328125,-0.098876953125,-0.7019042372703552,-0.3051757514476776,0.7934569716453552,86.66667175292969,26221.0,1.0
18:09:35.666835,138716.453125,144061.734375,164649.3125,161252.28125,188578.640625,185327.4375,686153.625,133462.8125,0.04541015625,1.009521484375,-0.099365234375,-0.6713866591453552,-0.2441406100988388,0.7324218153953552,86.66667175292969,26222.0,1.0
18:09:35.666845,138695.359375,144025.34375,164633.921875,161255.328125,188560.9375,185301.6875,686161.375,133472.015625,0.044677734375,1.006103515625,-0.10009765625,-0.7629393935203552,-0.0915527269244194,0.6103515028953552,86.66667175292969,26223.0,1.0
18:09:35.666847,138703.21875,144042.15625,164635.625,161256.046875,188560.484375,185304.734375,686200.625,133472.015625,0.0458984375,1.0078125,-0.102294921875,-0.7019042372703552,-0.03051757626235485,0.6408690810203552,86.66667175292969,26224.0,1.0
18:09:35.670091,138721.1875,144068.71875,164641.53125,161254.96875,188564.953125,185312.421875,686385.0625,133467.28125,0.047607421875,1.008544921875,-0.103271484375,-0.5798339247703552,0.0610351525247097,0.6103515028953552,86.66667175292969,26225.0,1.0
18:09:35.670098,138723.421875,144069.96875,164655.03125,161257.296875,188587.046875,185334.5,686194.75,133471.578125,0.0478515625,1.007080078125,-0.10302734375,-0.5798339247703552,0.2441406100988388,0.5493163466453552,86.66667175292969,26226.0,1.0
18:09:35.672001,138712.515625,144045.640625,164651.8125,161267.75,188580.25,185322.609375,686145.5625,133486.234375,0.049072265625,1.005859375,-0.101806640625,-0.5798339247703552,0.2136230319738388,0.6103515028953552,86.66667175292969,26227.0,1.0
18:09:35.677011,138713.59375,144049.40625,164647.0625,161264.890625,188571.9375,185310.984375,686179.375,133484.09375,0.049560546875,1.00732421875,-0.100830078125,-0.4577636420726776,0.3356933295726776,0.6408690810203552,86.66667175292969,26228.0,1.0
18:09:35.679600,138726.28125,144072.5625,164647.78125,161259.265625,188571.3125,185314.125,686360.125,133474.609375,0.051025390625,1.006591796875,-0.101318359375,-0.4577636420726776,0.4577636420726776,0.6713866591453552,86.66667175292969,26229.0,1.0
18:09:35.681931,138730.125,144079.4375,164658.515625,161260.515625,188590.078125,185333.078125,686226.6875,133478.640625,0.049560546875,1.009033203125,-0.103515625,-0.4272460639476776,0.6103515028953552,0.6103515028953552,86.66667175292969,26230.0,1.0
18:09:35.684522,138711.0,144048.78125,164649.3125,161263.46875,188579.984375,185319.484375,686132.9375,133483.109375,0.04736328125,1.01025390625,-0.10107421875,-0.4577636420726776,0.7019042372703552,0.6103515028953552,86.66667175292969,26231.0,1.0
18:09:35.687014,138700.1875,144039.390625,164635.890625,161254.96875,188562.453125,185304.109375,686159.9375,133474.515625,0.047119140625,1.00927734375,-0.1015625,-0.5493163466453552,0.8239745497703552,0.4882812201976776,86.66667175292969,26232.0,1.0
18:09:35.689552,138719.671875,144068.09375,164642.515625,161258.71875,188566.75,185310.546875,686310.1875,133472.46875,0.04541015625,1.010498046875,-0.104736328125,-0.5493163466453552,0.9155272841453552,0.4882812201976776,86.66667175292969,26233.0,1.0
18:09:35.692020,138727.8125,144080.78125,164655.03125,161258.28125,188586.140625,185330.296875,686271.8125,133470.859375,0.044189453125,1.0107421875,-0.102783203125,-0.5798339247703552,1.0070799589157104,0.5798339247703552,86.66667175292969,26234.0,1.0
18:09:35.695168,138715.015625,144061.46875,164655.03125,161263.640625,188589.453125,185331.203125,686121.0625,133480.6875,0.04345703125,1.0107421875,-0.099365234375,-0.6408690810203552,1.0681151151657104,0.5187987685203552,86.66667175292969,26235.0,1.0
18:09:35.695197,138705.90625,144045.640625,164643.671875,161264.71875,188574.078125,185313.3125,686149.3125,133485.515625,0.044189453125,1.011474609375,-0.1015625,-0.6408690810203552,1.0986326932907104,0.6103515028953552,86.66667175292969,26236.0,1.0
18:09:35.697075,138715.203125,144066.03125,164640.359375,161257.734375,188564.953125,185310.8125,686243.5625,133472.28125,0.041748046875,1.013427734375,-0.10205078125,-0.7629393935203552,1.0986326932907104,0.4882812201976776,86.66667175292969,26237.0,1.0
18:09:35.706268,138732.1875,144087.578125,164655.75,161260.875,188584.1875,185333.515625,686298.125,133473.0,0.037841796875,1.012451171875,-0.09814453125,-0.8850097060203552,0.9765624403953552,0.5187987685203552,86.66667175292969,26238.0,1.0
18:09:35.706286,138717.96875,144065.578125,164656.015625,161263.015625,188588.203125,185338.078125,686106.0625,133478.1875,0.033447265625,1.0126953125,-0.099609375,-1.0375975370407104,0.8850097060203552,0.2746581733226776,86.66667175292969,26239.0,1.0
18:09:35.712538,138683.015625,144017.390625,164620.96875,161243.796875,188546.546875,185288.375,686097.1875,133462.71875,0.03271484375,1.014404296875,-0.10205078125,-1.0986326932907104,0.8544921278953552,0.2441406100988388,86.66667175292969,26240.0,1.0
18:09:35.712543,138701.4375,144047.96875,164628.203125,161246.46875,188549.84375,185296.0625,686156.0,133461.015625,0.0322265625,1.01416015625,-0.100341796875,-1.3427733182907104,0.7324218153953552,0.0610351525247097,86.66667175292969,26241.0,1.0
18:09:35.718191,138722.171875,144074.53125,164642.953125,161250.671875,188567.015625,185314.5625,686276.625,133462.71875,0.031005859375,1.01318359375,-0.100341796875,-1.4953612089157104,0.6408690810203552,0.0915527269244194,86.66667175292969,26242.0,1.0
18:09:35.725044,138713.859375,144060.125,164648.328125,161250.046875,188579.359375,185324.484375,686073.9375,133466.390625,0.032470703125,1.0146484375,-0.098388671875,-1.4953612089157104,0.4882812201976776,0.0610351525247097,86.66667175292969,26243.0,1.0
18:09:35.725055,138696.6875,144032.40625,164634.828125,161252.5625,188560.84375,185304.375,686067.9375,133475.59375,0.033203125,1.01416015625,-0.09765625,-1.6479490995407104,0.3662109076976776,0.1220703050494194,86.66667175292969,26244.0,1.0
18:09:35.743800,138709.03125,144054.40625,164639.203125,161252.28125,188561.46875,185306.78125,686066.4375,133469.6875,0.034423828125,1.01416015625,-0.098876953125,-1.8005369901657104,0.2441406100988388,0.0915527269244194,86.66667175292969,26245.0,1.0
18:09:35.743885,138737.109375,144092.140625,164657.0,161261.578125,188577.46875,185330.296875,686234.625,133470.5,0.036376953125,1.01318359375,-0.09765625,-1.8615721464157104,0.2136230319738388,0.1525878757238388,86.66667175292969,26246.0,1.0
18:09:35.743914,138734.25,144084.984375,164665.84375,161262.125,188593.5625,185344.15625,686060.4375,133472.640625,0.035888671875,1.013427734375,-0.10009765625,-1.9836424589157104,0.1220703050494194,0.1831054538488388,86.66667175292969,26247.0,1.0
18:09:35.743936,138713.859375,144050.828125,164650.28125,161261.40625,188574.34375,185320.015625,686048.625,133479.53125,0.03515625,1.011474609375,-0.101806640625,-2.044677495956421,-0.03051757626235485,0.3967284858226776,86.66667175292969,26248.0,1.0
18:09:35.743957,138715.921875,144058.078125,164645.546875,161256.671875,188566.390625,185313.765625,686040.625,133474.34375,0.03466796875,1.010009765625,-0.101318359375,-2.044677495956421,-0.0915527269244194,0.4272460639476776,86.66667175292969,26249.0,1.0
18:09:35.745672,138741.390625,144094.109375,164657.625,161262.5625,188575.515625,185332.265625,686192.3125,133472.90625,0.03515625,1.009033203125,-0.09716796875,-2.075195074081421,-0.2136230319738388,0.5187987685203552,86.66667175292969,26250.0,1.0
18:09:35.760697,138735.859375,144089.71875,164663.34375,161258.015625,188589.015625,185345.40625,686057.6875,133469.96875,0.03369140625,1.00830078125,-0.096923828125,-2.136230230331421,-0.2441406100988388,0.5798339247703552,86.66667175292969,26251.0,1.0
18:09:35.765697,138707.421875,144044.296875,164643.3125,161253.359375,188567.1875,185312.0625,686013.6875,133470.765625,0.034912109375,1.0087890625,-0.09521484375,-2.136230230331421,-0.3051757514476776,0.7324218153953552,86.66667175292969,26252.0,1.0
18:09:35.768204,138713.140625,144052.890625,164643.3125,161256.578125,188564.515625,185312.59375,686084.5,133474.25,0.034912109375,1.0078125,-0.09228515625,-2.136230230331421,-0.3662109076976776,0.6713866591453552,86.66667175292969,26253.0,1.0
18:09:35.770677,138736.84375,144085.96875,164652.25,161261.234375,188568.796875,185320.203125,686160.125,133472.203125,0.03564453125,1.00732421875,-0.094482421875,-2.227782964706421,-0.4577636420726776,0.7934569716453552,86.66667175292969,26254.0,1.0
18:09:35.773234,138741.578125,144097.5,164664.0625,161260.515625,188586.421875,185344.78125,686071.875,133470.140625,0.032958984375,1.008056640625,-0.095703125,-2.197265386581421,-0.5798339247703552,0.9155272841453552,86.66667175292969,26255.0,1.0
18:09:35.775694,138727.71875,144071.390625,164661.828125,161269.453125,188583.828125,185338.53125,685970.0625,133484.265625,0.033203125,1.008056640625,-0.099853515625,-2.258300542831421,-0.7324218153953552,0.9460448622703552,86.66667175292969,26256.0,1.0
18:09:35.778762,138715.375,144056.375,164648.671875,161263.28125,188567.640625,185317.25,686096.9375,133484.890625,0.0341796875,1.008056640625,-0.099609375,-2.349853277206421,-0.7934569716453552,1.0070799589157104,86.66667175292969,26257.0,1.0
18:09:35.778768,138720.390625,144070.671875,164641.171875,161252.46875,188557.984375,185308.046875,686139.25,133466.75,0.035888671875,1.007568359375,-0.095703125,-2.319335699081421,-0.8239745497703552,0.9460448622703552,86.66667175292969,26258.0,1.0
18:09:35.788233,138724.140625,144078.375,164647.0625,161246.5625,188570.40625,185323.328125,686093.6875,133458.515625,0.037841796875,1.009765625,-0.09423828125,-2.197265386581421,-0.9460448622703552,1.0375975370407104,86.66667175292969,26259.0,1.0
18:09:35.799492,138707.6875,144055.484375,164643.84375,161249.421875,188569.96875,185322.875,685944.0625,133464.421875,0.037109375,1.00927734375,-0.09423828125,-2.349853277206421,-1.0070799589157104,1.0986326932907104,86.66667175292969,26260.0,1.0
18:09:35.799511,138693.828125,144032.765625,164627.578125,161244.421875,188550.109375,185298.46875,686072.1875,133465.21875,0.039794921875,1.009765625,-0.096435546875,-2.349853277206421,-1.0070799589157104,1.1291502714157104,86.66667175292969,26261.0,1.0
18:09:35.799513,138713.0625,144060.578125,164633.03125,161246.65625,188552.265625,185302.3125,686135.9375,133461.921875,0.041015625,1.0087890625,-0.097900390625,-2.288818120956421,-1.0375975370407104,1.0375975370407104,86.66667175292969,26262.0,1.0
18:09:35.802711,138726.46875,144082.21875,164644.828125,161249.0625,188567.375,185325.296875,686145.9375,133461.5625,0.042236328125,1.008056640625,-0.096923828125,-2.319335699081421,-1.0070799589157104,1.0681151151657104,86.66667175292969,26263.0,1.0
18:09:35.802756,138716.625,144068.625,164649.125,161254.25,188575.421875,185336.5625,685959.0,133470.40625,0.04150390625,1.00830078125,-0.095947265625,-2.227782964706421,-1.0070799589157104,1.0986326932907104,86.66667175292969,26264.0,1.0
18:09:35.809663,138693.828125,144031.078125,164626.859375,161245.765625,188547.34375,185297.765625,686052.25,133465.578125,0.041748046875,1.008544921875,-0.09521484375,-2.197265386581421,-1.0070799589157104,1.0375975370407104,86.66667175292969,26265.0,1.0
18:09:35.816483,138702.328125,144048.0625,164626.0625,161241.640625,188544.390625,185293.46875,686109.0,133458.703125,0.0439453125,1.0087890625,-0.092529296875,-2.197265386581421,-0.8239745497703552,0.9155272841453552,86.66667175292969,26266.0,1.0
18:09:35.816540,138723.34375,144076.578125,164640.8125,161248.53125,188559.421875,185314.203125,686155.3125,133463.171875,0.045654296875,1.009033203125,-0.09423828125,-2.227782964706421,-0.8850097060203552,0.8850097060203552,86.66667175292969,26267.0,1.0
18:09:35.823512,138716.625,144064.515625,164647.875,161252.015625,188574.4375,185325.75,685958.5,133471.21875,0.045654296875,1.005615234375,-0.0947265625,-2.197265386581421,-0.8544921278953552,0.8850097060203552,86.66667175292969,26268.0,1.0
18:09:35.832514,138697.953125,144034.734375,164633.03125,161253.8125,188556.640625,185303.21875,686030.6875,133479.796875,0.04736328125,1.00390625,-0.096435546875,-2.227782964706421,-0.7324218153953552,0.8850097060203552,86.66667175292969,26269.0,1.0
18:09:35.832598,138705.28125,144051.453125,164631.6875,161248.984375,188552.703125,185305.453125,686112.3125,133470.9375,0.0478515625,1.004638671875,-0.095947265625,-2.044677495956421,-0.6713866591453552,0.7934569716453552,86.66667175292969,26270.0,1.0
18:09:35.838749,138728.875,144080.6875,164644.828125,161254.078125,188565.21875,185319.65625,686170.9375,133469.25,0.04736328125,1.006103515625,-0.09521484375,-1.9836424589157104,-0.6103515028953552,0.7019042372703552,86.66667175292969,26271.0,1.0
18:09:35.838757,138727.453125,144079.4375,164656.28125,161255.78125,188584.71875,185339.59375,685989.0,133471.921875,0.046630859375,1.0048828125,-0.09716796875,-2.075195074081421,-0.4577636420726776,0.6103515028953552,86.66667175292969,26272.0,1.0
18:09:35.840648,138712.34375,144052.34375,164647.703125,161262.5625,188572.375,185322.171875,686006.375,133483.109375,0.047607421875,1.003662109375,-0.096435546875,-1.9531248807907104,-0.3662109076976776,0.6408690810203552,86.66667175292969,26273.0,1.0
18:09:35.844474,138708.859375,144051.546875,164638.125,161253.625,188558.703125,185307.421875,686108.75,133473.890625,0.0478515625,1.00244140625,-0.097412109375,-1.8615721464157104,-0.2746581733226776,0.5187987685203552,86.66667175292969,26274.0,1.0
18:09:35.855078,138722.265625,144071.75,164638.125,161247.8125,188554.671875,185305.984375,686166.0625,133461.921875,0.04833984375,1.00390625,-0.096435546875,-1.7700194120407104,-0.1525878757238388,0.4882812201976776,86.66667175292969,26275.0,1.0
18:09:35.855140,138721.8125,144077.65625,164647.703125,161243.890625,188571.484375,185330.65625,686022.1875,133459.046875,0.047119140625,1.002685546875,-0.09521484375,-1.7089842557907104,0.0,0.3967284858226776,86.66667175292969,26276.0,1.0
18:09:35.857160,138699.109375,144043.328125,164633.5625,161241.828125,188556.015625,185311.96875,685987.9375,133463.25,0.045654296875,1.00439453125,-0.095703125,-1.6784666776657104,-0.03051757626235485,0.3051757514476776,86.66667175292969,26277.0,1.0
18:09:35.860837,138692.046875,144033.125,164620.96875,161235.65625,188540.015625,185289.265625,686088.4375,133457.71875,0.045166015625,1.005615234375,-0.092041015625,-1.5869139432907104,0.0610351525247097,0.3356933295726776,86.66667175292969,26278.0,1.0
18:09:35.867615,138708.9375,144061.734375,164624.453125,161234.671875,188540.453125,185295.796875,686155.125,133451.640625,0.043701171875,1.00439453125,-0.09228515625,-1.5869139432907104,0.1525878757238388,0.3356933295726776,86.66667175292969,26279.0,1.0
18:09:35.867690,138708.9375,144063.53125,164630.703125,161230.5625,188554.234375,185309.5625,686080.0625,133449.84375,0.042724609375,1.0048828125,-0.09130859375,-1.5258787870407104,0.1525878757238388,0.2136230319738388,86.66667175292969,26280.0,1.0
18:09:35.888370,138685.078125,144027.140625,164617.5625,161230.109375,188541.625,185291.671875,685968.8125,133452.796875,0.041259765625,1.005126953125,-0.0927734375,-1.4953612089157104,0.1831054538488388,0.2136230319738388,86.66667175292969,26281.0,1.0
18:09:35.903771,138680.0625,144020.171875,164610.234375,161230.203125,188529.46875,185280.140625,686052.6875,133454.765625,0.04150390625,1.005859375,-0.091796875,-1.4343260526657104,0.2441406100988388,0.1220703050494194,86.66667175292969,26282.0,1.0
18:09:35.903820,138717.4375,144066.390625,164635.09375,161248.890625,188550.734375,185303.03125,686128.9375,133468.265625,0.036865234375,1.0048828125,-0.092529296875,-1.3732908964157104,0.1831054538488388,0.1220703050494194,86.66667175292969,26283.0,1.0
18:09:35.905700,138717.25,144068.359375,164635.984375,161241.015625,188557.453125,185310.0,686121.0625,133457.796875,0.036376953125,1.00732421875,-0.092529296875,-1.3122557401657104,0.0915527269244194,0.1220703050494194,86.66667175292969,26284.0,1.0
18:09:35.910727,138688.46875,144030.796875,164619.359375,161231.359375,188543.40625,185293.734375,685938.5,133451.28125,0.0380859375,1.009521484375,-0.095458984375,-1.2512205839157104,0.1525878757238388,0.1525878757238388,86.66667175292969,26285.0,1.0
18:09:35.913380,138673.71875,144010.6875,164604.6875,161225.734375,188524.8125,185273.265625,686039.625,133450.375,0.038330078125,1.0068359375,-0.0947265625,-1.2207030057907104,0.1525878757238388,0.0610351525247097,86.66667175292969,26286.0,1.0
18:09:35.916275,138687.65625,144034.296875,164606.5625,161223.765625,188523.46875,185275.5,686096.1875,133444.484375,0.03662109375,1.007568359375,-0.093505859375,-1.1596678495407104,0.1525878757238388,0.0915527269244194,86.66667175292969,26287.0,1.0
18:09:35.916280,138708.5,144063.265625,164624.546875,161232.34375,188544.390625,185305.0,686150.0625,133449.84375,0.034912109375,1.006591796875,-0.09130859375,-1.0986326932907104,0.0915527269244194,0.1525878757238388,86.66667175292969,26288.0,1.0
18:09:35.918275,138700.1875,144045.734375,164630.796875,161239.953125,188557.09375,185308.578125,685963.6875,133460.84375,0.035400390625,1.00732421875,-0.095458984375,-1.1291502714157104,0.03051757626235485,0.1525878757238388,86.66667175292969,26289.0,1.0
18:09:35.920767,138690.703125,144030.09375,164621.953125,161244.15625,188541.359375,185290.515625,686029.25,133470.40625,0.034912109375,1.0068359375,-0.095458984375,-1.0681151151657104,-0.1220703050494194,0.1220703050494194,86.66667175292969,26290.0,1.0
18:09:35.923254,138705.015625,144051.90625,164626.0625,161244.421875,188542.15625,185292.296875,686071.875,133467.375,0.0341796875,1.00439453125,-0.09130859375,-1.0070799589157104,-0.0915527269244194,0.1525878757238388,86.66667175292969,26291.0,1.0
18:09:35.925806,138720.5625,144070.234375,164635.0,161246.65625,188554.3125,185302.5,686176.75,133467.28125,0.03271484375,1.005859375,-0.093505859375,-1.0375975370407104,-0.0915527269244194,0.1220703050494194,86.66667175292969,26292.0,1.0
18:09:35.928884,138711.453125,144057.625,164640.640625,161247.09375,188566.828125,185312.328125,685981.875,133467.375,0.035400390625,1.007568359375,-0.09375,-0.9765624403953552,-0.1831054538488388,0.2136230319738388,86.66667175292969,26293.0,1.0
18:09:35.928909,138689.71875,144023.828125,164621.859375,161243.609375,188541.890625,185286.21875,686012.625,133466.03125,0.03662109375,1.006103515625,-0.09326171875,-1.0070799589157104,-0.3967284858226776,0.3051757514476776,86.66667175292969,26294.0,1.0
18:09:35.930777,138697.140625,144040.1875,164621.765625,161239.765625,188537.59375,185286.21875,686054.4375,133459.046875,0.034912109375,1.00537109375,-0.09521484375,-0.9460448622703552,-0.3662109076976776,0.4272460639476776,86.66667175292969,26295.0,1.0
18:09:35.935036,138711.265625,144061.921875,164624.890625,161236.015625,188539.390625,185293.5625,686175.0625,133450.734375,0.035888671875,1.006591796875,-0.095458984375,-0.8544921278953552,-0.4577636420726776,0.4882812201976776,86.66667175292969,26296.0,1.0
18:09:35.935045,138704.203125,144056.109375,164630.0,161232.890625,188553.609375,185308.671875,686007.5,133450.734375,0.035888671875,1.00732421875,-0.096435546875,-0.8239745497703552,-0.4272460639476776,0.4882812201976776,86.66667175292969,26297.0,1.0
18:09:35.950013,138688.296875,144028.296875,164620.421875,161237.796875,188541.53125,185292.296875,686010.1875,133462.984375,0.037841796875,1.008056640625,-0.0966796875,-0.8239745497703552,-0.5187987685203552,0.6408690810203552,86.66667175292969,26298.0,1.0
18:09:35.950022,138689.09375,144035.8125,164616.3125,161235.75,188534.5625,185286.9375,686026.75,133460.3125,0.03662109375,1.01025390625,-0.095947265625,-0.8239745497703552,-0.5187987685203552,0.7019042372703552,86.66667175292969,26299.0,1.0
18:09:35.951928,138708.40625,144063.703125,164624.890625,161237.53125,188540.546875,185296.859375,686182.5625,133455.828125,0.037841796875,1.01123046875,-0.09326171875,-0.8544921278953552,-0.3967284858226776,0.6103515028953552,86.66667175292969,26300.0,1.0
18:09:35.956910,138714.578125,144073.265625,164641.078125,161241.375,188563.609375,185319.3125,686073.5,133460.484375,0.03759765625,1.010009765625,-0.09326171875,-0.7629393935203552,-0.5798339247703552,0.7324218153953552,86.66667175292969,26301.0,1.0
18:09:35.959461,138695.890625,144041.078125,164630.171875,161243.96875,188551.453125,185301.515625,686011.5625,133469.515625,0.037353515625,1.009033203125,-0.0947265625,-0.8544921278953552,-0.6103515028953552,0.7934569716453552,86.66667175292969,26302.0,1.0
18:09:35.961934,138681.3125,144021.953125,164611.046875,161229.578125,188529.546875,185276.125,686000.375,133458.875,0.039794921875,1.009033203125,-0.0986328125,-0.9155272841453552,-0.6713866591453552,0.8239745497703552,86.66667175292969,26303.0,1.0
18:09:35.968832,138700.53125,144051.71875,164616.765625,161229.3125,188532.140625,185286.046875,686144.25,133452.53125,0.03955078125,1.010498046875,-0.096923828125,-1.0070799589157104,-0.7324218153953552,0.8544921278953552,86.66667175292969,26304.0,1.0
18:09:35.968845,138706.078125,144063.171875,164627.84375,161226.984375,188549.84375,185310.09375,686115.0625,133447.875,0.040283203125,1.01171875,-0.096435546875,-0.9765624403953552,-0.7019042372703552,0.8850097060203552,86.66667175292969,26305.0,1.0
18:09:36.011482,138674.609375,144019.71875,164607.640625,161215.1875,188531.4375,185284.609375,685996.8125,133441.53125,0.041259765625,1.011962890625,-0.09423828125,-0.9765624403953552,-0.7629393935203552,0.9460448622703552,86.66667175292969,26306.0,1.0
18:09:36.011514,138657.625,144003.625,164588.6875,161205.078125,188508.90625,185264.59375,686028.8125,133435.265625,0.04052734375,1.01318359375,-0.092529296875,-1.1291502714157104,-0.7324218153953552,0.9155272841453552,86.66667175292969,26307.0,1.0
18:09:36.020905,138693.5625,144047.875,164612.375,161223.9375,188527.9375,185283.71875,686146.125,133447.4375,0.03955078125,1.013671875,-0.096923828125,-1.1596678495407104,-0.7019042372703552,0.9765624403953552,86.66667175292969,26308.0,1.0
18:09:36.023274,138693.828125,144050.296875,164613.28125,161212.5,188533.484375,185289.171875,686162.9375,133433.484375,0.040771484375,1.01318359375,-0.094482421875,-1.2817381620407104,-0.6408690810203552,0.8850097060203552,86.66667175292969,26309.0,1.0
18:09:36.025806,138680.421875,144028.5625,164612.203125,161218.3125,188535.90625,185289.4375,685998.25,133441.984375,0.040283203125,1.0107421875,-0.09375,-1.3732908964157104,-0.6713866591453552,0.9155272841453552,86.66667175292969,26310.0,1.0
18:09:36.028196,138668.4375,144006.390625,164599.6875,161218.046875,188518.46875,185267.453125,686015.5,133446.625,0.040283203125,1.0107421875,-0.09716796875,-1.5258787870407104,-0.5798339247703552,0.8239745497703552,86.66667175292969,26311.0,1.0
18:09:36.030730,138692.671875,144042.0625,164611.125,161223.59375,188526.609375,185282.015625,686077.0625,133446.171875,0.042236328125,1.01220703125,-0.09716796875,-1.5258787870407104,-0.5493163466453552,0.7934569716453552,86.66667175292969,26312.0,1.0
18:09:36.033196,138709.390625,144066.03125,164622.65625,161224.75,188538.140625,185297.578125,686197.625,133442.875,0.0439453125,1.012451171875,-0.099609375,-1.5869139432907104,-0.4882812201976776,0.7324218153953552,86.66667175292969,26313.0,1.0
18:09:36.035679,138697.140625,144046.359375,164624.984375,161226.71875,188545.734375,185301.421875,686014.9375,133448.6875,0.044677734375,1.01220703125,-0.099365234375,-1.5563963651657104,-0.2746581733226776,0.8239745497703552,86.66667175292969,26314.0,1.0
18:09:36.042017,138687.75,144026.6875,164617.5625,161234.578125,188534.296875,185286.40625,686044.5625,133463.53125,0.045166015625,1.01220703125,-0.100341796875,-1.5563963651657104,-0.2441406100988388,0.7934569716453552,86.66667175292969,26315.0,1.0
18:09:36.042035,138699.46875,144048.59375,164620.25,161233.875,188533.9375,185288.90625,686076.25,133461.015625,0.0478515625,1.011474609375,-0.09912109375,-1.5869139432907104,-0.1525878757238388,0.8850097060203552,86.66667175292969,26316.0,1.0
18:09:36.044667,138716.0,144064.6875,164629.453125,161237.71875,188545.109375,185294.71875,686243.5625,133458.96875,0.047607421875,1.00927734375,-0.099853515625,-1.6174315214157104,-0.0610351525247097,0.8850097060203552,86.66667175292969,26317.0,1.0
18:09:36.046474,138691.0625,144038.21875,164618.734375,161221.359375,188541.71875,185291.765625,686038.9375,133442.6875,0.046875,1.003662109375,-0.099365234375,-1.5869139432907104,-0.03051757626235485,0.9765624403953552,86.66667175292969,26318.0,1.0
18:09:36.048284,138673.625,144009.703125,164606.03125,161223.234375,188524.28125,185272.09375,686045.5,133449.125,0.043212890625,1.0009765625,-0.09912109375,-1.5563963651657104,0.1220703050494194,0.9155272841453552,86.66667175292969,26319.0,1.0
18:09:36.050822,138683.90625,144028.75,164608.71875,161222.78125,188523.65625,185273.34375,686054.4375,133447.34375,0.04296875,0.9990234375,-0.098388671875,-1.4648436307907104,0.2136230319738388,0.9765624403953552,86.66667175292969,26320.0,1.0
18:09:36.054340,138701.34375,144050.296875,164615.421875,161225.203125,188529.109375,185276.296875,686242.0625,133443.40625,0.0400390625,1.0029296875,-0.0966796875,-1.4038084745407104,0.3051757514476776,0.8544921278953552,86.66667175292969,26321.0,1.0
18:09:36.054417,138709.484375,144059.0625,164634.109375,161231.546875,188555.296875,185305.71875,686092.0,133451.1875,0.0380859375,1.00390625,-0.094970703125,-1.4343260526657104,0.2746581733226776,0.7324218153953552,86.66667175292969,26322.0,1.0
18:09:36.056473,138687.125,144028.03125,164617.390625,161231.359375,188535.71875,185289.359375,686059.625,133457.171875,0.038818359375,1.003173828125,-0.093017578125,-1.4038084745407104,0.2136230319738388,0.6713866591453552,86.66667175292969,26323.0,1.0
18:09:36.056561,138684.890625,144029.546875,164609.15625,161224.484375,188523.5625,185278.625,686065.3125,133449.671875,0.03857421875,1.00048828125,-0.096435546875,-1.4038084745407104,0.2746581733226776,0.5493163466453552,86.66667175292969,26324.0,1.0
18:09:36.058820,138705.453125,144060.046875,164616.578125,161225.546875,188526.953125,185284.4375,686255.1875,133443.40625,0.0390625,1.001220703125,-0.0966796875,-1.3122557401657104,0.2441406100988388,0.5187987685203552,86.66667175292969,26325.0,1.0
18:09:36.058825,138704.109375,144063.078125,164624.625,161221.625,188541.984375,185303.484375,686147.25,133441.703125,0.040771484375,1.00146484375,-0.097900390625,-1.2817381620407104,0.2746581733226776,0.6103515028953552,86.66667175292969,26326.0,1.0
18:09:36.060788,138682.5625,144025.34375,164613.09375,161225.734375,188530.453125,185282.828125,686079.75,133453.515625,0.04443359375,1.003662109375,-0.100830078125,-1.1596678495407104,0.3051757514476776,0.6713866591453552,86.66667175292969,26327.0,1.0
18:09:36.063298,138691.59375,144033.9375,164616.3125,161234.859375,188531.96875,185286.046875,686110.625,133460.484375,0.048095703125,1.006591796875,-0.1025390625,-0.9155272841453552,0.3356933295726776,0.8239745497703552,86.66667175292969,26328.0,1.0
18:09:36.066951,138711.890625,144060.671875,164624.71875,161238.15625,188537.6875,185289.984375,686284.3125,133456.46875,0.049560546875,1.00732421875,-0.103759765625,-0.8850097060203552,0.3967284858226776,0.9155272841453552,86.66667175292969,26329.0,1.0
18:09:36.077590,138716.1875,144070.40625,164635.265625,161234.578125,188553.609375,185309.46875,686227.375,133452.4375,0.048828125,1.008544921875,-0.1025390625,-0.7324218153953552,0.6103515028953552,1.0681151151657104,86.66667175292969,26330.0,1.0
18:09:36.077604,138689.984375,144031.15625,164619.078125,161227.609375,188537.875,185289.984375,686100.875,133450.03125,0.044677734375,1.010009765625,-0.1044921875,-0.6408690810203552,0.5187987685203552,1.1596678495407104,86.66667175292969,26331.0,1.0
18:09:36.085787,138681.3125,144019.71875,164606.65625,161224.390625,188520.796875,185274.609375,686147.0625,133451.453125,0.04150390625,1.0078125,-0.102783203125,-0.6103515028953552,0.6408690810203552,1.0986326932907104,86.66667175292969,26332.0,1.0
18:09:36.085841,138701.4375,144048.953125,164613.71875,161226.890625,188524.359375,185278.359375,686287.375,133448.765625,0.0390625,1.009765625,-0.1005859375,-0.5493163466453552,0.7324218153953552,1.0070799589157104,86.66667175292969,26333.0,1.0
18:09:36.085854,138705.453125,144059.59375,164619.171875,161219.296875,188534.5625,185291.859375,686296.375,133440.90625,0.0361328125,1.01025390625,-0.09912109375,-0.5187987685203552,0.7019042372703552,0.8850097060203552,86.66667175292969,26334.0,1.0
18:09:36.088232,138702.234375,144050.734375,164629.015625,161231.71875,188547.96875,185305.71875,686123.8125,133457.625,0.03662109375,1.010986328125,-0.097412109375,-0.5798339247703552,0.6408690810203552,0.7324218153953552,86.66667175292969,26335.0,1.0
18:09:36.092013,138688.640625,144031.875,164615.0625,161231.546875,188530.09375,185287.484375,686161.8125,133461.921875,0.034423828125,1.01220703125,-0.09375,-0.6408690810203552,0.5493163466453552,0.6713866591453552,86.66667175292969,26336.0,1.0
18:09:36.098845,138700.53125,144052.890625,164615.953125,161230.03125,188528.84375,185290.25,686240.5,133454.140625,0.032958984375,1.0126953125,-0.0966796875,-0.6103515028953552,0.4272460639476776,0.5798339247703552,86.66667175292969,26337.0,1.0
18:09:36.098858,138719.9375,144077.03125,164631.6875,161236.1875,188547.34375,185305.890625,686343.3125,133460.65625,0.034423828125,1.011962890625,-0.09716796875,-0.7324218153953552,0.3051757514476776,0.4577636420726776,86.66667175292969,26338.0,1.0
18:09:36.108267,138708.9375,144055.484375,164634.828125,161238.078125,188556.546875,185308.390625,686135.4375,133465.21875,0.03515625,1.013671875,-0.099365234375,-0.9155272841453552,0.3051757514476776,0.3662109076976776,86.66667175292969,26339.0,1.0
18:09:36.112595,138680.78125,144020.609375,164607.90625,161223.3125,188523.65625,185278.171875,686151.375,133450.5625,0.03662109375,1.013671875,-0.09814453125,-0.9460448622703552,0.1525878757238388,0.2746581733226776,86.66667175292969,26340.0,1.0
18:09:36.112617,138695.984375,144046.984375,164612.921875,161225.015625,188524.71875,185285.0625,686202.25,133448.234375,0.037353515625,1.012939453125,-0.0966796875,-1.0986326932907104,0.0610351525247097,0.2136230319738388,86.66667175292969,26341.0,1.0
18:09:36.118255,138707.78125,144061.375,164616.40625,161222.78125,188529.109375,185288.109375,686359.1875,133443.234375,0.0400390625,1.0126953125,-0.09326171875,-1.0986326932907104,0.0610351525247097,0.1831054538488388,86.66667175292969,26342.0,1.0
18:09:36.122585,138696.25,144048.421875,164619.078125,161219.296875,188540.015625,185295.4375,686148.875,133443.40625,0.044189453125,1.013671875,-0.0986328125,-1.2817381620407104,0.0610351525247097,0.2441406100988388,86.66667175292969,26343.0,1.0
18:09:36.122607,138674.078125,144015.34375,164602.546875,161218.484375,188519.8125,185271.03125,686152.625,133448.5,0.042724609375,1.0146484375,-0.097412109375,-1.3732908964157104,-0.03051757626235485,0.3662109076976776,86.66667175292969,26344.0,1.0
18:09:36.132014,138681.5,144028.125,164602.28125,161218.140625,188517.03125,185268.796875,686199.375,133447.96875,0.04345703125,1.013427734375,-0.095947265625,-1.3732908964157104,0.03051757626235485,0.5187987685203552,86.66667175292969,26345.0,1.0
18:09:36.136367,138696.25,144050.65625,164606.390625,161215.0,188519.453125,185275.671875,686389.5,133440.90625,0.0439453125,1.013427734375,-0.094482421875,-1.5563963651657104,0.0610351525247097,0.4577636420726776,86.66667175292969,26346.0,1.0
18:09:36.136406,138694.015625,144046.625,164615.234375,161213.3125,188535.90625,185292.65625,686192.125,133439.828125,0.041748046875,1.011962890625,-0.096923828125,-1.7700194120407104,0.0,0.4272460639476776,86.66667175292969,26347.0,1.0
18:09:36.146397,138676.578125,144014.171875,164603.53125,161217.5,188521.0625,185273.796875,686155.125,133447.34375,0.041015625,1.010498046875,-0.097900390625,-1.8005369901657104,-0.03051757626235485,0.5798339247703552,86.66667175292969,26348.0,1.0
18:09:36.146407,138680.0625,144022.046875,164601.921875,161219.46875,188514.890625,185267.453125,686191.6875,133447.703125,0.041748046875,1.009765625,-0.0966796875,-1.7700194120407104,-0.03051757626235485,0.5493163466453552,86.66667175292969,26349.0,1.0
18:09:36.148299,138700.453125,144054.765625,164609.15625,161221.171875,188517.65625,185275.859375,686364.875,133446.09375,0.04052734375,1.01025390625,-0.09716796875,-1.9531248807907104,-0.03051757626235485,0.6408690810203552,86.66667175292969,26350.0,1.0
18:09:36.156537,138698.296875,144052.890625,164614.796875,161214.921875,188530.890625,185290.421875,686223.8125,133439.734375,0.039306640625,1.011962890625,-0.09423828125,-1.9531248807907104,0.0,0.7324218153953552,86.66667175292969,26351.0,1.0
18:09:36.156608,138679.4375,144024.015625,164604.875,161217.234375,188520.34375,185277.46875,686116.125,133444.65625,0.0390625,1.0107421875,-0.093505859375,-2.105712652206421,-0.0915527269244194,0.7629393935203552,86.66667175292969,26352.0,1.0
18:09:36.166543,138671.921875,144016.40625,164595.484375,161213.125,188507.828125,185263.875,686131.0,133442.15625,0.039306640625,1.009033203125,-0.093994140625,-2.105712652206421,-0.0915527269244194,0.7934569716453552,86.66667175292969,26353.0,1.0
18:09:36.166617,138709.484375,144064.328125,164619.4375,161231.640625,188529.734375,185289.09375,686291.8125,133456.734375,0.039306640625,1.00927734375,-0.0947265625,-2.136230230331421,-0.1525878757238388,0.7934569716453552,86.66667175292969,26354.0,1.0
18:09:36.169063,138704.46875,144067.1875,164620.515625,161219.921875,188538.578125,185304.28125,686232.8125,133447.15625,0.039306640625,1.010498046875,-0.094482421875,-2.166747808456421,-0.2136230319738388,0.8239745497703552,86.66667175292969,26355.0,1.0
18:09:36.169132,138671.390625,144019.8125,164599.140625,161209.015625,188519.09375,185275.40625,686081.125,133439.734375,0.038330078125,1.007568359375,-0.093994140625,-2.258300542831421,-0.3356933295726776,0.6713866591453552,86.66667175292969,26356.0,1.0
18:09:36.182519,138664.0625,144006.484375,164589.578125,161209.734375,188504.15625,185257.4375,686094.9375,133441.984375,0.03759765625,1.00634765625,-0.095947265625,-2.319335699081421,-0.3051757514476776,0.5798339247703552,86.66667175292969,26357.0,1.0
18:09:36.190723,138695.984375,144050.5625,164611.046875,161226.09375,188522.046875,185278.71875,686216.3125,133453.59375,0.03759765625,1.005615234375,-0.094482421875,-2.349853277206421,-0.3051757514476776,0.5187987685203552,86.66667175292969,26358.0,1.0
18:09:36.190744,138709.390625,144069.703125,164624.8125,161228.6875,188539.921875,185299.640625,686255.0625,133455.03125,0.03564453125,1.00390625,-0.094970703125,-2.349853277206421,-0.4272460639476776,0.5187987685203552,86.66667175292969,26359.0,1.0
18:09:36.190748,138690.4375,144044.578125,164618.90625,161224.390625,188539.390625,185299.71875,686073.3125,133453.6875,0.036865234375,1.003173828125,-0.096435546875,-2.410888433456421,-0.6103515028953552,0.4577636420726776,86.66667175292969,26360.0,1.0
18:09:36.193913,138669.6875,144011.484375,164598.078125,161219.109375,188514.53125,185267.453125,686075.375,133454.5,0.0400390625,1.004150390625,-0.095947265625,-2.349853277206421,-0.6103515028953552,0.4272460639476776,86.66667175292969,26361.0,1.0
18:09:36.193937,138686.59375,144040.28125,164605.671875,161222.328125,188518.734375,185272.8125,686135.3125,133452.96875,0.041748046875,1.001220703125,-0.097412109375,-2.319335699081421,-0.7629393935203552,0.2441406100988388,86.66667175292969,26362.0,1.0
18:09:36.200824,138705.28125,144062.09375,164619.359375,161226.53125,188535.1875,185290.515625,686258.75,133451.359375,0.0419921875,1.001953125,-0.09423828125,-2.136230230331421,-0.7324218153953552,0.3051757514476776,86.66667175292969,26363.0,1.0
18:09:36.206969,138695.171875,144047.796875,164623.828125,161228.6875,188546.453125,185298.828125,686076.1875,133455.390625,0.042236328125,1.003173828125,-0.096923828125,-2.075195074081421,-0.6713866591453552,0.3356933295726776,86.66667175292969,26364.0,1.0
18:09:36.215111,138678.1875,144021.59375,164608.359375,161226.984375,188526.0625,185276.21875,686073.9375,133459.40625,0.043212890625,1.002197265625,-0.09619140625,-2.014159917831421,-0.6713866591453552,0.4272460639476776,86.66667175292969,26365.0,1.0
18:09:36.215125,138689.71875,144043.953125,164609.96875,161224.65625,188523.5625,185281.84375,686065.375,133455.390625,0.042724609375,1.001953125,-0.095703125,-1.8615721464157104,-0.4882812201976776,0.4882812201976776,86.66667175292969,26366.0,1.0
18:09:36.217690,138704.296875,144064.78125,164615.78125,161221.0,188528.390625,185287.390625,686228.0,133447.875,0.04443359375,1.001708984375,-0.09716796875,-1.7700194120407104,-0.3967284858226776,0.5493163466453552,86.66667175292969,26367.0,1.0
18:09:36.217740,138697.40625,144053.953125,164622.125,161221.984375,188542.15625,185298.5625,686059.375,133451.1875,0.045166015625,1.001953125,-0.098388671875,-1.7089842557907104,-0.3356933295726776,0.7019042372703552,86.66667175292969,26368.0,1.0
18:09:36.226931,138673.71875,144016.234375,164602.015625,161220.453125,188517.65625,185270.578125,686046.75,133453.0625,0.046630859375,1.002685546875,-0.095703125,-1.5869139432907104,-0.3356933295726776,0.8850097060203552,86.66667175292969,26369.0,1.0
18:09:36.233864,138674.78125,144026.6875,164596.28125,161212.765625,188509.078125,185266.734375,686034.0,133442.875,0.04736328125,1.002197265625,-0.096435546875,-1.4953612089157104,-0.3051757514476776,0.9155272841453552,86.66667175292969,26370.0,1.0
18:09:36.233878,138699.90625,144063.4375,164610.6875,161218.765625,188520.796875,185283.71875,686203.875,133443.40625,0.045166015625,1.001220703125,-0.098388671875,-1.3122557401657104,-0.1525878757238388,1.0375975370407104,86.66667175292969,26371.0,1.0
18:09:36.243921,138705.8125,144067.546875,164627.125,161225.90625,188546.359375,185307.859375,686079.6875,133452.171875,0.045166015625,1.0029296875,-0.099365234375,-1.1596678495407104,-0.1831054538488388,1.0681151151657104,86.66667175292969,26372.0,1.0
18:09:36.243936,138684.4375,144031.078125,164612.296875,161229.21875,188528.921875,185281.3125,686031.0625,133462.09375,0.046630859375,1.00634765625,-0.097412109375,-1.0070799589157104,-0.2441406100988388,1.0986326932907104,86.66667175292969,26373.0,1.0
18:09:36.246477,138685.515625,144035.546875,164608.171875,161223.859375,188520.703125,185275.140625,685999.9375,133456.734375,0.046142578125,1.008056640625,-0.099609375,-0.8850097060203552,-0.0915527269244194,1.1596678495407104,86.66667175292969,26374.0,1.0
18:09:36.246527,138709.203125,144067.28125,164618.8125,161229.84375,188526.78125,185284.703125,686161.5625,133453.421875,0.0458984375,1.007080078125,-0.097900390625,-0.9155272841453552,-0.0915527269244194,1.1291502714157104,86.66667175292969,26375.0,1.0
18:09:36.255926,138716.09375,144076.765625,164633.125,161231.359375,188548.59375,185308.390625,686101.0625,133454.9375,0.045166015625,1.00927734375,-0.0966796875,-0.7629393935203552,0.0610351525247097,1.0681151151657104,86.66667175292969,26376.0,1.0
18:09:36.260025,138689.984375,144038.140625,164617.125,161226.1875,188530.625,185289.09375,686025.5,133454.140625,0.0439453125,1.008056640625,-0.098388671875,-0.6713866591453552,0.0915527269244194,0.9460448622703552,86.66667175292969,26377.0,1.0
18:09:36.260047,138679.4375,144025.265625,164602.09375,161217.6875,188510.515625,185267.890625,686045.25,133446.53125,0.0419921875,1.0078125,-0.10009765625,-0.6408690810203552,0.3051757514476776,1.0375975370407104,86.66667175292969,26378.0,1.0
18:09:36.274737,138702.59375,144056.375,164612.375,161222.78125,188518.90625,185275.5,686134.5625,133446.71875,0.041015625,1.005126953125,-0.1005859375,-0.6713866591453552,0.1525878757238388,1.0070799589157104,86.66667175292969,26379.0,1.0
18:09:36.295415,138712.15625,144070.234375,164626.0625,161225.90625,188540.640625,185298.734375,686137.875,133448.328125,0.041259765625,1.006103515625,-0.096923828125,-0.6713866591453552,0.1831054538488388,0.9765624403953552,86.66667175292969,26380.0,1.0
18:09:36.295493,138700.09375,144049.484375,164626.234375,161233.78125,188542.96875,185299.375,685999.5625,133458.875,0.04248046875,1.007568359375,-0.099853515625,-0.6103515028953552,0.2136230319738388,0.8850097060203552,86.66667175292969,26381.0,1.0
18:09:36.295519,138688.5625,144034.46875,164613.359375,161232.4375,188525.53125,185279.875,686059.625,133460.3125,0.044677734375,1.008056640625,-0.099365234375,-0.5493163466453552,0.1831054538488388,0.7934569716453552,86.66667175292969,26382.0,1.0
18:09:36.295540,138696.515625,144053.78125,164609.875,161223.3125,188518.375,185276.21875,686118.0625,133447.78125,0.0458984375,1.00732421875,-0.10205078125,-0.5493163466453552,0.3051757514476776,0.8544921278953552,86.66667175292969,26383.0,1.0
18:09:36.295562,138696.0625,144058.515625,164609.515625,161212.6875,188523.828125,185285.0625,686151.5625,133440.28125,0.04638671875,1.009033203125,-0.1044921875,-0.6408690810203552,0.4577636420726776,0.8850097060203552,86.66667175292969,26384.0,1.0
18:09:36.298172,138676.125,144030.53125,164602.453125,161212.140625,188522.3125,185278.265625,685987.4375,133443.40625,0.0478515625,1.010498046875,-0.103759765625,-0.7629393935203552,0.5798339247703552,0.9155272841453552,86.66667175292969,26385.0,1.0
18:09:36.298222,138659.859375,144005.5,164585.015625,161208.203125,188501.75,185253.40625,686042.0625,133441.53125,0.05029296875,1.0107421875,-0.104736328125,-0.6408690810203552,0.5187987685203552,0.8239745497703552,86.66667175292969,26386.0,1.0
18:09:36.298245,138676.21875,144033.484375,164592.171875,161209.640625,188505.0625,185261.546875,686092.125,133437.953125,0.048583984375,1.01220703125,-0.102294921875,-0.6103515028953552,0.5493163466453552,0.7324218153953552,86.66667175292969,26387.0,1.0
18:09:36.300845,138709.125,144075.15625,164621.140625,161226.53125,188534.46875,185295.078125,686194.9375,133452.53125,0.046630859375,1.010986328125,-0.105712890625,-0.7324218153953552,0.6408690810203552,0.8850097060203552,86.66667175292969,26388.0,1.0
18:09:36.303233,138692.40625,144054.859375,164619.625,161221.890625,188538.671875,185295.171875,686006.75,133450.375,0.044677734375,1.010986328125,-0.10498046875,-0.8239745497703552,0.9155272841453552,0.8850097060203552,86.66667175292969,26389.0,1.0
18:09:36.305776,138658.703125,144007.015625,164587.53125,161206.515625,188502.28125,185253.859375,686018.9375,133440.1875,0.045654296875,1.008544921875,-0.100341796875,-0.8544921278953552,0.9460448622703552,0.8850097060203552,86.66667175292969,26390.0,1.0
18:09:36.316066,138679.078125,144034.203125,164598.34375,161214.375,188508.984375,185262.53125,686072.5,133442.875,0.04541015625,1.01123046875,-0.1005859375,-0.9155272841453552,0.9765624403953552,0.7324218153953552,86.66667175292969,26391.0,1.0
18:09:36.320127,138699.109375,144057.796875,164609.515625,161217.421875,188518.203125,185273.4375,686194.9375,133441.34375,0.045166015625,1.011474609375,-0.1025390625,-0.9460448622703552,1.0375975370407104,0.7324218153953552,86.66667175292969,26392.0,1.0
18:09:36.320172,138692.3125,144048.59375,164614.609375,161216.171875,188530.09375,185287.125,686016.625,133442.6875,0.042724609375,1.012939453125,-0.101806640625,-1.0070799589157104,1.0070799589157104,0.7324218153953552,86.66667175292969,26393.0,1.0
18:09:36.329489,138672.015625,144014.625,164597.625,161217.78125,188509.796875,185263.25,686017.875,133450.5625,0.041748046875,1.013671875,-0.102294921875,-1.2512205839157104,0.9765624403953552,0.5493163466453552,86.66667175292969,26394.0,1.0
18:09:36.332529,138683.015625,144036.609375,164603.078125,161218.765625,188513.546875,185272.1875,686037.1875,133452.703125,0.0390625,1.012939453125,-0.101318359375,-1.4343260526657104,1.0070799589157104,0.4577636420726776,86.66667175292969,26395.0,1.0
18:09:36.332557,138702.6875,144065.671875,164611.21875,161219.65625,188520.078125,185281.84375,686158.875,133446.0,0.038330078125,1.01123046875,-0.100341796875,-1.4343260526657104,0.9765624403953552,0.2441406100988388,86.66667175292969,26396.0,1.0
18:09:36.342254,138694.453125,144054.40625,164612.375,161213.578125,188529.1875,185285.234375,686018.25,133439.734375,0.0361328125,1.012451171875,-0.097412109375,-1.5869139432907104,0.9765624403953552,0.2136230319738388,86.66667175292969,26397.0,1.0
18:09:36.367635,138666.65625,144014.625,164593.421875,161208.75,188506.84375,185259.671875,685990.0625,133440.09375,0.03466796875,1.01123046875,-0.09716796875,-1.6174315214157104,0.7629393935203552,0.1220703050494194,86.66667175292969,26398.0,1.0
18:09:36.367653,138672.546875,144025.796875,164595.75,161210.09375,188505.140625,185260.390625,686086.5625,133443.5,0.03466796875,1.01318359375,-0.1005859375,-1.7089842557907104,0.7629393935203552,-0.0610351525247097,86.66667175292969,26399.0,1.0
18:09:36.392029,138696.421875,144056.015625,164604.609375,161213.21875,188510.859375,185268.96875,686166.6875,133440.90625,0.0361328125,1.01123046875,-0.098388671875,-1.8615721464157104,0.5798339247703552,-0.03051757626235485,86.66667175292969,26400.0,1.0
18:09:36.394464,138705.09375,144065.671875,164619.890625,161217.6875,188533.125,185291.5,686091.5,133444.75,0.038330078125,1.013671875,-0.10009765625,-2.014159917831421,0.5493163466453552,-0.1220703050494194,86.66667175292969,26401.0,1.0
18:09:36.396958,138692.671875,144042.34375,164618.28125,161227.4375,188531.4375,185285.421875,685992.125,133458.703125,0.0361328125,1.0107421875,-0.098876953125,-2.044677495956421,0.3967284858226776,-0.1220703050494194,86.66667175292969,26402.0,1.0
18:09:36.399459,138681.765625,144031.421875,164605.3125,161220.09375,188515.15625,185268.078125,686042.5625,133454.765625,0.037841796875,1.0107421875,-0.099609375,-2.197265386581421,0.2136230319738388,-0.0915527269244194,86.66667175292969,26403.0,1.0
18:09:36.401960,138705.90625,144064.78125,164616.9375,161227.796875,188524.546875,185279.34375,686134.375,133455.203125,0.038330078125,1.010498046875,-0.099609375,-2.258300542831421,0.2136230319738388,-0.03051757626235485,86.66667175292969,26404.0,1.0
18:09:36.404433,138718.15625,144082.296875,164633.296875,161231.90625,188545.921875,185304.015625,686121.1875,133458.34375,0.037109375,1.01025390625,-0.09814453125,-2.319335699081421,0.2136230319738388,-0.03051757626235485,86.66667175292969,26405.0,1.0
18:09:36.406910,138695.625,144049.765625,164623.375,161229.9375,188537.78125,185290.515625,685973.5625,133462.09375,0.036865234375,1.009521484375,-0.098876953125,-2.502441167831421,0.1525878757238388,0.1831054538488388,86.66667175292969,26406.0,1.0
18:09:36.409468,138673.890625,144021.0625,164601.921875,161218.765625,188512.03125,185262.53125,686071.0,133455.03125,0.037841796875,1.0078125,-0.0966796875,-2.410888433456421,0.0610351525247097,0.1831054538488388,86.66667175292969,26407.0,1.0
18:09:36.411918,138692.140625,144050.296875,164608.453125,161221.984375,188515.78125,185270.21875,686133.5625,133449.125,0.036865234375,1.007568359375,-0.095703125,-2.502441167831421,0.0610351525247097,0.3051757514476776,86.66667175292969,26408.0,1.0
18:09:36.414441,138708.046875,144073.1875,164621.40625,161223.59375,188531.96875,185289.09375,686162.9375,133449.21875,0.035400390625,1.009033203125,-0.097900390625,-2.502441167831421,-0.1525878757238388,0.3662109076976776,86.66667175292969,26409.0,1.0
18:09:36.417178,138697.765625,144057.359375,164624.890625,161227.078125,188540.015625,185296.6875,685979.625,133458.78125,0.033447265625,1.0078125,-0.097412109375,-2.502441167831421,-0.2441406100988388,0.4272460639476776,86.66667175292969,26410.0,1.0
18:09:36.419412,138668.53125,144019.625,164596.015625,161212.234375,188508.1875,185263.15625,686056.8125,133449.21875,0.033935546875,1.007080078125,-0.099609375,-2.593993902206421,-0.3662109076976776,0.4272460639476776,86.66667175292969,26411.0,1.0
18:09:36.421951,138679.265625,144040.28125,164596.203125,161210.4375,188505.953125,185262.0,686112.125,133441.34375,0.03466796875,1.009033203125,-0.09716796875,-2.685546636581421,-0.4577636420726776,0.6103515028953552,86.66667175292969,26412.0,1.0
18:09:36.425144,138698.125,144069.515625,164609.703125,161212.953125,188520.96875,185283.359375,686183.3125,133441.078125,0.034423828125,1.00927734375,-0.09814453125,-2.532958745956421,-0.5493163466453552,0.5493163466453552,86.66667175292969,26413.0,1.0
18:09:36.425152,138684.4375,144049.765625,164609.25,161210.09375,188526.609375,185285.328125,685985.875,133440.640625,0.034912109375,1.009033203125,-0.097900390625,-2.624511480331421,-0.6103515028953552,0.6713866591453552,86.66667175292969,26414.0,1.0
18:09:36.427550,138666.203125,144017.296875,164592.078125,161212.59375,188503.796875,185257.890625,686024.75,133447.34375,0.03369140625,1.010498046875,-0.09423828125,-2.624511480331421,-0.7324218153953552,0.7019042372703552,86.66667175292969,26415.0,1.0
18:09:36.427566,138674.25,144033.125,164592.0,161209.375,188499.0625,185257.25,686057.6875,133442.6875,0.03466796875,1.009033203125,-0.096923828125,-2.716064214706421,-0.7934569716453552,0.6408690810203552,86.66667175292969,26416.0,1.0
18:09:36.429470,138688.640625,144057.09375,164598.078125,161204.453125,188504.15625,185267.359375,686177.875,133434.828125,0.03466796875,1.009521484375,-0.09228515625,-2.685546636581421,-0.8239745497703552,0.6713866591453552,86.66667175292969,26417.0,1.0
18:09:36.432535,138682.5625,144049.40625,164605.40625,161203.921875,188520.875,185281.046875,686012.875,133436.25,0.03662109375,1.0107421875,-0.093505859375,-2.746581792831421,-0.9460448622703552,0.7019042372703552,86.66667175292969,26418.0,1.0
18:09:36.432542,138666.46875,144019.8125,164594.5,161210.53125,188507.015625,185263.34375,686013.625,133446.625,0.038818359375,1.01171875,-0.0927734375,-2.746581792831421,-0.9765624403953552,0.6713866591453552,86.66667175292969,26419.0,1.0
18:09:36.435075,138662.546875,144019.71875,164583.6875,161200.875,188492.1875,185248.046875,686056.0625,133434.734375,0.0400390625,1.010498046875,-0.094482421875,-2.746581792831421,-1.0375975370407104,0.7019042372703552,86.66667175292969,26420.0,1.0
18:09:36.435090,138684.359375,144049.765625,164593.0625,161202.484375,188498.625,185257.078125,686185.8125,133430.796875,0.04248046875,1.0107421875,-0.093505859375,-2.685546636581421,-1.0681151151657104,0.6713866591453552,86.66667175292969,26421.0,1.0
18:09:36.436920,138688.828125,144057.265625,164607.734375,161205.53125,188521.421875,185282.015625,686061.5,133435.265625,0.042236328125,1.010009765625,-0.096923828125,-2.746581792831421,-1.1596678495407104,0.6713866591453552,86.66667175292969,26422.0,1.0
18:09:36.443204,138674.609375,144028.5625,164599.859375,161215.90625,188512.125,185269.5,686000.8125,133448.765625,0.044189453125,1.009521484375,-0.093017578125,-2.746581792831421,-1.0070799589157104,0.6713866591453552,86.66667175292969,26423.0,1.0
18:09:36.451371,138670.140625,144027.5,164590.75,161209.015625,188498.890625,185259.21875,686034.1875,133443.140625,0.043701171875,1.008056640625,-0.095947265625,-2.655029058456421,-0.9765624403953552,0.7019042372703552,86.66667175292969,26424.0,1.0
18:09:36.451393,138694.28125,144062.71875,164602.8125,161213.84375,188506.9375,185271.734375,686164.1875,133440.90625,0.046630859375,1.007568359375,-0.097900390625,-2.716064214706421,-0.9460448622703552,0.7019042372703552,86.66667175292969,26425.0,1.0
18:09:36.453898,138704.734375,144076.484375,164620.515625,161217.421875,188531.875,185297.21875,686098.5625,133444.75,0.04736328125,1.00732421875,-0.0947265625,-2.655029058456421,-0.9460448622703552,0.5798339247703552,86.66667175292969,26426.0,1.0
18:09:36.453916,138685.421875,144043.234375,164612.296875,161218.484375,188525.0,185283.984375,686002.5,133451.453125,0.048583984375,1.006103515625,-0.09228515625,-2.563476324081421,-0.9155272841453552,0.6713866591453552,86.66667175292969,26427.0,1.0
18:09:36.463294,138684.796875,144039.46875,164608.09375,161220.90625,188517.125,185272.71875,686041.5625,133456.734375,0.049560546875,1.00537109375,-0.093505859375,-2.471923589706421,-0.7324218153953552,0.6408690810203552,86.66667175292969,26428.0,1.0
18:09:36.467612,138706.96875,144075.234375,164618.109375,161226.1875,188523.65625,185285.15625,686134.1875,133457.171875,0.048828125,1.0068359375,-0.09619140625,-2.471923589706421,-0.6713866591453552,0.5798339247703552,86.66667175292969,26429.0,1.0
18:09:36.467620,138711.890625,144083.828125,164626.0625,161222.78125,188536.34375,185297.9375,686146.125,133451.28125,0.048583984375,1.00537109375,-0.095947265625,-2.410888433456421,-0.5798339247703552,0.6103515028953552,86.66667175292969,26430.0,1.0
18:09:36.476998,138694.015625,144054.3125,164620.78125,161221.890625,188532.59375,185292.75,685985.5,133452.078125,0.050537109375,1.00439453125,-0.097900390625,-2.380370855331421,-0.4577636420726776,0.5493163466453552,86.66667175292969,26431.0,1.0
18:09:36.488110,138681.578125,144034.5625,164607.90625,161222.96875,188513.8125,185266.375,686014.9375,133457.171875,0.0478515625,1.003662109375,-0.095458984375,-2.380370855331421,-0.2136230319738388,0.4882812201976776,86.66667175292969,26432.0,1.0
18:09:36.488125,138697.3125,144065.765625,164612.46875,161221.625,188516.765625,185275.765625,686089.125,133451.09375,0.048583984375,1.003662109375,-0.092041015625,-2.258300542831421,-0.1220703050494194,0.4272460639476776,86.66667175292969,26433.0,1.0
18:09:36.488127,138700.453125,144071.65625,164611.671875,161210.53125,188518.640625,185279.34375,686170.25,133438.40625,0.047119140625,1.006591796875,-0.091552734375,-2.075195074081421,0.03051757626235485,0.4272460639476776,86.66667175292969,26434.0,1.0
18:09:36.493187,138684.625,144046.71875,164610.140625,161210.265625,188521.234375,185277.28125,685990.25,133444.21875,0.046142578125,1.006103515625,-0.0927734375,-2.044677495956421,0.2136230319738388,0.4577636420726776,86.66667175292969,26435.0,1.0
18:09:36.496371,138665.671875,144015.25,164591.015625,161205.609375,188497.09375,185248.859375,686015.0625,133443.3125,0.0478515625,1.0068359375,-0.091064453125,-2.014159917831421,0.2441406100988388,0.3356933295726776,86.66667175292969,26436.0,1.0
18:09:36.496378,138679.609375,144039.828125,164594.765625,161205.53125,188497.71875,185252.703125,686053.3125,133439.203125,0.046142578125,1.00830078125,-0.09228515625,-1.9531248807907104,0.3662109076976776,0.3662109076976776,86.66667175292969,26437.0,1.0
18:09:36.503186,138694.8125,144061.375,164603.4375,161205.171875,188506.9375,185265.65625,686195.375,133434.109375,0.04541015625,1.006591796875,-0.0927734375,-1.8920897245407104,0.4882812201976776,0.3356933295726776,86.66667175292969,26438.0,1.0
18:09:36.511308,138692.140625,144056.1875,164614.171875,161210.71875,188523.46875,185284.078125,686012.0,133441.34375,0.044677734375,1.006103515625,-0.09326171875,-1.8005369901657104,0.5187987685203552,0.2136230319738388,86.66667175292969,26439.0,1.0
18:09:36.511325,138663.703125,144015.78125,164588.328125,161200.4375,188492.359375,185250.546875,686023.4375,133435.890625,0.044677734375,1.00634765625,-0.093017578125,-1.8005369901657104,0.5187987685203552,0.1220703050494194,86.66667175292969,26440.0,1.0
18:09:36.513809,138670.234375,144032.234375,164587.25,161196.859375,188489.046875,185251.0,686017.6875,133432.671875,0.042724609375,1.00732421875,-0.092041015625,-1.8005369901657104,0.5493163466453552,0.2136230319738388,86.66667175292969,26441.0,1.0
18:09:36.513822,138689.984375,144061.375,164596.828125,161197.296875,188498.078125,185266.734375,686205.3125,133428.921875,0.04052734375,1.008056640625,-0.08984375,-1.8005369901657104,0.6103515028953552,0.1831054538488388,86.66667175292969,26442.0,1.0
18:09:36.540844,138678.28125,144047.703125,164596.46875,161188.1875,188506.75,185273.796875,686036.5625,133418.734375,0.040283203125,1.007080078125,-0.0908203125,-1.8005369901657104,0.6408690810203552,0.0610351525247097,86.66667175292969,26443.0,1.0
18:09:36.543797,138660.21875,144019.359375,164583.859375,161191.125,188492.359375,185259.21875,686024.75,133427.9375,0.0390625,1.0087890625,-0.0908203125,-1.6784666776657104,0.6408690810203552,0.03051757626235485,86.66667175292969,26444.0,1.0
18:09:36.543805,138672.28125,144037.6875,164589.40625,161198.546875,188495.671875,185262.984375,686027.1875,133435.265625,0.039306640625,1.00927734375,-0.09228515625,-1.6784666776657104,0.5798339247703552,0.0915527269244194,86.66667175292969,26445.0,1.0
18:09:36.546961,138695.703125,144069.15625,164599.859375,161205.078125,188502.90625,185272.453125,686215.0625,133434.640625,0.039306640625,1.008056640625,-0.090576171875,-1.6479490995407104,0.5493163466453552,0.0,86.66667175292969,26446.0,1.0
18:09:36.546970,138683.1875,144055.21875,164599.0625,161192.109375,188511.21875,185275.046875,686099.625,133423.5625,0.038330078125,1.010009765625,-0.091796875,-1.6174315214157104,0.5493163466453552,0.1220703050494194,86.66667175292969,26447.0,1.0
18:09:36.546972,138652.171875,144011.671875,164575.546875,161181.484375,188485.921875,185247.875,686033.625,133418.546875,0.036376953125,1.009521484375,-0.092041015625,-1.7089842557907104,0.5798339247703552,0.0610351525247097,86.66667175292969,26448.0,1.0
18:09:36.550001,138657.4375,144018.90625,164576.96875,161186.84375,188483.859375,185245.546875,686039.5625,133426.875,0.035400390625,1.008056640625,-0.093017578125,-1.6784666776657104,0.5798339247703552,0.1220703050494194,86.66667175292969,26449.0,1.0
18:09:36.550019,138683.28125,144055.921875,164590.203125,161194.4375,188495.3125,185260.46875,686202.5,133428.75,0.037109375,1.006103515625,-0.09326171875,-1.7395018339157104,0.4577636420726776,0.1831054538488388,86.66667175292969,26450.0,1.0
18:09:36.552037,138688.734375,144063.890625,164602.015625,161194.4375,188515.96875,185281.75,686160.875,133429.734375,0.0361328125,1.00634765625,-0.089111328125,-1.7089842557907104,0.3967284858226776,0.2441406100988388,86.66667175292969,26451.0,1.0
18:09:36.555717,138671.921875,144035.1875,164595.921875,161198.546875,188508.984375,185272.1875,686043.5625,133440.1875,0.037353515625,1.007568359375,-0.089599609375,-1.5869139432907104,0.3356933295726776,0.2746581733226776,86.66667175292969,26452.0,1.0
18:09:36.565781,138664.0625,144025.96875,164586.625,161196.046875,188493.875,185256.90625,686056.25,133441.53125,0.03564453125,1.008544921875,-0.087646484375,-1.5563963651657104,0.2136230319738388,0.2746581733226776,86.66667175292969,26453.0,1.0
18:09:36.570660,138686.765625,144060.578125,164596.828125,161198.828125,188500.234375,185266.734375,686183.9375,133435.625,0.03564453125,1.009765625,-0.088623046875,-1.5869139432907104,0.1831054538488388,0.4272460639476776,86.66667175292969,26454.0,1.0
18:09:36.570691,138706.703125,144085.96875,164617.65625,161207.671875,188525.625,185296.5,686208.75,133439.921875,0.03564453125,1.0087890625,-0.088623046875,-1.5563963651657104,0.1525878757238388,0.5187987685203552,86.66667175292969,26455.0,1.0
18:09:36.570703,138700.09375,144068.0,164623.109375,161220.375,188533.484375,185302.140625,686058.375,133452.796875,0.03662109375,1.0087890625,-0.0908203125,-1.4953612089157104,0.1220703050494194,0.4882812201976776,86.66667175292969,26456.0,1.0
18:09:36.573225,138675.328125,144033.578125,164597.1875,161207.578125,188503.453125,185263.25,686079.6875,133442.78125,0.036865234375,1.008056640625,-0.091552734375,-1.4648436307907104,0.0915527269244194,0.4882812201976776,86.66667175292969,26457.0,1.0
18:09:36.576955,138700.71875,144070.234375,164612.65625,161218.3125,188516.234375,185279.609375,686171.875,133449.390625,0.03564453125,1.009765625,-0.08837890625,-1.4343260526657104,0.03051757626235485,0.6713866591453552,86.66667175292969,26458.0,1.0
18:09:36.592553,138711.171875,144086.765625,164620.875,161215.359375,188528.5625,185293.828125,686268.125,133446.09375,0.03662109375,1.01025390625,-0.0849609375,-1.4648436307907104,-0.03051757626235485,0.6713866591453552,86.66667175292969,26459.0,1.0
18:09:36.592565,138698.578125,144065.765625,164621.40625,161213.65625,188533.75,185295.078125,686080.375,133447.4375,0.03515625,1.01123046875,-0.08642578125,-1.5258787870407104,0.0915527269244194,0.8239745497703552,86.66667175292969,26460.0,1.0
18:09:36.599972,138677.65625,144034.46875,164601.203125,161205.890625,188508.453125,185266.375,686099.4375,133445.203125,0.035888671875,1.009765625,-0.0908203125,-1.5869139432907104,-0.03051757626235485,0.7629393935203552,86.66667175292969,26461.0,1.0
18:09:36.599988,138686.046875,144054.234375,164601.734375,161202.046875,188505.5,185268.34375,686149.3125,133436.4375,0.0361328125,1.009033203125,-0.092529296875,-1.5258787870407104,-0.1220703050494194,0.7934569716453552,86.66667175292969,26462.0,1.0
18:09:36.602229,138702.953125,144078.015625,164610.40625,161203.46875,188513.1875,185281.84375,686293.875,133434.828125,0.035400390625,1.008056640625,-0.09423828125,-1.4343260526657104,-0.03051757626235485,0.7629393935203552,86.66667175292969,26463.0,1.0
18:09:36.610486,138692.046875,144062.28125,164613.09375,161203.5625,188523.5625,185291.328125,686088.1875,133440.546875,0.03662109375,1.009521484375,-0.093505859375,-1.3732908964157104,-0.1220703050494194,0.7629393935203552,86.66667175292969,26464.0,1.0
18:09:36.610582,138667.90625,144027.234375,164591.8125,161197.921875,188498.34375,185264.953125,686084.9375,133438.671875,0.03759765625,1.010009765625,-0.0908203125,-1.3427733182907104,-0.1525878757238388,0.8239745497703552,86.66667175292969,26465.0,1.0
18:09:36.611549,138664.0625,144028.5625,164581.171875,161187.28125,188484.578125,185252.078125,686089.9375,133424.546875,0.04052734375,1.010009765625,-0.0888671875,-1.4038084745407104,-0.2441406100988388,0.8544921278953552,86.66667175292969,26466.0,1.0
18:09:36.619438,138681.9375,144051.015625,164588.859375,161191.484375,188491.546875,185255.46875,686267.875,133423.921875,0.04150390625,1.00927734375,-0.0908203125,-1.3427733182907104,-0.1831054538488388,0.9460448622703552,86.66667175292969,26467.0,1.0
18:09:36.627578,138677.203125,144045.203125,164597.1875,161189.796875,188507.375,185268.796875,686091.125,133422.84375,0.04150390625,1.010009765625,-0.09228515625,-1.2817381620407104,-0.1831054538488388,0.7019042372703552,86.66667175292969,26468.0,1.0
18:09:36.627645,138678.09375,144031.609375,164602.015625,161212.5,188509.53125,185263.421875,686083.0625,133451.0,0.041748046875,1.010498046875,-0.093017578125,-1.2207030057907104,-0.2136230319738388,0.8544921278953552,86.66667175292969,26469.0,1.0
18:09:36.633809,138671.390625,144031.421875,164590.03125,161201.0625,188495.671875,185251.09375,686090.3125,133441.171875,0.042236328125,1.010498046875,-0.091796875,-1.2512205839157104,-0.2136230319738388,1.0375975370407104,86.66667175292969,26470.0,1.0
18:09:36.633832,138674.96875,144045.109375,164580.640625,161186.75,188483.953125,185246.796875,686266.25,133421.234375,0.04345703125,1.007568359375,-0.0908203125,-1.0986326932907104,-0.2136230319738388,1.0681151151657104,86.66667175292969,26471.0,1.0
18:09:36.636343,138679.890625,144050.921875,164592.796875,161188.8125,188505.0625,185270.84375,686149.75,133425.171875,0.04443359375,1.005126953125,-0.092041015625,-1.1596678495407104,-0.0915527269244194,1.1291502714157104,86.66667175292969,26472.0,1.0
18:09:36.636412,138664.953125,144024.359375,164585.828125,161195.875,188497.09375,185261.1875,686091.375,133438.40625,0.04296875,1.005126953125,-0.0947265625,-1.0375975370407104,-0.1525878757238388,1.0986326932907104,86.66667175292969,26473.0,1.0
18:09:36.645795,138663.171875,144023.203125,164579.484375,161193.90625,188488.609375,185249.921875,686103.625,133438.671875,0.043212890625,1.0029296875,-0.09423828125,-0.8850097060203552,0.0610351525247097,1.0070799589157104,86.66667175292969,26474.0,1.0
18:09:36.650033,138684.53125,144054.234375,164588.328125,161197.484375,188493.703125,185257.609375,686262.3125,133437.953125,0.0419921875,1.00341796875,-0.09228515625,-0.8239745497703552,0.03051757626235485,1.1901854276657104,86.66667175292969,26475.0,1.0
18:09:36.650094,138684.625,144055.125,164593.25,161192.5625,188503.984375,185268.96875,686198.4375,133431.78125,0.041015625,1.006103515625,-0.0888671875,-0.7934569716453552,0.1220703050494194,1.0375975370407104,86.66667175292969,26476.0,1.0
18:09:36.657123,138673.0,144034.640625,164591.640625,161199.53125,188502.375,185268.515625,686085.5,133438.046875,0.04052734375,1.00634765625,-0.08837890625,-0.7019042372703552,0.1220703050494194,0.9765624403953552,86.66667175292969,26477.0,1.0
18:09:36.665196,138658.0625,144014.4375,164574.296875,161190.421875,188482.078125,185247.15625,686101.25,133432.859375,0.040771484375,1.0068359375,-0.08984375,-0.7934569716453552,0.1831054538488388,0.8850097060203552,86.66667175292969,26478.0,1.0
18:09:36.665265,138675.421875,144044.84375,164579.75,161188.625,188483.6875,185249.75,686217.1875,133426.234375,0.04052734375,1.00341796875,-0.0927734375,-0.7629393935203552,0.1525878757238388,0.8544921278953552,86.66667175292969,26479.0,1.0
18:09:36.666961,138693.65625,144070.046875,164599.859375,161194.53125,188507.828125,185278.71875,686241.5625,133430.0,0.0419921875,1.0029296875,-0.09130859375,-0.8239745497703552,0.1525878757238388,0.8239745497703552,86.66667175292969,26480.0,1.0
18:09:36.678783,138685.78125,144053.78125,164605.671875,161205.96875,188514.984375,185283.546875,686081.375,133444.921875,0.0439453125,1.005859375,-0.093994140625,-0.6408690810203552,0.1831054538488388,0.7629393935203552,86.66667175292969,26481.0,1.0
18:09:36.678796,138673.09375,144033.9375,164591.640625,161205.34375,188495.671875,185261.8125,686099.6875,133446.890625,0.046142578125,1.0048828125,-0.09326171875,-0.6408690810203552,0.0915527269244194,0.7934569716453552,86.66667175292969,26482.0,1.0
18:09:36.681421,138674.078125,144046.546875,164581.890625,161192.5625,188483.15625,185253.859375,686165.875,133430.4375,0.05029296875,1.007568359375,-0.0966796875,-0.4882812201976776,0.2136230319738388,0.8544921278953552,86.66667175292969,26483.0,1.0
18:09:36.681482,138682.65625,144056.90625,164585.203125,161186.578125,188489.40625,185260.390625,686270.8125,133422.125,0.05126953125,1.00830078125,-0.095458984375,-0.3967284858226776,0.4577636420726776,0.9765624403953552,86.66667175292969,26484.0,1.0
18:09:36.688344,138673.265625,144041.171875,164589.140625,161188.453125,188499.6875,185268.703125,686082.6875,133427.21875,0.05322265625,1.00634765625,-0.097900390625,-0.3967284858226776,0.6408690810203552,1.0375975370407104,86.66667175292969,26485.0,1.0
18:09:36.692121,138660.65625,144019.453125,164578.3125,161191.125,188484.765625,185251.796875,686103.625,133436.703125,0.051513671875,1.00537109375,-0.098388671875,-0.3356933295726776,0.6713866591453552,1.2512205839157104,86.66667175292969,26486.0,1.0
18:09:36.702559,138676.3125,144041.359375,164584.671875,161197.21875,188490.390625,185255.640625,686159.1875,133441.078125,0.048828125,1.005615234375,-0.10009765625,-0.1831054538488388,0.7934569716453552,1.1596678495407104,86.66667175292969,26487.0,1.0
18:09:36.702611,138692.84375,144067.453125,164595.03125,161196.671875,188500.859375,185270.671875,686319.1875,133433.75,0.044921875,1.00830078125,-0.09765625,-0.1220703050494194,0.9460448622703552,0.9765624403953552,86.66667175292969,26488.0,1.0
18:09:36.706990,138684.53125,144056.546875,164601.390625,161196.40625,188513.90625,185282.921875,686119.8125,133434.203125,0.0439453125,1.010498046875,-0.0966796875,0.0,0.8544921278953552,1.0681151151657104,86.66667175292969,26489.0,1.0
18:09:36.709416,138663.96875,144021.5,164585.921875,161198.203125,188493.4375,185258.953125,686118.1875,133440.640625,0.04296875,1.01123046875,-0.0947265625,-0.0610351525247097,1.0070799589157104,0.8544921278953552,86.66667175292969,26490.0,1.0
18:09:36.745856,138666.46875,144030.0,164580.734375,161191.484375,188484.484375,185249.484375,686127.75,133434.203125,0.03955078125,1.0126953125,-0.09716796875,-0.0610351525247097,0.9765624403953552,0.7629393935203552,86.66667175292969,26491.0,1.0
18:09:36.771509,138690.25,144064.78125,164594.3125,161198.828125,188498.265625,185266.5625,686310.6875,133438.21875,0.0380859375,1.013671875,-0.09716796875,-0.0915527269244194,0.9155272841453552,0.6103515028953552,86.66667175292969,26492.0,1.0
18:09:36.771551,138684.625,144058.875,164600.578125,161196.140625,188513.640625,185281.484375,686143.4375,133437.953125,0.038330078125,1.012451171875,-0.098388671875,-0.1220703050494194,0.9460448622703552,0.5493163466453552,86.66667175292969,26493.0,1.0
18:09:36.773502,138660.390625,144022.84375,164583.140625,161192.203125,188493.15625,185257.34375,686095.125,133438.40625,0.03759765625,1.011474609375,-0.09423828125,-0.2136230319738388,0.8239745497703552,0.3967284858226776,86.66667175292969,26494.0,1.0
18:09:36.775977,138661.5625,144030.265625,164580.734375,161189.875,188487.703125,185252.421875,686085.9375,133435.453125,0.036376953125,1.01220703125,-0.093994140625,-0.2746581733226776,0.6408690810203552,0.3051757514476776,86.66667175292969,26495.0,1.0
18:09:36.778283,138676.75,144051.90625,164582.15625,161188.1875,188487.890625,185253.765625,686254.8125,133429.015625,0.03759765625,1.0126953125,-0.09375,-0.2746581733226776,0.4882812201976776,0.2136230319738388,86.66667175292969,26496.0,1.0
18:09:36.780817,138677.921875,144056.46875,164591.546875,161183.984375,188504.78125,185275.578125,686144.3125,133425.078125,0.03857421875,1.014404296875,-0.09716796875,-0.3662109076976776,0.4272460639476776,0.1831054538488388,86.66667175292969,26497.0,1.0
18:09:36.783309,138657.09375,144025.96875,164581.359375,161184.96875,188493.875,185262.625,686070.375,133433.75,0.039794921875,1.01220703125,-0.094482421875,-0.5493163466453552,0.3967284858226776,0.2441406100988388,86.66667175292969,26498.0,1.0
18:09:36.785844,138657.984375,144029.375,164579.5625,161189.078125,188491.28125,185260.203125,686075.9375,133443.234375,0.04296875,1.012939453125,-0.095703125,-0.6408690810203552,0.3051757514476776,0.1831054538488388,86.66667175292969,26499.0,1.0
18:09:36.788314,138679.703125,144058.875,164588.0625,161192.03125,188496.828125,185265.03125,686227.0,133436.4375,0.0439453125,1.012939453125,-0.095947265625,-0.7019042372703552,0.2746581733226776,0.3356933295726776,86.66667175292969,26500.0,1.0
18:09:36.790976,138683.734375,144066.203125,164594.59375,161187.015625,188508.0,185280.6875,686194.1875,133427.9375,0.042724609375,1.013671875,-0.094482421875,-0.7934569716453552,0.2746581733226776,0.3356933295726776,86.66667175292969,26501.0,1.0
18:09:36.793364,138658.15625,144027.859375,164579.296875,161181.828125,188491.90625,185261.1875,686056.0625,133424.625,0.04150390625,1.01220703125,-0.0947265625,-0.8544921278953552,0.3356933295726776,0.3662109076976776,86.66667175292969,26502.0,1.0
18:09:36.795714,138653.328125,144014.703125,164572.140625,161185.953125,188479.578125,185243.046875,686060.5625,133433.296875,0.03857421875,1.01123046875,-0.096923828125,-0.8850097060203552,0.3356933295726776,0.4577636420726776,86.66667175292969,26503.0,1.0
18:09:36.798250,138672.734375,144046.265625,164578.046875,161188.546875,188480.5625,185254.21875,686151.3125,133429.734375,0.038818359375,1.01318359375,-0.096435546875,-0.9765624403953552,0.3051757514476776,0.4272460639476776,86.66667175292969,26504.0,1.0
18:09:36.800777,138684.796875,144062.90625,164589.140625,161190.59375,188493.875,185268.609375,686197.0625,133428.03125,0.03369140625,1.01171875,-0.093994140625,-1.1291502714157104,0.3356933295726776,0.4882812201976776,86.66667175292969,26505.0,1.0
18:09:36.803316,138670.9375,144042.515625,164588.59375,161192.203125,188497.015625,185269.6875,686024.75,133432.40625,0.035400390625,1.01513671875,-0.09423828125,-1.1901854276657104,0.3051757514476776,0.5187987685203552,86.66667175292969,26506.0,1.0
18:09:36.808257,138650.015625,144010.0625,164567.140625,161184.0625,188471.34375,185236.609375,686021.8125,133427.046875,0.0361328125,1.0146484375,-0.09326171875,-1.3732908964157104,0.2136230319738388,0.5493163466453552,86.66667175292969,26507.0,1.0
18:09:36.811304,138672.109375,144043.140625,164578.234375,161189.4375,188479.578125,185248.578125,686051.125,133426.953125,0.035888671875,1.01416015625,-0.095703125,-1.5258787870407104,0.03051757626235485,0.5493163466453552,86.66667175292969,26508.0,1.0
18:09:36.811317,138697.765625,144072.015625,164598.96875,161201.328125,188503.0,185275.234375,686172.5,133438.40625,0.035888671875,1.014404296875,-0.095703125,-1.6784666776657104,-0.03051757626235485,0.6103515028953552,86.66667175292969,26509.0,1.0
18:09:36.814445,138683.375,144051.453125,164598.703125,161199.984375,188509.34375,185279.96875,685985.0,133442.25,0.033935546875,1.01220703125,-0.0927734375,-1.8920897245407104,-0.2441406100988388,0.5798339247703552,86.66667175292969,26510.0,1.0
18:09:36.814455,138660.03125,144017.578125,164576.703125,161194.703125,188484.140625,185250.546875,686046.0,133444.75,0.034912109375,1.013427734375,-0.094970703125,-1.9531248807907104,-0.3967284858226776,0.5493163466453552,86.66667175292969,26511.0,1.0
18:09:36.814457,138664.78125,144030.171875,164572.140625,161187.015625,188477.421875,185243.3125,686084.75,133432.5,0.034423828125,1.012451171875,-0.097412109375,-2.044677495956421,-0.4882812201976776,0.5493163466453552,86.66667175292969,26512.0,1.0
18:09:36.817022,138686.328125,144061.203125,164585.5625,161189.515625,188489.953125,185262.796875,686190.625,133428.65625,0.03515625,1.01220703125,-0.0947265625,-2.105712652206421,-0.5798339247703552,0.5798339247703552,86.66667175292969,26513.0,1.0
18:09:36.819467,138682.65625,144054.9375,164597.1875,161195.953125,188509.703125,185282.375,686021.9375,133436.609375,0.03466796875,1.0126953125,-0.094482421875,-2.197265386581421,-0.7934569716453552,0.6103515028953552,86.66667175292969,26514.0,1.0
18:09:36.824397,138655.75,144010.421875,164573.125,161191.9375,188482.53125,185243.125,686038.625,133438.125,0.03564453125,1.012939453125,-0.093505859375,-2.380370855331421,-0.8544921278953552,0.4882812201976776,86.66667175292969,26515.0,1.0
18:09:36.824410,138659.40625,144023.921875,164569.90625,161186.390625,188475.109375,185241.96875,686050.6875,133433.578125,0.036865234375,1.00927734375,-0.092529296875,-2.502441167831421,-0.9155272841453552,0.3662109076976776,86.66667175292969,26516.0,1.0
18:09:36.824414,138676.3125,144052.265625,164576.4375,161186.9375,188480.828125,185253.328125,686185.25,133430.796875,0.03564453125,1.00634765625,-0.095947265625,-2.502441167831421,-1.0375975370407104,0.2746581733226776,86.66667175292969,26517.0,1.0
18:09:36.827501,138669.421875,144043.40625,164580.28125,161184.96875,188493.25,185264.3125,686045.0625,133430.890625,0.036376953125,1.00634765625,-0.094970703125,-2.471923589706421,-1.0070799589157104,0.3051757514476776,86.66667175292969,26518.0,1.0
18:09:36.827507,138649.3125,144010.78125,164567.046875,161189.25,188476.4375,185245.28125,686013.5,133441.171875,0.0380859375,1.005126953125,-0.094482421875,-2.410888433456421,-1.0070799589157104,0.3662109076976776,86.66667175292969,26519.0,1.0
18:09:36.829403,138654.40625,144019.890625,164566.609375,161190.859375,188471.796875,185244.375,686081.4375,133442.328125,0.04052734375,1.00390625,-0.09375,-2.258300542831421,-1.0681151151657104,0.3662109076976776,86.66667175292969,26520.0,1.0
18:09:36.836313,138670.40625,144045.28125,164569.734375,161188.359375,188472.6875,185246.796875,686165.3125,133434.734375,0.043212890625,1.002685546875,-0.095947265625,-2.197265386581421,-1.0070799589157104,0.3051757514476776,86.66667175292969,26521.0,1.0
18:09:36.836323,138669.15625,144042.6875,164577.328125,161184.25,188487.703125,185258.421875,686064.3125,133431.25,0.04443359375,1.0029296875,-0.09619140625,-2.197265386581421,-0.9460448622703552,0.5187987685203552,86.66667175292969,26522.0,1.0
18:09:36.843852,138650.015625,144009.25,164566.875,161184.78125,188476.265625,185240.265625,685986.625,133433.21875,0.045654296875,1.002685546875,-0.097900390625,-2.136230230331421,-0.9765624403953552,0.6713866591453552,86.66667175292969,26523.0,1.0
18:09:36.843864,138641.890625,144004.515625,164553.640625,161176.5625,188459.09375,185228.734375,686068.5,133425.078125,0.04541015625,1.00048828125,-0.099853515625,-2.014159917831421,-0.8850097060203552,0.7019042372703552,86.66667175292969,26524.0,1.0
18:09:36.853901,138669.875,144045.203125,164568.21875,161186.03125,188469.921875,185243.75,686143.875,133428.03125,0.04541015625,1.0,-0.098876953125,-1.9226073026657104,-0.7324218153953552,0.7629393935203552,86.66667175292969,26525.0,1.0
18:09:36.853909,138676.84375,144053.15625,164578.40625,161183.984375,188487.265625,185263.6875,686114.125,133425.96875,0.044677734375,1.00244140625,-0.09521484375,-1.8615721464157104,-0.7629393935203552,0.8239745497703552,86.66667175292969,26526.0,1.0
18:09:36.856409,138650.015625,144017.21875,164564.546875,161178.96875,188474.75,185247.421875,685971.3125,133424.09375,0.04541015625,1.00244140625,-0.096923828125,-1.7700194120407104,-0.7019042372703552,0.7934569716453552,86.66667175292969,26527.0,1.0
18:09:36.856421,138634.828125,143994.953125,164548.8125,161174.40625,188456.0625,185222.5625,686053.6875,133422.484375,0.046142578125,1.00390625,-0.098876953125,-1.6479490995407104,-0.6103515028953552,0.8850097060203552,86.66667175292969,26528.0,1.0
18:09:36.865826,138658.96875,144028.296875,164561.0625,161183.0,188464.015625,185232.3125,686133.4375,133424.1875,0.044921875,1.00439453125,-0.097900390625,-1.5869139432907104,-0.5187987685203552,0.9155272841453552,86.66667175292969,26529.0,1.0
18:09:36.872557,138673.625,144045.203125,164576.078125,161183.53125,188481.09375,185248.578125,686164.625,133422.046875,0.044677734375,1.00830078125,-0.0986328125,-1.5869139432907104,-0.4272460639476776,1.0070799589157104,86.66667175292969,26530.0,1.0
18:09:36.872568,138669.875,144033.125,164586.09375,161193.453125,188494.59375,185256.71875,685992.4375,133435.8125,0.043701171875,1.006103515625,-0.098388671875,-1.5258787870407104,-0.4272460639476776,0.8239745497703552,86.66667175292969,26531.0,1.0
18:09:36.882554,138652.96875,144008.1875,164568.390625,161188.984375,188472.78125,185233.203125,686038.8125,133437.234375,0.0419921875,1.006103515625,-0.099609375,-1.4038084745407104,-0.3967284858226776,0.7629393935203552,86.66667175292969,26532.0,1.0
18:09:36.882580,138664.5,144030.265625,164570.09375,161185.671875,188473.3125,185235.53125,686097.0,133429.1875,0.042236328125,1.00927734375,-0.10009765625,-1.3732908964157104,-0.4272460639476776,0.9155272841453552,86.66667175292969,26533.0,1.0
18:09:36.884459,138682.125,144054.5,164583.140625,161187.015625,188489.859375,185255.109375,686184.375,133425.171875,0.046142578125,1.010986328125,-0.09814453125,-1.3732908964157104,-0.2746581733226776,0.8544921278953552,86.66667175292969,26534.0,1.0
18:09:36.890748,138676.125,144046.09375,164592.53125,161192.203125,188506.390625,185271.734375,685995.75,133434.015625,0.046875,1.01123046875,-0.09765625,-1.4038084745407104,-0.1831054538488388,0.7324218153953552,86.66667175292969,26535.0,1.0
18:09:36.902012,138652.34375,144009.796875,164571.078125,161187.28125,188482.34375,185241.34375,686037.5625,133436.171875,0.045166015625,1.0107421875,-0.097412109375,-1.3732908964157104,-0.1220703050494194,0.7019042372703552,86.66667175292969,26536.0,1.0
18:09:36.902026,138657.359375,144024.984375,164567.765625,161180.765625,188477.15625,185239.28125,686079.5625,133427.765625,0.04443359375,1.010498046875,-0.09619140625,-1.2817381620407104,-0.03051757626235485,0.6103515028953552,86.66667175292969,26537.0,1.0
18:09:36.902029,138671.75,144047.25,164573.046875,161179.234375,188481.984375,185247.15625,686191.1875,133421.953125,0.0439453125,1.0107421875,-0.098388671875,-1.3732908964157104,0.0,0.6103515028953552,86.66667175292969,26538.0,1.0
18:09:36.904526,138663.4375,144041.890625,164578.3125,161177.1875,188495.125,185265.75,686008.6875,133422.75,0.0439453125,1.011962890625,-0.0986328125,-1.4038084745407104,0.0,0.6408690810203552,86.66667175292969,26539.0,1.0
18:09:36.909546,138645.90625,144008.71875,164565.984375,161181.390625,188478.953125,185242.59375,686004.1875,133431.96875,0.046875,1.01123046875,-0.09912109375,-1.4343260526657104,0.0915527269244194,0.6408690810203552,86.66667175292969,26540.0,1.0
18:09:36.917278,138654.046875,144019.1875,164566.78125,161183.265625,188476.09375,185236.78125,686022.75,133434.734375,0.047607421875,1.009521484375,-0.099853515625,-1.4953612089157104,0.2136230319738388,0.6713866591453552,86.66667175292969,26541.0,1.0
18:09:36.924502,138682.125,144057.53125,164582.515625,161191.84375,188489.859375,185256.71875,686192.875,133437.953125,0.047607421875,1.009765625,-0.10302734375,-1.5258787870407104,0.2746581733226776,0.6103515028953552,86.66667175292969,26542.0,1.0
18:09:36.924580,138680.25,144058.25,164590.75,161190.328125,188506.125,185275.046875,686060.5625,133438.046875,0.048095703125,1.0087890625,-0.103515625,-1.4953612089157104,0.3356933295726776,0.6713866591453552,86.66667175292969,26543.0,1.0
18:09:36.924689,138653.953125,144016.859375,164571.796875,161187.46875,188485.46875,185246.53125,686015.8125,133440.640625,0.04736328125,1.009765625,-0.100341796875,-1.5563963651657104,0.5493163466453552,0.6408690810203552,86.66667175292969,26544.0,1.0
18:09:36.935094,138659.5,144025.53125,164573.046875,161189.875,188482.796875,185246.34375,686014.75,133440.8125,0.046875,1.0087890625,-0.10205078125,-1.6174315214157104,0.6408690810203552,0.7019042372703552,86.66667175292969,26545.0,1.0
18:09:36.935103,138683.375,144059.40625,164583.859375,161194.34375,188489.3125,185257.609375,686166.0625,133437.328125,0.04541015625,1.01025390625,-0.10009765625,-1.6174315214157104,0.6408690810203552,0.6103515028953552,86.66667175292969,26546.0,1.0
18:09:36.942883,138682.5625,144062.625,164591.1875,161190.59375,188502.90625,185274.78125,686092.3125,133433.296875,0.045654296875,1.010009765625,-0.100830078125,-1.6174315214157104,0.6103515028953552,0.6103515028953552,86.66667175292969,26547.0,1.0
18:09:36.942937,138657.53125,144023.5625,164575.71875,161187.46875,188484.671875,185252.421875,685987.6875,133433.296875,0.04443359375,1.00927734375,-0.10205078125,-1.6174315214157104,0.7324218153953552,0.5798339247703552,86.66667175292969,26548.0,1.0
18:09:36.944990,138651.546875,144016.671875,164565.890625,161183.890625,188470.0,185236.421875,686032.8125,133430.796875,0.04443359375,1.010009765625,-0.09912109375,-1.7089842557907104,0.8544921278953552,0.4577636420726776,86.66667175292969,26549.0,1.0
18:09:36.944998,138674.078125,144049.21875,164574.828125,161189.25,188476.0,185245.28125,686146.375,133429.109375,0.0439453125,1.008544921875,-0.09814453125,-1.7089842557907104,0.8544921278953552,0.4577636420726776,86.66667175292969,26550.0,1.0
18:09:36.960696,138686.859375,144066.75,164590.65625,161192.734375,188500.671875,185275.40625,686145.5,133433.03125,0.04296875,1.009765625,-0.098876953125,-1.7700194120407104,0.8850097060203552,0.3051757514476776,86.66667175292969,26551.0,1.0
18:09:36.964587,138663.25,144031.078125,164580.546875,161188.359375,188493.078125,185257.796875,685990.4375,133435.71875,0.03955078125,1.010986328125,-0.099609375,-1.7700194120407104,0.8850097060203552,0.3356933295726776,86.66667175292969,26552.0,1.0
18:09:36.964617,138657.171875,144020.4375,164573.9375,161192.109375,188481.359375,185241.34375,686003.75,133441.171875,0.03857421875,1.009765625,-0.0986328125,-1.8310545682907104,0.8850097060203552,0.1831054538488388,86.66667175292969,26553.0,1.0
18:09:36.964630,138679.53125,144053.25,164583.5,161197.03125,188486.375,185252.15625,686084.9375,133440.015625,0.037353515625,1.00927734375,-0.09619140625,-1.9226073026657104,0.7629393935203552,0.03051757626235485,86.66667175292969,26554.0,1.0
18:09:36.967039,138685.703125,144064.421875,164586.90625,161191.484375,188492.984375,185264.046875,686163.4375,133433.75,0.03662109375,1.01025390625,-0.096923828125,-1.9531248807907104,0.6713866591453552,-0.1525878757238388,86.66667175292969,26555.0,1.0
18:09:36.969543,138668.53125,144037.59375,164582.96875,161189.25,188493.25,185259.84375,685979.75,133430.625,0.0361328125,1.01123046875,-0.093505859375,-2.044677495956421,0.6408690810203552,-0.2136230319738388,86.66667175292969,26556.0,1.0
18:09:36.978459,138646.625,144006.75,164561.78125,161181.03125,188466.875,185228.921875,686009.5,133424.625,0.03515625,1.012451171875,-0.09375,-2.166747808456421,0.5187987685203552,-0.2746581733226776,86.66667175292969,26557.0,1.0
18:09:36.988973,138677.03125,144048.421875,164581.53125,161193.28125,188482.96875,185248.140625,686055.4375,133432.5,0.036376953125,1.01220703125,-0.09326171875,-2.258300542831421,0.4577636420726776,-0.3051757514476776,86.66667175292969,26558.0,1.0
18:09:36.989009,138685.34375,144065.578125,164584.671875,161187.015625,188489.953125,185258.0625,686187.875,133426.6875,0.037841796875,1.013427734375,-0.09228515625,-2.258300542831421,0.3662109076976776,-0.1525878757238388,86.66667175292969,26559.0,1.0
18:09:36.991403,138672.828125,144050.390625,164585.828125,161183.625,188498.703125,185267.0,685996.5,133426.78125,0.037353515625,1.013916015625,-0.0947265625,-2.380370855331421,0.3356933295726776,-0.1525878757238388,86.66667175292969,26560.0,1.0
18:09:36.991418,138650.375,144015.34375,164567.5,161180.21875,188473.578125,185240.359375,686024.0,133428.125,0.03759765625,1.01171875,-0.094482421875,-2.502441167831421,0.1525878757238388,-0.1525878757238388,86.66667175292969,26561.0,1.0
18:09:36.997039,138663.171875,144038.140625,164573.671875,161183.4375,188476.4375,185246.625,686021.8125,133429.90625,0.036376953125,1.010986328125,-0.095947265625,-2.532958745956421,0.1220703050494194,0.03051757626235485,86.66667175292969,26562.0,1.0
18:09:37.007678,138684.0,144066.921875,164585.296875,161187.5625,188488.78125,185262.625,686205.1875,133429.453125,0.03662109375,1.00927734375,-0.095458984375,-2.563476324081421,0.03051757626235485,0.0915527269244194,86.66667175292969,26563.0,1.0
18:09:37.007718,138678.546875,144057.265625,164592.53125,161189.171875,188504.421875,185276.03125,686030.4375,133431.515625,0.035400390625,1.01025390625,-0.095947265625,-2.624511480331421,-0.0915527269244194,0.1831054538488388,86.66667175292969,26564.0,1.0
18:09:37.017539,138668.078125,144032.140625,164584.03125,161199.984375,188490.578125,185255.375,686026.75,133445.015625,0.03662109375,1.009033203125,-0.091552734375,-2.624511480331421,-0.0610351525247097,0.3356933295726776,86.66667175292969,26565.0,1.0
18:09:37.017563,138673.453125,144047.25,164584.21875,161199.359375,188487.625,185254.21875,686034.4375,133446.359375,0.03564453125,1.007568359375,-0.0947265625,-2.685546636581421,-0.2136230319738388,0.3662109076976776,86.66667175292969,26566.0,1.0
18:09:37.020056,138692.84375,144073.625,164592.265625,161203.203125,188493.515625,185261.734375,686214.0625,133443.234375,0.035400390625,1.0087890625,-0.094482421875,-2.624511480331421,-0.2441406100988388,0.5798339247703552,86.66667175292969,26567.0,1.0
18:09:37.020066,138692.40625,144074.53125,164601.828125,161200.609375,188510.953125,185282.015625,686089.5,133440.09375,0.0361328125,1.0087890625,-0.0927734375,-2.685546636581421,-0.4272460639476776,0.6713866591453552,86.66667175292969,26568.0,1.0
18:09:37.032639,138662.8125,144032.0625,164580.1875,161193.09375,188486.453125,185252.875,686036.5,133437.234375,0.03369140625,1.01123046875,-0.0927734375,-2.685546636581421,-0.4577636420726776,0.7019042372703552,86.66667175292969,26569.0,1.0
18:09:37.032660,138658.421875,144030.265625,164571.15625,161187.203125,188474.03125,185241.703125,686017.6875,133433.390625,0.03369140625,1.0078125,-0.09423828125,-2.563476324081421,-0.4882812201976776,0.7324218153953552,86.66667175292969,26570.0,1.0
18:09:37.036568,138684.4375,144065.21875,164584.03125,161195.6875,188483.59375,185255.828125,686180.1875,133436.4375,0.033203125,1.0068359375,-0.093994140625,-2.655029058456421,-0.5798339247703552,0.7934569716453552,86.66667175292969,26571.0,1.0
18:09:37.036635,138691.328125,144074.25,164597.453125,161195.6875,188503.53125,185276.921875,686115.0625,133436.609375,0.035888671875,1.00830078125,-0.093505859375,-2.655029058456421,-0.6713866591453552,0.8239745497703552,86.66667175292969,26572.0,1.0
18:09:37.046650,138667.1875,144038.40625,164583.140625,161193.546875,188488.875,185258.6875,686004.8125,133436.703125,0.035888671875,1.009521484375,-0.093505859375,-2.716064214706421,-0.7629393935203552,0.8544921278953552,86.66667175292969,26573.0,1.0
18:09:37.046666,138655.203125,144028.03125,164569.015625,161183.53125,188470.8125,185243.046875,686011.625,133430.796875,0.035888671875,1.00927734375,-0.093505859375,-2.685546636581421,-0.7629393935203552,0.7934569716453552,86.66667175292969,26574.0,1.0
18:09:37.048803,138683.015625,144064.0625,164584.75,161195.609375,188483.421875,185255.203125,686148.875,133437.234375,0.039306640625,1.01025390625,-0.093994140625,-2.685546636581421,-0.8544921278953552,0.8850097060203552,86.66667175292969,26575.0,1.0
18:09:37.048814,138690.171875,144076.765625,164594.3125,161192.390625,188497.90625,185274.0625,686163.625,133431.15625,0.040283203125,1.009033203125,-0.09375,-2.716064214706421,-0.8850097060203552,0.7629393935203552,86.66667175292969,26576.0,1.0
18:09:37.065853,138668.359375,144044.296875,164584.484375,161189.96875,188489.5,185264.234375,686003.0625,133432.859375,0.04150390625,1.00830078125,-0.09423828125,-2.716064214706421,-0.8544921278953552,0.8544921278953552,86.66667175292969,26577.0,1.0
18:09:37.070111,138652.96875,144022.671875,164567.046875,161184.25,188465.265625,185236.609375,686020.9375,133431.25,0.043701171875,1.009521484375,-0.0927734375,-2.685546636581421,-0.9460448622703552,0.9460448622703552,86.66667175292969,26578.0,1.0
18:09:37.070129,138665.671875,144046.8125,164566.609375,161179.59375,188462.046875,185238.65625,686097.625,133420.515625,0.044677734375,1.01025390625,-0.090087890625,-2.716064214706421,-0.8544921278953552,1.0070799589157104,86.66667175292969,26579.0,1.0
18:09:37.070133,138676.125,144061.296875,164573.75,161176.203125,188474.484375,185253.140625,686197.5,133415.15625,0.045166015625,1.010009765625,-0.09033203125,-2.685546636581421,-0.8239745497703552,0.8239745497703552,86.66667175292969,26580.0,1.0
18:09:37.072058,138657.890625,144034.46875,164570.53125,161175.21875,188477.34375,185250.640625,686021.9375,133418.28125,0.04736328125,1.009765625,-0.090576171875,-2.716064214706421,-0.6713866591453552,0.8544921278953552,86.66667175292969,26581.0,1.0
18:09:37.110265,138642.609375,144011.671875,164555.96875,161175.390625,188459.375,185229.09375,686050.1875,133424.625,0.047119140625,1.0087890625,-0.087890625,-2.655029058456421,-0.4882812201976776,0.9765624403953552,86.66667175292969,26582.0,1.0
18:09:37.110310,138658.96875,144038.9375,164562.578125,161176.734375,188463.921875,185236.15625,686078.8125,133423.734375,0.048095703125,1.0087890625,-0.08837890625,-2.593993902206421,-0.4577636420726776,0.7629393935203552,86.66667175292969,26583.0,1.0
18:09:37.131714,138676.390625,144060.125,164573.84375,161181.296875,188476.265625,185250.28125,686225.25,133424.1875,0.04833984375,1.00732421875,-0.091064453125,-2.563476324081421,-0.2746581733226776,0.7629393935203552,86.66667175292969,26584.0,1.0
18:09:37.131741,138665.484375,144046.8125,164578.234375,161180.578125,188488.609375,185262.53125,686038.0,133425.53125,0.05224609375,1.007080078125,-0.089599609375,-2.410888433456421,-0.1525878757238388,0.7629393935203552,86.66667175292969,26585.0,1.0
18:09:37.133245,138646.890625,144018.375,164564.015625,161181.75,188469.296875,185238.21875,686061.5,133430.359375,0.052978515625,1.00732421875,-0.087890625,-2.380370855331421,-0.1525878757238388,0.7934569716453552,86.66667175292969,26586.0,1.0
18:09:37.138250,138657.09375,144036.4375,164566.609375,161181.921875,188467.859375,185237.859375,686066.8125,133426.328125,0.052490234375,1.00732421875,-0.090087890625,-2.349853277206421,-0.0915527269244194,0.8239745497703552,86.66667175292969,26587.0,1.0
18:09:37.140967,138680.78125,144066.390625,164580.46875,161187.015625,188480.921875,185255.5625,686251.8125,133428.125,0.052001953125,1.006591796875,-0.09130859375,-2.319335699081421,0.0610351525247097,0.8239745497703552,86.66667175292969,26588.0,1.0
18:09:37.143233,138680.25,144064.515625,164592.53125,161189.796875,188502.109375,185275.9375,686077.375,133434.828125,0.05029296875,1.0068359375,-0.0888671875,-2.197265386581421,0.2136230319738388,0.7324218153953552,86.66667175292969,26589.0,1.0
18:09:37.145651,138664.6875,144032.0625,164582.25,161195.609375,188488.25,185251.984375,686071.0625,133442.421875,0.048583984375,1.004150390625,-0.087646484375,-2.136230230331421,0.3662109076976776,0.6103515028953552,86.66667175292969,26590.0,1.0
18:09:37.148225,138670.59375,144043.859375,164582.25,161196.140625,188485.65625,185251.453125,686072.375,133441.078125,0.048583984375,1.00537109375,-0.087646484375,-2.075195074081421,0.5798339247703552,0.6408690810203552,86.66667175292969,26591.0,1.0
18:09:37.150783,138684.796875,144067.28125,164582.78125,161191.9375,188484.40625,185254.03125,686253.1875,133430.890625,0.046630859375,1.003173828125,-0.089599609375,-2.014159917831421,0.7629393935203552,0.4882812201976776,86.66667175292969,26592.0,1.0
18:09:37.153214,138682.03125,144068.53125,164589.578125,161187.828125,188497.71875,185272.359375,686124.1875,133426.78125,0.044677734375,1.004150390625,-0.090087890625,-1.9836424589157104,0.7629393935203552,0.6103515028953552,86.66667175292969,26593.0,1.0
18:09:37.180831,138661.375,144033.84375,164576.625,161187.375,188480.015625,185249.296875,686053.6875,133429.453125,0.04443359375,1.005859375,-0.088134765625,-1.8920897245407104,0.8239745497703552,0.4577636420726776,86.66667175292969,26594.0,1.0
18:09:37.183367,138664.78125,144035.0,164575.28125,161187.734375,188474.125,185240.625,686072.0,133429.109375,0.041748046875,1.0068359375,-0.087158203125,-1.8615721464157104,0.8544921278953552,0.3967284858226776,86.66667175292969,26595.0,1.0
18:09:37.185822,138689.984375,144071.21875,164586.71875,161193.015625,188482.796875,185254.21875,686242.6875,133427.9375,0.041259765625,1.006103515625,-0.086669921875,-1.8005369901657104,0.9460448622703552,0.2441406100988388,86.66667175292969,26596.0,1.0
18:09:37.188366,138684.171875,144068.796875,164587.609375,161183.09375,188490.296875,185265.65625,686169.5,133418.546875,0.038818359375,1.006591796875,-0.0888671875,-1.7700194120407104,1.0070799589157104,0.2441406100988388,86.66667175292969,26597.0,1.0
18:09:37.191476,138661.46875,144042.0625,164576.53125,161182.28125,188479.484375,185255.640625,686058.9375,133423.65625,0.039794921875,1.007080078125,-0.088623046875,-1.7395018339157104,0.9460448622703552,0.1831054538488388,86.66667175292969,26598.0,1.0
18:09:37.191535,138654.671875,144030.984375,164566.6875,161183.71875,188468.21875,185237.765625,686078.0,133430.625,0.03759765625,1.009033203125,-0.083984375,-1.7089842557907104,0.8850097060203552,0.1525878757238388,86.66667175292969,26599.0,1.0
18:09:37.193380,138681.765625,144069.25,164581.453125,161193.375,188479.75,185252.875,686207.6875,133436.4375,0.03662109375,1.010498046875,-0.088134765625,-1.5869139432907104,0.8239745497703552,0.1525878757238388,86.66667175292969,26600.0,1.0
18:09:37.196412,138679.53125,144072.46875,164581.359375,161179.78125,188487.0,185265.75,686225.25,133420.875,0.038330078125,1.009521484375,-0.08837890625,-1.6174315214157104,0.7324218153953552,0.0915527269244194,86.66667175292969,26601.0,1.0
18:09:37.196430,138658.875,144042.421875,164572.328125,161178.703125,188482.796875,185256.71875,686068.75,133422.484375,0.037353515625,1.010009765625,-0.08837890625,-1.7089842557907104,0.6713866591453552,0.2136230319738388,86.66667175292969,26602.0,1.0
18:09:37.198788,138641.53125,144021.234375,164553.734375,161171.90625,188460.078125,185229.265625,686089.875,133421.140625,0.037353515625,1.009521484375,-0.087158203125,-1.6479490995407104,0.5798339247703552,0.2441406100988388,86.66667175292969,26603.0,1.0
18:09:37.198803,138649.84375,144044.65625,164552.125,161164.84375,188454.546875,185229.625,686169.625,133410.859375,0.03466796875,1.009521484375,-0.087158203125,-1.6479490995407104,0.5493163466453552,0.2136230319738388,86.66667175292969,26604.0,1.0
18:09:37.200727,138670.234375,144069.15625,164567.9375,161171.640625,188473.046875,185251.984375,686261.0,133414.265625,0.033447265625,1.009521484375,-0.087890625,-1.5869139432907104,0.4577636420726776,0.2746581733226776,86.66667175292969,26605.0,1.0
18:09:37.203258,138658.609375,144051.546875,164570.890625,161175.484375,188482.171875,185258.78125,686076.0,133421.234375,0.034912109375,1.00732421875,-0.08642578125,-1.4953612089157104,0.4272460639476776,0.2136230319738388,86.66667175292969,26606.0,1.0
18:09:37.205699,138641.078125,144024.1875,164554.71875,161172.984375,188460.265625,185234.1875,686101.3125,133423.734375,0.034423828125,1.006103515625,-0.08935546875,-1.3427733182907104,0.3356933295726776,0.2136230319738388,86.66667175292969,26607.0,1.0
18:09:37.210706,138655.65625,144047.703125,164559.71875,161174.5,188462.046875,185238.296875,686151.3125,133422.84375,0.033935546875,1.00634765625,-0.09130859375,-1.2512205839157104,0.2441406100988388,0.2136230319738388,86.66667175292969,26608.0,1.0
18:09:37.213175,138668.984375,144065.578125,164565.53125,161170.5625,188467.59375,185245.984375,686287.0,133415.25,0.035400390625,1.005859375,-0.093017578125,-1.2512205839157104,0.2136230319738388,0.3051757514476776,86.66667175292969,26609.0,1.0
18:09:37.215680,138658.421875,144047.4375,164566.875,161167.890625,188475.1875,185251.265625,686083.1875,133416.5,0.03564453125,1.004150390625,-0.092529296875,-1.2817381620407104,0.1525878757238388,0.1525878757238388,86.66667175292969,26610.0,1.0
18:09:37.218771,138637.859375,144012.125,164549.796875,161166.453125,188451.40625,185219.609375,686083.0,133419.0,0.035888671875,1.0048828125,-0.089111328125,-1.1901854276657104,-0.03051757626235485,0.3967284858226776,86.66667175292969,26611.0,1.0
18:09:37.218778,138647.515625,144031.078125,164552.5625,161164.84375,188451.5,185220.59375,686101.25,133414.171875,0.036376953125,1.006103515625,-0.089111328125,-1.0681151151657104,-0.0915527269244194,0.4272460639476776,86.66667175292969,26612.0,1.0
18:09:37.221321,138671.390625,144063.265625,164566.515625,161171.375,188465.09375,185236.96875,686279.5625,133413.28125,0.037353515625,1.00439453125,-0.09033203125,-1.0375975370407104,-0.1831054538488388,0.5493163466453552,86.66667175292969,26613.0,1.0
18:09:37.221334,138671.484375,144062.28125,164578.9375,161175.390625,188485.921875,185259.671875,686108.625,133420.15625,0.03662109375,1.005615234375,-0.08935546875,-0.9460448622703552,-0.2746581733226776,0.7019042372703552,86.66667175292969,26614.0,1.0
18:09:37.226376,138650.921875,144026.328125,164564.1875,161176.734375,188467.140625,185237.5,686090.0625,133427.21875,0.037353515625,1.00732421875,-0.090576171875,-0.8544921278953552,-0.3356933295726776,0.7934569716453552,86.66667175292969,26615.0,1.0
18:09:37.226384,138658.0625,144037.0625,164565.53125,161180.140625,188463.921875,185231.6875,686105.9375,133427.9375,0.035888671875,1.0087890625,-0.088134765625,-0.9155272841453552,-0.3662109076976776,0.7324218153953552,86.66667175292969,26616.0,1.0
18:09:37.228244,138674.78125,144064.515625,164569.46875,161178.796875,188465.8125,185240.625,686278.0,133420.25,0.036865234375,1.00927734375,-0.087890625,-0.9765624403953552,-0.4577636420726776,0.7019042372703552,86.66667175292969,26617.0,1.0
18:09:37.230701,138667.8125,144057.359375,164572.0625,161171.28125,188476.53125,185249.75,686140.3125,133414.078125,0.037109375,1.009521484375,-0.0888671875,-0.9765624403953552,-0.5187987685203552,0.7934569716453552,86.66667175292969,26618.0,1.0
18:09:37.233256,138646.53125,144024.28125,164559.890625,161172.984375,188463.484375,185233.203125,686084.125,133420.78125,0.03759765625,1.008544921875,-0.0888671875,-1.0070799589157104,-0.4882812201976776,0.8544921278953552,86.66667175292969,26619.0,1.0
18:09:37.236291,138644.390625,144021.6875,164553.46875,161172.0,188456.15625,185224.53125,686100.9375,133424.09375,0.038818359375,1.010986328125,-0.09130859375,-0.9765624403953552,-0.5493163466453552,0.7019042372703552,86.66667175292969,26620.0,1.0
18:09:37.236296,138661.46875,144049.671875,164558.5625,161172.890625,188460.171875,185231.6875,686252.0625,133423.109375,0.0390625,1.0087890625,-0.0908203125,-1.0375975370407104,-0.5187987685203552,0.7324218153953552,86.66667175292969,26621.0,1.0
18:09:37.239509,138665.84375,144057.625,164567.9375,161168.953125,188474.828125,185249.84375,686180.0625,133417.21875,0.04052734375,1.009765625,-0.08935546875,-0.9155272841453552,-0.5798339247703552,0.7324218153953552,86.66667175292969,26622.0,1.0
18:09:37.239526,138647.96875,144029.109375,164559.09375,161170.75,188465.265625,185238.21875,686051.6875,133420.15625,0.040771484375,1.008056640625,-0.087890625,-1.0070799589157104,-0.5798339247703552,0.7324218153953552,86.66667175292969,26623.0,1.0
18:09:37.243210,138635.265625,144017.21875,164545.765625,161165.109375,188449.359375,185220.328125,686052.875,133416.859375,0.042724609375,1.01220703125,-0.088623046875,-1.0986326932907104,-0.6408690810203552,0.7324218153953552,86.66667175292969,26624.0,1.0
18:09:37.256293,138652.171875,144042.15625,164552.125,161167.53125,188453.203125,185225.25,686164.25,133413.640625,0.041748046875,1.013671875,-0.09130859375,-1.0986326932907104,-0.5493163466453552,0.7324218153953552,86.66667175292969,26625.0,1.0
18:09:37.256300,138657.625,144050.828125,164559.0,161163.234375,188465.359375,185240.71875,686192.875,133409.96875,0.042236328125,1.012451171875,-0.087158203125,-1.2817381620407104,-0.4577636420726776,0.7629393935203552,86.66667175292969,26626.0,1.0
18:09:37.258754,138645.734375,144029.46875,164558.5625,161168.609375,188467.765625,185238.390625,686032.5,133420.875,0.0439453125,1.013916015625,-0.086669921875,-1.3122557401657104,-0.4577636420726776,0.7019042372703552,86.66667175292969,26627.0,1.0
18:09:37.258759,138636.25,144013.09375,164547.296875,161170.21875,188452.125,185219.796875,686043.4375,133425.96875,0.04345703125,1.0126953125,-0.089599609375,-1.3122557401657104,-0.4272460639476776,0.7324218153953552,86.66667175292969,26628.0,1.0
18:09:37.265652,138660.65625,144050.5625,164561.0625,161179.234375,188462.59375,185234.1875,686114.75,133430.265625,0.044921875,1.008544921875,-0.092041015625,-1.3427733182907104,-0.4577636420726776,0.7629393935203552,86.66667175292969,26629.0,1.0
18:09:37.273744,138677.921875,144073.984375,164575.09375,161184.515625,188478.953125,185253.40625,686225.875,133433.03125,0.046630859375,1.0078125,-0.094482421875,-1.2817381620407104,-0.3662109076976776,0.7324218153953552,86.66667175292969,26630.0,1.0
18:09:37.273752,138660.21875,144046.09375,164571.796875,161178.96875,188480.921875,185251.53125,686042.6875,133432.328125,0.048583984375,1.006591796875,-0.094970703125,-1.2512205839157104,-0.2746581733226776,0.8544921278953552,86.66667175292969,26631.0,1.0
18:09:37.276306,138640.546875,144014.4375,164551.9375,161171.546875,188456.421875,185223.8125,686055.875,133431.34375,0.0478515625,1.00732421875,-0.091064453125,-1.2207030057907104,-0.1525878757238388,0.8544921278953552,86.66667175292969,26632.0,1.0
18:09:37.276309,138649.84375,144037.59375,164551.5,161166.015625,188451.59375,185227.125,686067.0,133419.09375,0.045654296875,1.00439453125,-0.0927734375,-1.0986326932907104,-0.1525878757238388,0.7934569716453552,86.66667175292969,26633.0,1.0
18:09:37.287030,138664.328125,144060.046875,164557.84375,161163.0625,188456.6875,185238.03125,686217.0,133408.625,0.044189453125,1.00390625,-0.0927734375,-1.1291502714157104,-0.03051757626235485,0.7324218153953552,86.66667175292969,26634.0,1.0
18:09:37.293884,138659.140625,144048.953125,164566.78125,161165.390625,188472.0625,185248.234375,686040.1875,133412.46875,0.04052734375,1.00341796875,-0.09326171875,-1.0681151151657104,0.0610351525247097,0.6713866591453552,86.66667175292969,26635.0,1.0
18:09:37.293940,138647.25,144025.4375,164558.375,161172.71875,188458.203125,185232.578125,686050.0625,133424.8125,0.040771484375,1.005126953125,-0.091796875,-1.0681151151657104,0.0610351525247097,0.7019042372703552,86.66667175292969,26636.0,1.0
18:09:37.296369,138660.390625,144046.1875,164563.5625,161176.734375,188459.453125,185236.15625,686036.125,133427.3125,0.041015625,1.009033203125,-0.091796875,-1.0681151151657104,0.0915527269244194,0.7019042372703552,86.66667175292969,26637.0,1.0
18:09:37.296414,138672.46875,144067.28125,164566.421875,161171.90625,188460.0,185238.84375,686206.875,133417.65625,0.041259765625,1.00537109375,-0.090087890625,-1.0375975370407104,0.1831054538488388,0.6103515028953552,86.66667175292969,26638.0,1.0
18:09:37.308275,138667.1875,144059.0625,164573.671875,161169.578125,188475.015625,185253.0625,686057.125,133416.671875,0.04052734375,1.00341796875,-0.091796875,-1.0070799589157104,0.2136230319738388,0.5798339247703552,86.66667175292969,26639.0,1.0
18:09:37.315064,138643.671875,144017.84375,164555.078125,161166.90625,188453.015625,185224.796875,686031.1875,133418.90625,0.04150390625,1.001708984375,-0.094482421875,-0.8544921278953552,0.1220703050494194,0.6408690810203552,86.66667175292969,26640.0,1.0
18:09:37.315073,138638.125,144017.65625,164544.609375,161157.15625,188438.984375,185213.359375,686017.8125,133410.953125,0.046142578125,1.0029296875,-0.09765625,-0.8850097060203552,0.2441406100988388,0.5798339247703552,86.66667175292969,26641.0,1.0
18:09:37.315076,138664.78125,144054.3125,164558.28125,161165.203125,188449.171875,185226.6875,686183.375,133412.390625,0.048828125,1.006103515625,-0.09521484375,-0.6408690810203552,0.3051757514476776,0.7019042372703552,86.66667175292969,26642.0,1.0
18:09:37.322023,138667.71875,144058.25,164570.8125,161167.53125,188469.921875,185246.703125,686103.375,133416.859375,0.051025390625,1.008544921875,-0.09716796875,-0.6103515028953552,0.4272460639476776,1.0681151151657104,86.66667175292969,26643.0,1.0
18:09:37.328934,138646.265625,144023.46875,164558.015625,161167.96875,188455.4375,185227.9375,686025.6875,133424.1875,0.052001953125,1.00830078125,-0.0966796875,-0.6408690810203552,0.6408690810203552,1.0986326932907104,86.66667175292969,26644.0,1.0
18:09:37.328987,138645.640625,144023.65625,164551.859375,161166.640625,188445.78125,185219.34375,686017.8125,133420.96875,0.0498046875,1.009033203125,-0.09814453125,-0.4882812201976776,0.7934569716453552,1.2512205839157104,86.66667175292969,26645.0,1.0
18:09:37.337622,138669.609375,144060.046875,164563.75,161172.453125,188454.625,185234.546875,686163.4375,133419.625,0.04638671875,1.00634765625,-0.09521484375,-0.3967284858226776,0.9155272841453552,1.2207030057907104,86.66667175292969,26646.0,1.0
18:09:37.337643,138669.78125,144062.625,164569.46875,161167.53125,188468.046875,185245.453125,686140.1875,133413.09375,0.0458984375,1.0068359375,-0.095458984375,-0.3356933295726776,0.9460448622703552,1.2207030057907104,86.66667175292969,26647.0,1.0
18:09:37.347655,138653.0625,144034.296875,164564.90625,161174.5,188464.375,185236.78125,686022.25,133423.828125,0.040283203125,1.010986328125,-0.095947265625,-0.2746581733226776,0.9460448622703552,1.1291502714157104,86.66667175292969,26648.0,1.0
18:09:37.348012,138643.234375,144022.40625,164553.46875,161170.03125,188448.90625,185220.78125,686025.125,133423.921875,0.037841796875,1.01318359375,-0.093017578125,-0.3356933295726776,0.9155272841453552,1.0375975370407104,86.66667175292969,26649.0,1.0
18:09:37.350114,138654.765625,144047.25,164552.5625,161166.453125,188445.15625,185220.59375,686103.1875,133414.4375,0.03759765625,1.015380859375,-0.091796875,-0.3967284858226776,0.8850097060203552,0.7629393935203552,86.66667175292969,26650.0,1.0
18:09:37.350212,138657.984375,144058.078125,164558.109375,161162.609375,188455.4375,185235.078125,686154.125,133409.34375,0.0380859375,1.014892578125,-0.091552734375,-0.4272460639476776,0.7629393935203552,0.5493163466453552,86.66667175292969,26651.0,1.0
