Timestamp,Fz,FC3,FCz,FC4,Cz,C3,C4
18:12:52.276693,136336.171875,144197.640625,161740.1875,158605.65625,180622.578125,178158.25,686093.875,131969.359375,0.04443359375,1.01123046875,-0.0986328125,-1.9836424589157104,-0.4272460639476776,0.5798339247703552,86.66667175292969,75428.0,1.0
18:12:52.278534,136332.421875,144184.671875,161747.875,158618.796875,180632.953125,178167.28125,685921.8125,131980.4375,0.04443359375,1.0087890625,-0.096435546875,-1.9836424589157104,-0.4882812201976776,0.5798339247703552,86.66667175292969,75429.0,1.0
18:12:52.280992,136316.6875,144163.75,161731.515625,158613.265625,180612.46875,178146.1875,686000.625,131978.03125,0.0458984375,1.010009765625,-0.096923828125,-2.014159917831421,-0.5187987685203552,0.6408690810203552,86.66667175292969,75430.0,1.0
18:12:52.283579,136315.421875,144172.328125,161721.046875,158598.953125,180599.875,178137.25,686048.625,131958.09375,0.04638671875,1.008544921875,-0.0966796875,-2.105712652206421,-0.5187987685203552,0.6713866591453552,86.66667175292969,75431.0,1.0
18:12:52.286007,136325.890625,144188.34375,161726.953125,158597.96875,180608.09375,178147.25,686104.0625,131958.796875,0.048095703125,1.010498046875,-0.097412109375,-2.044677495956421,-0.4577636420726776,0.6713866591453552,86.66667175292969,75432.0,1.0
18:12:52.293530,136319.09375,144178.859375,161733.921875,158600.125,180620.25,178158.875,685920.0,131968.375,0.047119140625,1.01025390625,-0.0986328125,-2.014159917831421,-0.6408690810203552,0.7324218153953552,86.66667175292969,75433.0,1.0
18:12:52.295987,136302.203125,144150.96875,161719.4375,158595.296875,180601.75,178136.796875,685987.125,131961.3125,0.048095703125,1.0078125,-0.09716796875,-2.136230230331421,-0.7019042372703552,0.7629393935203552,86.66667175292969,75434.0,1.0
18:12:52.299726,136314.0,144170.71875,161724.171875,158601.015625,180604.25,178138.9375,686049.1875,131962.5625,0.04638671875,1.008544921875,-0.096923828125,-2.166747808456421,-0.6713866591453552,0.9155272841453552,86.66667175292969,75435.0,1.0
18:12:52.308494,136330.8125,144192.984375,161732.84375,158604.859375,180612.5625,178149.765625,686123.375,131963.984375,0.04638671875,1.00732421875,-0.095947265625,-2.227782964706421,-0.7324218153953552,0.9460448622703552,86.66667175292969,75436.0,1.0
18:12:52.314904,136330.1875,144188.25,161744.296875,158609.421875,180629.8125,178166.390625,685953.1875,131972.125,0.048095703125,1.009765625,-0.097412109375,-2.319335699081421,-0.6408690810203552,0.9460448622703552,86.66667175292969,75437.0,1.0
18:12:52.314934,136303.453125,144147.390625,161721.859375,158600.921875,180603.53125,178134.109375,685976.125,131966.765625,0.049560546875,1.01123046875,-0.096435546875,-2.349853277206421,-0.7324218153953552,1.0681151151657104,86.66667175292969,75438.0,1.0
18:12:52.314942,136298.53125,144150.609375,161710.765625,158586.34375,180589.9375,178123.75,686027.1875,131952.015625,0.048828125,1.01171875,-0.0966796875,-2.410888433456421,-0.7934569716453552,1.0070799589157104,86.66667175292969,75439.0,1.0
18:12:52.318559,136323.65625,144186.28125,161725.96875,158599.140625,180603.0,178142.421875,686119.375,131959.34375,0.051025390625,1.0107421875,-0.097900390625,-2.624511480331421,-0.7934569716453552,1.0375975370407104,86.66667175292969,75440.0,1.0
18:12:52.324875,136323.921875,144184.9375,161736.609375,158599.140625,180620.703125,178160.046875,685986.3125,131962.5625,0.052490234375,1.011962890625,-0.095458984375,-2.593993902206421,-0.7934569716453552,1.1291502714157104,86.66667175292969,75441.0,1.0
18:12:52.331594,136306.578125,144154.359375,161725.421875,158600.921875,180607.375,178140.640625,685947.875,131969.53125,0.0537109375,1.0126953125,-0.09716796875,-2.716064214706421,-0.6408690810203552,1.0375975370407104,86.66667175292969,75442.0,1.0
18:12:52.331623,136307.734375,144158.484375,161721.140625,158603.78125,180599.78125,178134.375,686023.875,131969.265625,0.054443359375,1.009765625,-0.09716796875,-2.655029058456421,-0.6408690810203552,0.8850097060203552,86.66667175292969,75443.0,1.0
18:12:52.333516,136329.640625,144189.234375,161731.59375,158608.796875,180606.65625,178142.515625,686112.6875,131969.71875,0.05517578125,1.009033203125,-0.0986328125,-2.532958745956421,-0.6103515028953552,0.9765624403953552,86.66667175292969,75444.0,1.0
18:12:52.351584,136337.0625,144194.78125,161746.0,158610.9375,180626.0625,178158.25,686036.375,131970.515625,0.0556640625,1.00732421875,-0.098388671875,-2.593993902206421,-0.4272460639476776,0.9155272841453552,86.66667175292969,75445.0,1.0
18:12:52.351603,136314.71875,144160.09375,161732.671875,158608.515625,180613.546875,178142.609375,685923.5,131972.9375,0.057373046875,1.005859375,-0.094970703125,-2.655029058456421,-0.4272460639476776,0.8544921278953552,86.66667175292969,75446.0,1.0
18:12:52.354731,136312.203125,144156.0625,161727.75,158610.9375,180606.03125,178132.953125,685981.625,131980.078125,0.055419921875,1.006103515625,-0.093505859375,-2.593993902206421,-0.3051757514476776,0.8544921278953552,86.66667175292969,75447.0,1.0
18:12:52.354762,136333.125,144188.703125,161737.3125,158614.515625,180612.390625,178142.96875,686056.875,131975.703125,0.056640625,1.005859375,-0.094482421875,-2.502441167831421,-0.2441406100988388,0.8850097060203552,86.66667175292969,75448.0,1.0
18:12:52.354769,136346.984375,144203.53125,161751.796875,158620.140625,180631.25,178162.71875,686065.3125,131979.1875,0.056396484375,1.00537109375,-0.09619140625,-2.441406011581421,-0.1831054538488388,0.7934569716453552,86.66667175292969,75449.0,1.0
18:12:52.382843,136323.109375,144170.375,161738.75,158612.28125,180620.15625,178149.765625,685913.625,131976.234375,0.05712890625,1.005859375,-0.09423828125,-2.380370855331421,0.03051757626235485,0.8850097060203552,86.66667175292969,75450.0,1.0
18:12:52.382870,136303.265625,144145.78125,161717.828125,158601.1875,180595.046875,178124.375,686008.125,131967.75,0.058349609375,1.00439453125,-0.0947265625,-2.258300542831421,0.1831054538488388,0.8239745497703552,86.66667175292969,75451.0,1.0
18:12:52.388566,136324.28125,144178.140625,161728.203125,158607.546875,180601.484375,178135.71875,686070.125,131967.75,0.055908203125,1.00390625,-0.095947265625,-2.288818120956421,0.3051757514476776,0.7629393935203552,86.66667175292969,75452.0,1.0
18:12:52.391142,136335.546875,144196.296875,161737.765625,158604.234375,180611.84375,178152.265625,686118.9375,131963.28125,0.05517578125,1.002197265625,-0.09619140625,-2.105712652206421,0.3967284858226776,0.6103515028953552,86.66667175292969,75453.0,1.0
18:12:52.396253,136322.484375,144175.375,161737.953125,158607.1875,180615.96875,178152.703125,685950.75,131969.984375,0.055419921875,1.004150390625,-0.09375,-2.075195074081421,0.5493163466453552,0.6713866591453552,86.66667175292969,75454.0,1.0
18:12:52.401080,136308.1875,144155.609375,161724.625,158607.8125,180599.25,178134.375,685983.8125,131973.828125,0.055419921875,1.002685546875,-0.093017578125,-1.8920897245407104,0.7324218153953552,0.7019042372703552,86.66667175292969,75455.0,1.0
18:12:52.403612,136317.578125,144173.671875,161724.625,158604.140625,180595.21875,178130.984375,686017.875,131963.71875,0.05615234375,1.0048828125,-0.09326171875,-1.8005369901657104,0.7629393935203552,0.7324218153953552,86.66667175292969,75456.0,1.0
18:12:52.406072,136341.09375,144201.125,161741.609375,158618.796875,180613.8125,178151.015625,686143.25,131974.359375,0.0546875,1.005859375,-0.09228515625,-1.8310545682907104,0.8239745497703552,0.6713866591453552,86.66667175292969,75457.0,1.0
18:12:52.408590,136326.6875,144182.96875,161741.34375,158609.6875,180621.140625,178157.265625,685960.4375,131971.5,0.05419921875,1.00537109375,-0.09130859375,-1.7089842557907104,0.8544921278953552,0.6103515028953552,86.66667175292969,75458.0,1.0
18:12:52.413458,136301.5625,144146.234375,161717.921875,158602.53125,180594.140625,178126.421875,685968.125,131971.046875,0.05224609375,1.0048828125,-0.093994140625,-1.6174315214157104,0.9155272841453552,0.5798339247703552,86.66667175292969,75459.0,1.0
18:12:52.416114,136318.828125,144173.9375,161727.125,158610.125,180601.296875,178137.953125,685956.5625,131975.078125,0.052734375,1.005859375,-0.09375,-1.4953612089157104,0.9155272841453552,0.5798339247703552,86.66667175292969,75460.0,1.0
18:12:52.419033,136333.484375,144195.40625,161733.125,158607.546875,180606.65625,178143.234375,686130.8125,131967.03125,0.051025390625,1.0068359375,-0.0947265625,-1.4953612089157104,0.9155272841453552,0.4272460639476776,86.66667175292969,75461.0,1.0
18:12:52.421150,136330.453125,144190.65625,161742.59375,158607.625,180621.59375,178158.25,685977.3125,131971.953125,0.052490234375,1.00830078125,-0.093505859375,-1.4953612089157104,1.0070799589157104,0.4272460639476776,86.66667175292969,75462.0,1.0
18:12:52.423557,136310.421875,144159.1875,161726.953125,158604.59375,180602.546875,178137.6875,685956.5625,131967.484375,0.05224609375,1.0087890625,-0.0947265625,-1.3427733182907104,0.9460448622703552,0.4272460639476776,86.66667175292969,75463.0,1.0
18:12:52.426699,136314.4375,144166.96875,161725.703125,158612.640625,180599.6875,178133.671875,685956.125,131971.5,0.05126953125,1.009521484375,-0.0966796875,-1.3732908964157104,1.0070799589157104,0.3967284858226776,86.66667175292969,75464.0,1.0
18:12:52.426713,136324.375,144185.65625,161725.703125,158605.84375,180598.96875,178134.296875,686122.0625,131962.46875,0.049072265625,1.006591796875,-0.093017578125,-1.4343260526657104,0.9155272841453552,0.3967284858226776,86.66667175292969,75465.0,1.0
18:12:52.429010,136321.15625,144182.53125,161731.859375,158592.703125,180612.921875,178148.59375,686023.875,131954.78125,0.050048828125,1.008056640625,-0.093505859375,-1.4038084745407104,0.9155272841453552,0.3662109076976776,86.66667175292969,75466.0,1.0
18:12:52.431696,136307.5625,144158.75,161724.53125,158598.328125,180603.53125,178139.03125,685959.125,131965.6875,0.047607421875,1.007080078125,-0.09326171875,-1.3122557401657104,0.9460448622703552,0.3051757514476776,86.66667175292969,75467.0,1.0
18:12:52.431708,136302.734375,144158.390625,161715.59375,158596.0,180590.84375,178130.359375,685959.875,131963.359375,0.047607421875,1.0068359375,-0.0947265625,-1.3122557401657104,0.9155272841453552,0.4882812201976776,86.66667175292969,75468.0,1.0
18:12:52.438724,136322.765625,144185.203125,161722.65625,158601.109375,180596.109375,178137.953125,686116.25,131962.46875,0.0478515625,1.0068359375,-0.091796875,-1.3122557401657104,0.7324218153953552,0.4882812201976776,86.66667175292969,75469.0,1.0
18:12:52.443121,136334.296875,144195.84375,161739.375,158607.984375,180618.375,178158.078125,686083.0625,131969.359375,0.048828125,1.007080078125,-0.091552734375,-1.2512205839157104,0.7019042372703552,0.3356933295726776,86.66667175292969,75470.0,1.0
18:12:52.443137,136312.203125,144165.09375,161729.0,158602.4375,180607.296875,178143.765625,685967.125,131972.125,0.047607421875,1.00732421875,-0.091552734375,-1.2512205839157104,0.6408690810203552,0.3662109076976776,86.66667175292969,75471.0,1.0
18:12:52.444981,136301.296875,144152.125,161715.421875,158594.578125,180591.015625,178126.515625,685967.3125,131966.3125,0.04736328125,1.005859375,-0.093017578125,-1.2512205839157104,0.5187987685203552,0.3356933295726776,86.66667175292969,75472.0,1.0
18:12:52.456046,136314.625,144175.375,161716.578125,158593.140625,180588.515625,178127.671875,686081.125,131960.859375,0.044677734375,1.00634765625,-0.094970703125,-1.2817381620407104,0.4882812201976776,0.3051757514476776,86.66667175292969,75473.0,1.0
18:12:52.461124,136326.6875,144191.640625,161729.71875,158594.84375,180606.84375,178150.203125,686130.8125,131963.984375,0.04443359375,1.00390625,-0.092529296875,-1.2207030057907104,0.4577636420726776,0.3967284858226776,86.66667175292969,75474.0,1.0
18:12:52.461139,136302.90625,144158.75,161717.828125,158588.578125,180597.453125,178137.875,685968.4375,131957.46875,0.043701171875,1.007080078125,-0.0947265625,-1.1596678495407104,0.3051757514476776,0.3662109076976776,86.66667175292969,75475.0,1.0
18:12:52.461144,136284.21875,144135.140625,161698.25,158579.015625,180572.953125,178114.265625,685971.875,131946.375,0.0458984375,1.007080078125,-0.09521484375,-1.1291502714157104,0.1220703050494194,0.3967284858226776,86.66667175292969,75476.0,1.0
18:12:52.466094,136306.671875,144170.1875,161710.59375,158586.34375,180583.234375,178127.046875,686049.375,131948.96875,0.044921875,1.005615234375,-0.094482421875,-1.0681151151657104,0.0,0.5798339247703552,86.66667175292969,75477.0,1.0
18:12:52.468572,136330.0,144198.078125,161731.15625,158594.9375,180606.21875,178151.640625,686158.875,131955.40625,0.047607421875,1.00537109375,-0.0947265625,-1.0681151151657104,-0.03051757626235485,0.6408690810203552,86.66667175292969,75478.0,1.0
18:12:52.471082,136323.828125,144182.53125,161737.3125,158604.40625,180615.875,178155.390625,685981.6875,131968.375,0.046875,1.005126953125,-0.095458984375,-1.0681151151657104,-0.1220703050494194,0.6408690810203552,86.66667175292969,75479.0,1.0
18:12:52.514940,136302.28125,144150.703125,161715.328125,158590.640625,180589.765625,178128.03125,685988.125,131960.765625,0.046875,1.00634765625,-0.0947265625,-1.0986326932907104,-0.2136230319738388,0.6103515028953552,86.66667175292969,75480.0,1.0
18:12:52.519885,136308.09375,144167.234375,161713.890625,158587.6875,180585.390625,178125.796875,686011.0,131955.765625,0.047119140625,1.007568359375,-0.093994140625,-1.0070799589157104,-0.2746581733226776,0.6103515028953552,86.66667175292969,75481.0,1.0
18:12:52.522365,136329.203125,144195.3125,161729.8125,158598.421875,180600.140625,178144.21875,686170.4375,131959.4375,0.045166015625,1.0087890625,-0.09423828125,-1.0986326932907104,-0.3662109076976776,0.5493163466453552,86.66667175292969,75482.0,1.0
18:12:52.524825,136325.625,144187.0,161738.65625,158601.109375,180614.078125,178157.265625,686006.125,131961.21875,0.046630859375,1.009765625,-0.09521484375,-1.0070799589157104,-0.4272460639476776,0.7934569716453552,86.66667175292969,75483.0,1.0
18:12:52.527345,136301.921875,144149.625,161716.484375,158594.03125,180589.234375,178127.5,686012.25,131958.53125,0.0498046875,1.01025390625,-0.091064453125,-1.0986326932907104,-0.4882812201976776,0.8239745497703552,86.66667175292969,75484.0,1.0
18:12:52.529899,136309.609375,144167.5,161718.09375,158593.59375,180589.765625,178131.515625,686016.0,131955.671875,0.049072265625,1.008056640625,-0.094970703125,-1.1291502714157104,-0.5798339247703552,0.9460448622703552,86.66667175292969,75485.0,1.0
18:12:52.532353,136325.625,144191.296875,161725.34375,158595.640625,180597.09375,178140.8125,686191.5,131956.125,0.05078125,1.009033203125,-0.094482421875,-1.0986326932907104,-0.4882812201976776,0.8850097060203552,86.66667175292969,75486.0,1.0
18:12:52.535401,136322.84375,144185.5625,161734.015625,158597.53125,180613.1875,178152.53125,686037.125,131965.875,0.05078125,1.0087890625,-0.09423828125,-1.2207030057907104,-0.3967284858226776,0.9155272841453552,86.66667175292969,75487.0,1.0
18:12:52.535461,136295.578125,144149.796875,161712.46875,158588.234375,180588.6875,178126.15625,686018.8125,131960.40625,0.052734375,1.0078125,-0.09375,-1.1901854276657104,-0.3662109076976776,0.8850097060203552,86.66667175292969,75488.0,1.0
18:12:52.537338,136295.40625,144152.671875,161707.09375,158586.96875,180580.28125,178116.5,686007.8125,131952.375,0.052490234375,1.010009765625,-0.09521484375,-1.1291502714157104,-0.4577636420726776,0.8850097060203552,86.66667175292969,75489.0,1.0
18:12:52.539909,136317.390625,144181.8125,161718.015625,158600.921875,180588.609375,178126.875,686187.6875,131959.25,0.05322265625,1.010009765625,-0.09716796875,-1.2512205839157104,-0.4272460639476776,1.0070799589157104,86.66667175292969,75490.0,1.0
18:12:52.542334,136318.921875,144184.5,161727.21875,158590.28125,180604.34375,178145.921875,686079.125,131953.34375,0.0546875,1.00830078125,-0.0966796875,-1.2207030057907104,-0.3967284858226776,1.0986326932907104,86.66667175292969,75491.0,1.0
18:12:52.544901,136303.890625,144158.484375,161719.53125,158593.140625,180595.125,178134.65625,686011.8125,131964.078125,0.055419921875,1.008544921875,-0.09716796875,-1.2207030057907104,-0.2136230319738388,1.0070799589157104,86.66667175292969,75492.0,1.0
18:12:52.547337,136306.484375,144160.171875,161719.265625,158598.421875,180591.640625,178127.765625,686024.125,131970.78125,0.054443359375,1.0068359375,-0.097412109375,-1.3122557401657104,-0.1525878757238388,0.9460448622703552,86.66667175292969,75493.0,1.0
18:12:52.550437,136321.15625,144182.171875,161722.65625,158597.609375,180591.90625,178128.03125,686176.75,131960.59375,0.0556640625,1.0068359375,-0.098388671875,-1.3427733182907104,-0.1831054538488388,0.9765624403953552,86.66667175292969,75494.0,1.0
18:12:52.550496,136331.25,144194.5,161737.140625,158599.3125,180613.546875,178152.265625,686138.0,131962.5625,0.055908203125,1.00732421875,-0.096435546875,-1.3122557401657104,-0.03051757626235485,0.9765624403953552,86.66667175292969,75495.0,1.0
18:12:52.557413,136315.609375,144167.5,161731.6875,158600.921875,180608.1875,178141.984375,686024.75,131968.546875,0.05615234375,1.007568359375,-0.0966796875,-1.4038084745407104,0.03051757626235485,0.8850097060203552,86.66667175292969,75496.0,1.0
18:12:52.557460,136306.84375,144156.515625,161720.328125,158598.234375,180592.0,178123.65625,686027.625,131966.5,0.056396484375,1.009765625,-0.098876953125,-1.3732908964157104,0.1525878757238388,0.8544921278953552,86.66667175292969,75497.0,1.0
18:12:52.557476,136327.234375,144186.90625,161729.359375,158601.28125,180597.984375,178133.21875,686141.75,131966.40625,0.058837890625,1.01171875,-0.096923828125,-1.4038084745407104,0.2746581733226776,0.9155272841453552,86.66667175292969,75498.0,1.0
18:12:52.560420,136339.203125,144204.796875,161742.0625,158602.078125,180614.265625,178157.359375,686170.6875,131966.140625,0.05859375,1.011962890625,-0.095703125,-1.4343260526657104,0.3662109076976776,0.9155272841453552,86.66667175292969,75499.0,1.0
18:12:52.560457,136325.0,144179.9375,161739.5625,158606.734375,180614.078125,178152.265625,686001.8125,131972.9375,0.058837890625,1.01171875,-0.0947265625,-1.5869139432907104,0.4882812201976776,0.9155272841453552,86.66667175292969,75500.0,1.0
18:12:52.562240,136311.671875,144163.9375,161725.25,158601.015625,180595.9375,178134.109375,686006.0,131974.984375,0.055908203125,1.008544921875,-0.09619140625,-1.4648436307907104,0.5798339247703552,0.9155272841453552,86.66667175292969,75501.0,1.0
18:12:52.564854,136327.40625,144190.75,161731.59375,158603.15625,180599.6875,178139.203125,686073.125,131970.78125,0.05810546875,1.005859375,-0.0966796875,-1.5258787870407104,0.6713866591453552,0.8850097060203552,86.66667175292969,75502.0,1.0
18:12:52.569779,136329.375,144198.171875,161730.609375,158592.609375,180600.765625,178143.5,686176.9375,131953.890625,0.05615234375,1.00537109375,-0.0966796875,-1.4648436307907104,0.7324218153953552,0.7934569716453552,86.66667175292969,75503.0,1.0
18:12:52.572229,136321.859375,144186.109375,161735.265625,158600.203125,180610.421875,178154.671875,686005.9375,131962.734375,0.05419921875,1.005126953125,-0.097900390625,-1.5258787870407104,0.7019042372703552,0.7629393935203552,86.66667175292969,75504.0,1.0
18:12:52.588623,136297.375,144150.96875,161711.21875,158587.78125,180583.59375,178124.28125,686008.0,131955.3125,0.054931640625,1.00439453125,-0.0986328125,-1.5563963651657104,0.7934569716453552,0.7324218153953552,86.66667175292969,75505.0,1.0
18:12:52.588645,136300.5,144161.875,161705.765625,158579.5625,180575.1875,178117.3125,686016.75,131942.53125,0.053955078125,1.00634765625,-0.093994140625,-1.5869139432907104,0.9155272841453552,0.7324218153953552,86.66667175292969,75506.0,1.0
18:12:52.590374,136318.296875,144189.40625,161716.125,158581.703125,180587.703125,178136.796875,686181.6875,131944.234375,0.05224609375,1.00732421875,-0.095458984375,-1.5258787870407104,1.0070799589157104,0.7019042372703552,86.66667175292969,75507.0,1.0
18:12:52.592253,136309.796875,144178.765625,161720.0625,158580.53125,180598.34375,178147.53125,686008.4375,131948.609375,0.05126953125,1.00830078125,-0.09521484375,-1.5563963651657104,1.0681151151657104,0.7324218153953552,86.66667175292969,75508.0,1.0
18:12:52.597338,136288.25,144142.296875,161702.71875,158582.765625,180577.609375,178116.5,686001.5625,131953.0,0.050048828125,1.009521484375,-0.0966796875,-1.4648436307907104,0.9460448622703552,0.7324218153953552,86.66667175292969,75509.0,1.0
18:12:52.602282,136295.671875,144157.5,161702.8125,158585.546875,180574.828125,178117.125,685985.625,131952.640625,0.05029296875,1.01123046875,-0.09619140625,-1.5258787870407104,0.9460448622703552,0.7324218153953552,86.66667175292969,75510.0,1.0
18:12:52.606622,136321.59375,144191.203125,161718.71875,158595.734375,180589.234375,178133.671875,686172.9375,131957.203125,0.050048828125,1.010498046875,-0.092529296875,-1.5563963651657104,1.0070799589157104,0.7629393935203552,86.66667175292969,75511.0,1.0
18:12:52.606646,136328.84375,144198.796875,161737.046875,158605.75,180613.90625,178160.75,686047.0625,131968.28125,0.048828125,1.008056640625,-0.094970703125,-1.5869139432907104,0.8544921278953552,0.7934569716453552,86.66667175292969,75512.0,1.0
18:12:52.612898,136299.421875,144157.5,161713.453125,158596.28125,180588.0625,178130.8125,686010.75,131966.3125,0.047119140625,1.005615234375,-0.09521484375,-1.5869139432907104,0.8544921278953552,0.7324218153953552,86.66667175292969,75513.0,1.0
18:12:52.612911,136300.40625,144165.265625,161708.984375,158592.15625,180580.734375,178127.140625,685986.0625,131963.1875,0.046875,1.0068359375,-0.09375,-1.5563963651657104,0.7324218153953552,0.6408690810203552,86.66667175292969,75514.0,1.0
18:12:52.618520,136317.484375,144189.046875,161714.4375,158596.359375,180584.046875,178131.875,686156.125,131962.5625,0.047607421875,1.007568359375,-0.092529296875,-1.5563963651657104,0.5798339247703552,0.6408690810203552,86.66667175292969,75515.0,1.0
18:12:52.625328,136321.5,144190.390625,161725.703125,158601.546875,180604.078125,178147.609375,686069.0625,131970.875,0.048095703125,1.008544921875,-0.09521484375,-1.4953612089157104,0.6408690810203552,0.5493163466453552,86.66667175292969,75516.0,1.0
18:12:52.625343,136295.9375,144155.703125,161708.703125,158594.84375,180585.65625,178129.015625,685988.3125,131963.71875,0.04736328125,1.0078125,-0.094482421875,-1.5563963651657104,0.4882812201976776,0.4882812201976776,86.66667175292969,75517.0,1.0
18:12:52.629825,136286.8125,144146.046875,161695.75,158592.421875,180568.046875,178112.203125,685975.1875,131955.59375,0.04541015625,1.009521484375,-0.09423828125,-1.5258787870407104,0.4882812201976776,0.5798339247703552,86.66667175292969,75518.0,1.0
18:12:52.636601,136292.71875,144163.3125,161691.546875,158582.421875,180560.4375,178107.375,686107.9375,131942.4375,0.043701171875,1.009765625,-0.09423828125,-1.6784666776657104,0.3356933295726776,0.6408690810203552,86.66667175292969,75519.0,1.0
18:12:52.636612,136288.515625,144162.859375,161692.609375,158564.890625,180566.875,178116.140625,686100.0625,131929.21875,0.044677734375,1.00927734375,-0.092529296875,-1.7395018339157104,0.2746581733226776,0.6408690810203552,86.66667175292969,75520.0,1.0
18:12:52.643591,136279.046875,144142.203125,161692.96875,158572.484375,180568.671875,178114.625,685970.6875,131943.0625,0.0439453125,1.00732421875,-0.092529296875,-1.6784666776657104,0.1831054538488388,0.7629393935203552,86.66667175292969,75521.0,1.0
18:12:52.646079,136268.671875,144128.25,161680.453125,158565.78125,180552.578125,178097.28125,685960.125,131938.0625,0.0419921875,1.006103515625,-0.092041015625,-1.6479490995407104,0.03051757626235485,0.6713866591453552,86.66667175292969,75522.0,1.0
18:12:52.648603,136296.734375,144166.796875,161697.796875,158581.609375,180566.34375,178113.453125,686047.125,131946.90625,0.042724609375,1.008056640625,-0.09326171875,-1.6479490995407104,0.0,0.7629393935203552,86.66667175292969,75523.0,1.0
18:12:52.654875,136308.1875,144180.734375,161708.796875,158584.03125,180581.453125,178128.84375,686114.125,131947.8125,0.044189453125,1.0087890625,-0.0947265625,-1.6784666776657104,-0.1220703050494194,0.6103515028953552,86.66667175292969,75524.0,1.0
18:12:52.665343,136285.125,144147.921875,161696.8125,158573.921875,180573.21875,178117.75,685947.6875,131943.15625,0.044189453125,1.009521484375,-0.094482421875,-1.7395018339157104,-0.3356933295726776,0.6713866591453552,86.66667175292969,75525.0,1.0
18:12:52.665366,136275.375,144130.046875,161686.171875,158573.203125,180557.21875,178098.53125,685953.6875,131945.65625,0.044189453125,1.01025390625,-0.096435546875,-1.7395018339157104,-0.4882812201976776,0.6713866591453552,86.66667175292969,75526.0,1.0
18:12:52.671596,136294.5,144159.90625,161694.21875,158579.640625,180561.953125,178106.671875,685989.3125,131946.640625,0.04638671875,1.009521484375,-0.09423828125,-1.6784666776657104,-0.5798339247703552,0.7629393935203552,86.66667175292969,75527.0,1.0
18:12:52.671620,136309.96875,144178.421875,161704.0625,158581.171875,180573.40625,178119.453125,686121.9375,131944.5,0.046142578125,1.0078125,-0.098388671875,-1.5563963651657104,-0.7629393935203552,0.8850097060203552,86.66667175292969,75528.0,1.0
18:12:52.674107,136304.515625,144167.859375,161711.84375,158584.65625,180584.578125,178127.9375,685957.8125,131948.515625,0.047119140625,1.007080078125,-0.097412109375,-1.5869139432907104,-0.7934569716453552,0.9460448622703552,86.66667175292969,75529.0,1.0
18:12:52.674158,136286.109375,144137.640625,161695.484375,158582.328125,180562.578125,178101.65625,685962.0,131952.90625,0.048828125,1.005615234375,-0.096435546875,-1.5563963651657104,-0.8239745497703552,0.9765624403953552,86.66667175292969,75530.0,1.0
18:12:52.686196,136308.1875,144167.5,161710.046875,158596.71875,180573.765625,178114.171875,685960.0625,131965.953125,0.05078125,1.005126953125,-0.096923828125,-1.4648436307907104,-0.9155272841453552,0.9765624403953552,86.66667175292969,75531.0,1.0
18:12:52.689250,136325.625,144193.609375,161720.78125,158602.71875,180584.578125,178128.484375,686131.0,131964.34375,0.05224609375,1.00439453125,-0.095947265625,-1.4648436307907104,-0.9155272841453552,1.0375975370407104,86.66667175292969,75532.0,1.0
18:12:52.689275,136306.84375,144173.046875,161715.5,158584.203125,180587.796875,178131.609375,685966.375,131950.671875,0.05029296875,1.0068359375,-0.095947265625,-1.4953612089157104,-0.8239745497703552,0.9765624403953552,86.66667175292969,75533.0,1.0
18:12:52.691126,136286.109375,144139.078125,161697.890625,158580.71875,180567.953125,178106.484375,685956.1875,131953.171875,0.050048828125,1.005859375,-0.095458984375,-1.4953612089157104,-0.8544921278953552,0.9155272841453552,86.66667175292969,75534.0,1.0
18:12:52.706117,136296.5625,144155.53125,161701.375,158587.78125,180569.109375,178109.171875,685951.4375,131956.125,0.051513671875,1.007568359375,-0.09619140625,-1.4648436307907104,-0.8239745497703552,0.9155272841453552,86.66667175292969,75535.0,1.0
18:12:52.709136,136318.015625,144186.734375,161712.734375,158592.15625,180579.21875,178123.5625,686124.3125,131956.484375,0.05126953125,1.005615234375,-0.094970703125,-1.5563963651657104,-0.7934569716453552,0.8544921278953552,86.66667175292969,75536.0,1.0
18:12:52.709208,136317.390625,144184.859375,161721.9375,158594.21875,180594.328125,178139.390625,686005.4375,131959.78125,0.052734375,1.002685546875,-0.095947265625,-1.5869139432907104,-0.8239745497703552,0.8544921278953552,86.66667175292969,75537.0,1.0
18:12:52.711062,136297.90625,144150.078125,161707.640625,158594.390625,180576.171875,178116.328125,685966.9375,131964.96875,0.052490234375,1.0009765625,-0.095458984375,-1.5258787870407104,-0.8544921278953552,0.8239745497703552,86.66667175292969,75538.0,1.0
18:12:52.713503,136307.734375,144163.9375,161712.90625,158600.921875,180578.59375,178119.8125,685965.3125,131969.53125,0.054443359375,1.00341796875,-0.09814453125,-1.5258787870407104,-0.7629393935203552,0.7934569716453552,86.66667175292969,75539.0,1.0
18:12:52.724266,136325.703125,144190.125,161719.078125,158602.171875,180581.265625,178125.34375,686093.6875,131960.59375,0.060791015625,1.0048828125,-0.1015625,-1.4953612089157104,-0.7324218153953552,0.9460448622703552,86.66667175292969,75540.0,1.0
18:12:52.724344,136325.890625,144190.03125,161726.234375,158598.6875,180595.484375,178139.03125,686029.625,131960.140625,0.06298828125,1.0068359375,-0.101318359375,-1.3732908964157104,-0.5493163466453552,1.0986326932907104,86.66667175292969,75541.0,1.0
18:12:52.726616,136305.234375,144159.1875,161714.703125,158596.984375,180583.421875,178122.9375,685939.125,131964.265625,0.06591796875,1.007080078125,-0.102783203125,-1.3427733182907104,-0.4577636420726776,1.2207030057907104,86.66667175292969,75542.0,1.0
18:12:52.726640,136296.828125,144153.65625,161702.890625,158588.578125,180568.84375,178110.328125,685990.5625,131958.625,0.065673828125,1.008056640625,-0.103515625,-1.4038084745407104,-0.2746581733226776,1.3732908964157104,86.66667175292969,75543.0,1.0
18:12:52.732299,136313.734375,144179.125,161708.890625,158589.921875,180571.34375,178114.4375,686076.1875,131957.015625,0.063720703125,1.006591796875,-0.10302734375,-1.3122557401657104,-0.0610351525247097,1.4038084745407104,86.66667175292969,75544.0,1.0
18:12:52.738537,136323.203125,144191.921875,161721.859375,158594.671875,180590.390625,178135.28125,686069.8125,131956.390625,0.06396484375,1.0068359375,-0.103759765625,-1.2512205839157104,0.0915527269244194,1.4343260526657104,86.66667175292969,75545.0,1.0
18:12:52.746684,136307.734375,144168.578125,161718.453125,158597.171875,180588.96875,178131.703125,685936.0625,131963.359375,0.061279296875,1.00732421875,-0.1025390625,-1.1596678495407104,0.3051757514476776,1.4343260526657104,86.66667175292969,75546.0,1.0
18:12:52.746758,136290.578125,144145.78125,161700.390625,158587.953125,180566.703125,178104.4375,685986.5,131957.375,0.05859375,1.0087890625,-0.10009765625,-1.0986326932907104,0.3662109076976776,1.2207030057907104,86.66667175292969,75547.0,1.0
18:12:52.752853,136312.921875,144178.953125,161712.546875,158594.75,180575.734375,178116.859375,686039.5625,131957.640625,0.057373046875,1.013427734375,-0.098388671875,-1.1901854276657104,0.4882812201976776,1.0681151151657104,86.66667175292969,75548.0,1.0
18:12:52.752890,136332.421875,144203.09375,161731.421875,158604.671875,180598.609375,178142.78125,686098.25,131970.78125,0.0556640625,1.016357421875,-0.095947265625,-1.2207030057907104,0.6103515028953552,0.9765624403953552,86.66667175292969,75549.0,1.0
18:12:52.754777,136308.1875,144170.375,161718.71875,158593.140625,180590.84375,178131.4375,685916.125,131962.296875,0.0546875,1.01611328125,-0.095703125,-1.3122557401657104,0.6103515028953552,0.8544921278953552,86.66667175292969,75550.0,1.0
18:12:52.770047,136292.8125,144148.46875,161704.328125,158590.640625,180571.796875,178112.203125,685992.875,131960.859375,0.054443359375,1.015869140625,-0.093505859375,-1.4648436307907104,0.6103515028953552,0.7019042372703552,86.66667175292969,75551.0,1.0
18:12:52.772948,136303.0,144168.9375,161705.3125,158588.859375,180570.1875,178113.734375,686045.4375,131954.953125,0.052734375,1.01416015625,-0.0927734375,-1.7395018339157104,0.5798339247703552,0.5493163466453552,86.66667175292969,75552.0,1.0
18:12:52.772982,136314.0,144183.15625,161710.046875,158589.5625,180576.890625,178121.859375,686123.3125,131951.828125,0.053955078125,1.01220703125,-0.095703125,-1.8310545682907104,0.5493163466453552,0.2441406100988388,86.66667175292969,75553.0,1.0
18:12:52.775028,136309.703125,144174.03125,161718.984375,158595.109375,180591.015625,178134.375,685957.375,131960.0625,0.052978515625,1.010986328125,-0.094970703125,-1.8920897245407104,0.5798339247703552,0.1525878757238388,86.66667175292969,75554.0,1.0
18:12:52.779807,136290.75,144146.765625,161702.71875,158593.953125,180570.28125,178112.75,685977.8125,131963.71875,0.052490234375,1.011474609375,-0.093505859375,-1.8920897245407104,0.6103515028953552,0.0,86.66667175292969,75555.0,1.0
18:12:52.782507,136295.21875,144161.609375,161698.421875,158585.28125,180563.921875,178108.90625,685996.0,131953.4375,0.0546875,1.010009765625,-0.093994140625,-1.9836424589157104,0.5493163466453552,0.0610351525247097,86.66667175292969,75556.0,1.0
18:12:52.786231,136321.859375,144194.328125,161715.6875,158596.453125,180581.1875,178128.921875,686131.0,131959.15625,0.054931640625,1.010009765625,-0.09716796875,-2.014159917831421,0.6408690810203552,-0.03051757626235485,86.66667175292969,75557.0,1.0
18:12:52.795379,136316.234375,144184.765625,161722.84375,158594.578125,180595.578125,178141.09375,685963.6875,131961.671875,0.0556640625,1.01123046875,-0.0966796875,-2.014159917831421,0.6408690810203552,-0.0610351525247097,86.66667175292969,75558.0,1.0
18:12:52.795448,136294.0625,144149.453125,161706.296875,158593.5,180576.0,178117.125,685959.0625,131966.578125,0.056884765625,1.01123046875,-0.094970703125,-1.9226073026657104,0.5798339247703552,-0.0915527269244194,86.66667175292969,75559.0,1.0
18:12:52.797884,136297.28125,144160.171875,161703.875,158592.078125,180571.171875,178112.484375,685999.5,131960.953125,0.05419921875,1.010498046875,-0.096435546875,-2.044677495956421,0.6408690810203552,-0.0610351525247097,86.66667175292969,75560.0,1.0
18:12:52.797942,136309.265625,144177.96875,161705.3125,158588.671875,180571.078125,178112.484375,686122.0625,131954.15625,0.053466796875,1.010009765625,-0.09716796875,-2.044677495956421,0.6408690810203552,0.1525878757238388,86.66667175292969,75561.0,1.0
18:12:52.807333,136314.265625,144182.890625,161720.59375,158594.21875,180592.890625,178132.6875,686004.125,131958.359375,0.0556640625,1.00830078125,-0.09375,-2.136230230331421,0.7629393935203552,0.1831054538488388,86.66667175292969,75562.0,1.0
18:12:52.812094,136295.125,144152.84375,161709.0625,158593.953125,180577.34375,178114.625,685959.9375,131960.140625,0.053955078125,1.0087890625,-0.091552734375,-2.197265386581421,0.7934569716453552,0.2441406100988388,86.66667175292969,75563.0,1.0
18:12:52.812164,136292.890625,144154.453125,161702.71875,158589.921875,180568.046875,178107.46875,686001.6875,131957.375,0.05126953125,1.010498046875,-0.09130859375,-2.258300542831421,0.7934569716453552,0.3051757514476776,86.66667175292969,75564.0,1.0
18:12:52.816148,136311.046875,144180.46875,161710.5,158594.390625,180574.484375,178112.390625,686116.625,131957.828125,0.05078125,1.010009765625,-0.0908203125,-2.197265386581421,0.8239745497703552,0.3051757514476776,86.66667175292969,75565.0,1.0
18:12:52.818515,136315.875,144186.375,161723.734375,158594.390625,180596.203125,178131.25,686051.75,131959.15625,0.0478515625,1.0087890625,-0.092041015625,-2.197265386581421,0.6408690810203552,0.4272460639476776,86.66667175292969,75566.0,1.0
18:12:52.828546,136304.34375,144163.65625,161722.75,158602.078125,180595.125,178126.6875,685954.25,131971.046875,0.045654296875,1.01025390625,-0.090576171875,-2.319335699081421,0.5493163466453552,0.5493163466453552,86.66667175292969,75567.0,1.0
18:12:52.834132,136293.25,144153.109375,161709.421875,158595.46875,180578.765625,178110.59375,685982.75,131965.6875,0.044677734375,1.010498046875,-0.088134765625,-2.349853277206421,0.4272460639476776,0.6408690810203552,86.66667175292969,75568.0,1.0
18:12:52.834200,136309.703125,144178.859375,161713.53125,158596.90625,180579.84375,178114.0,686082.8125,131962.375,0.04345703125,1.007080078125,-0.089111328125,-2.349853277206421,0.3051757514476776,0.6103515028953552,86.66667175292969,75569.0,1.0
18:12:52.836449,136316.40625,144187.625,161722.296875,158595.828125,180593.515625,178128.125,686092.125,131960.765625,0.04345703125,1.008056640625,-0.088623046875,-2.380370855331421,0.1831054538488388,0.5798339247703552,86.66667175292969,75570.0,1.0
18:12:52.878620,136295.9375,144156.59375,161714.25,158596.546875,180585.65625,178116.953125,685951.625,131965.6875,0.04296875,1.0048828125,-0.08984375,-2.471923589706421,0.0,0.7019042372703552,86.66667175292969,75571.0,1.0
18:12:52.888066,136287.4375,144143.453125,161705.046875,158602.71875,180572.421875,178102.375,685989.75,131979.1875,0.044189453125,1.007080078125,-0.091064453125,-2.471923589706421,-0.1220703050494194,0.7324218153953552,86.66667175292969,75572.0,1.0
18:12:52.888146,136305.765625,144176.265625,161711.390625,158591.453125,180575.1875,178114.71875,686065.5625,131958.890625,0.040771484375,1.007080078125,-0.088623046875,-2.441406011581421,-0.3051757514476776,0.5493163466453552,86.66667175292969,75573.0,1.0
18:12:52.889888,136313.28125,144185.5625,161716.21875,158587.0625,180583.0625,178122.140625,686129.8125,131949.59375,0.041015625,1.00634765625,-0.089599609375,-2.441406011581421,-0.3967284858226776,0.5493163466453552,86.66667175292969,75574.0,1.0
18:12:52.892511,136295.9375,144161.96875,161711.65625,158579.46875,180582.34375,178119.09375,685951.1875,131944.234375,0.04248046875,1.0048828125,-0.08740234375,-2.380370855331421,-0.4882812201976776,0.4272460639476776,86.66667175292969,75575.0,1.0
18:12:52.894932,136283.78125,144142.296875,161699.328125,158583.125,180565.09375,178100.578125,685966.875,131951.46875,0.044189453125,1.0048828125,-0.090087890625,-2.258300542831421,-0.6408690810203552,0.3967284858226776,86.66667175292969,75576.0,1.0
18:12:52.897458,136289.671875,144157.9375,161695.03125,158576.96875,180558.828125,178098.34375,685981.0,131942.171875,0.044677734375,1.0048828125,-0.0888671875,-2.227782964706421,-0.7629393935203552,0.3662109076976776,86.66667175292969,75577.0,1.0
18:12:52.899935,136303.09375,144175.375,161702.0,158576.6875,180567.328125,178108.984375,686119.1875,131938.859375,0.0458984375,1.00341796875,-0.089111328125,-2.227782964706421,-0.9155272841453552,0.3967284858226776,86.66667175292969,75578.0,1.0
18:12:52.902569,136301.21875,144169.03125,161713.0,158587.953125,180582.609375,178123.203125,685943.25,131952.71875,0.04833984375,1.005126953125,-0.090576171875,-2.105712652206421,-0.8544921278953552,0.3662109076976776,86.66667175292969,75579.0,1.0
18:12:52.905607,136279.671875,144136.296875,161695.296875,158583.484375,180560.890625,178097.453125,685965.875,131952.71875,0.050048828125,1.003173828125,-0.093505859375,-2.136230230331421,-1.0375975370407104,0.4882812201976776,86.66667175292969,75580.0,1.0
18:12:52.907547,136285.203125,144149.171875,161693.6875,158578.921875,180558.65625,178094.953125,685986.1875,131947.265625,0.051025390625,1.001220703125,-0.091064453125,-1.9531248807907104,-1.0681151151657104,0.5187987685203552,86.66667175292969,75581.0,1.0
18:12:52.910035,136302.734375,144175.109375,161701.5625,158580.1875,180566.96875,178106.75,686118.375,131946.828125,0.05322265625,1.00048828125,-0.089111328125,-1.8005369901657104,-1.0986326932907104,0.6103515028953552,86.66667175292969,75582.0,1.0
18:12:52.912798,136306.484375,144178.59375,161717.921875,158587.15625,180590.296875,178130.171875,685974.0625,131955.859375,0.052001953125,1.0009765625,-0.09130859375,-1.7395018339157104,-0.9765624403953552,0.7019042372703552,86.66667175292969,75583.0,1.0
18:12:52.915334,136283.59375,144145.78125,161701.375,158584.375,180571.796875,178107.921875,685953.0,131958.71875,0.053955078125,0.998779296875,-0.090576171875,-1.5258787870407104,-0.9155272841453552,0.6713866591453552,86.66667175292969,75584.0,1.0
18:12:52.917668,136285.5625,144151.953125,161697.71875,158581.703125,180566.25,178100.046875,685961.9375,131951.46875,0.054931640625,0.99853515625,-0.090087890625,-1.4648436307907104,-0.8239745497703552,0.7934569716453552,86.66667175292969,75585.0,1.0
18:12:52.920424,136292.265625,144167.6875,161693.875,158571.15625,180560.703125,178099.25,686110.0,131935.375,0.056640625,1.00244140625,-0.09326171875,-1.3427733182907104,-0.8239745497703552,0.8850097060203552,86.66667175292969,75586.0,1.0
18:12:52.920447,136296.390625,144171.34375,161708.4375,158576.515625,180582.25,178119.625,686014.3125,131946.109375,0.05810546875,1.004150390625,-0.094482421875,-1.0986326932907104,-0.7324218153953552,0.9460448622703552,86.66667175292969,75587.0,1.0
18:12:52.922955,136273.3125,144135.765625,161692.53125,158575.703125,180564.375,178097.28125,685956.75,131949.15625,0.058349609375,1.00146484375,-0.095947265625,-1.0070799589157104,-0.5798339247703552,1.0375975370407104,86.66667175292969,75588.0,1.0
18:12:52.923005,136272.15625,144139.875,161686.0,158572.21875,180555.4375,178093.703125,685929.625,131943.0625,0.058349609375,1.0029296875,-0.095703125,-0.7629393935203552,-0.3662109076976776,1.1901854276657104,86.66667175292969,75589.0,1.0
18:12:52.928689,136290.75,144164.5625,161693.515625,158577.046875,180560.890625,178096.734375,686079.125,131943.515625,0.05810546875,1.006103515625,-0.092041015625,-0.7629393935203552,-0.3051757514476776,1.1291502714157104,86.66667175292969,75590.0,1.0
18:12:52.931670,136297.1875,144171.796875,161706.203125,158576.421875,180580.828125,178115.609375,686054.0,131942.4375,0.056640625,1.0078125,-0.09423828125,-0.6713866591453552,-0.2746581733226776,1.1901854276657104,86.66667175292969,75591.0,1.0
18:12:52.931694,136281.359375,144143.1875,161700.84375,158582.59375,180575.1875,178105.5,685947.5625,131951.921875,0.055908203125,1.00830078125,-0.095947265625,-0.6408690810203552,-0.1525878757238388,1.0986326932907104,86.66667175292969,75592.0,1.0
18:12:52.933825,136273.3125,144132.015625,161690.203125,158586.265625,180560.171875,178088.421875,685940.625,131956.75,0.055419921875,1.01220703125,-0.096923828125,-0.7019042372703552,0.0,1.0681151151657104,86.66667175292969,75593.0,1.0
18:12:52.939541,136291.46875,144165.265625,161695.03125,158579.375,180562.3125,178097.09375,686058.6875,131946.5625,0.055908203125,1.00927734375,-0.096923828125,-0.6103515028953552,0.03051757626235485,1.1291502714157104,86.66667175292969,75594.0,1.0
18:12:52.939572,136292.625,144170.09375,161698.703125,158573.921875,180570.90625,178108.8125,686104.5,131942.53125,0.05517578125,1.011474609375,-0.0986328125,-0.6408690810203552,0.0610351525247097,1.0070799589157104,86.66667175292969,75595.0,1.0
18:12:52.949303,136280.46875,144150.4375,161699.140625,158578.65625,180573.765625,178109.796875,685970.4375,131947.984375,0.05517578125,1.01220703125,-0.09765625,-0.7324218153953552,0.1525878757238388,0.9765624403953552,86.66667175292969,75596.0,1.0
18:12:52.949342,136263.484375,144124.40625,161680.8125,158572.140625,180552.21875,178081.546875,685980.8125,131943.515625,0.056396484375,1.01220703125,-0.0986328125,-0.6103515028953552,0.1831054538488388,0.8850097060203552,86.66667175292969,75597.0,1.0
18:12:52.951722,136284.046875,144156.0625,161690.5625,158575.359375,180559.015625,178090.75,686056.9375,131942.171875,0.0546875,1.012939453125,-0.09765625,-0.6103515028953552,0.3051757514476776,0.8544921278953552,86.66667175292969,75598.0,1.0
18:12:52.951755,136303.171875,144181.546875,161707.09375,158582.328125,180577.609375,178114.171875,686162.625,131945.578125,0.0556640625,1.01123046875,-0.09423828125,-0.8239745497703552,0.3051757514476776,0.7629393935203552,86.66667175292969,75599.0,1.0
18:12:52.961059,136296.109375,144168.046875,161712.828125,158588.140625,180587.171875,178123.203125,685995.8125,131954.515625,0.0556640625,1.0068359375,-0.096923828125,-0.9765624403953552,0.3662109076976776,0.7019042372703552,86.66667175292969,75600.0,1.0
18:12:52.965324,136279.9375,144144.890625,161697.796875,158584.203125,180568.390625,178102.640625,686014.75,131959.875,0.056884765625,1.006591796875,-0.095703125,-0.9155272841453552,0.3967284858226776,0.5798339247703552,86.66667175292969,75601.0,1.0
18:12:52.965348,136298.984375,144174.125,161709.0625,158593.40625,180575.375,178113.90625,686046.25,131960.859375,0.057861328125,1.00634765625,-0.095947265625,-0.9155272841453552,0.5187987685203552,0.4882812201976776,86.66667175292969,75602.0,1.0
18:12:52.975012,136322.140625,144200.9375,161724.890625,158602.265625,180591.28125,178131.25,686214.0625,131962.65625,0.05810546875,1.009521484375,-0.09765625,-1.0070799589157104,0.6408690810203552,0.4272460639476776,86.66667175292969,75603.0,1.0
18:12:52.983530,136304.078125,144176.71875,161718.90625,158590.1875,180592.171875,178128.921875,686025.125,131954.953125,0.059814453125,1.009765625,-0.099365234375,-0.8850097060203552,0.7019042372703552,0.4882812201976776,86.66667175292969,75604.0,1.0
18:12:52.983556,136284.3125,144144.078125,161701.640625,158586.078125,180571.34375,178102.828125,686024.4375,131956.03125,0.060791015625,1.00927734375,-0.10205078125,-1.0070799589157104,0.7934569716453552,0.5493163466453552,86.66667175292969,75605.0,1.0
18:12:52.983560,136299.6875,144168.484375,161711.578125,158595.5625,180578.5,178110.875,686044.875,131960.5,0.05859375,1.007080078125,-0.100341796875,-1.0070799589157104,0.8239745497703552,0.5798339247703552,86.66667175292969,75606.0,1.0
18:12:52.988054,136321.78125,144198.984375,161722.390625,158602.265625,180589.046875,178125.34375,686234.5,131965.953125,0.05908203125,1.009033203125,-0.0986328125,-0.9765624403953552,0.9460448622703552,0.5187987685203552,86.66667175292969,75607.0,1.0
18:12:52.988074,136313.1875,144188.515625,161725.34375,158598.859375,180599.328125,178133.84375,686063.5,131965.6875,0.05810546875,1.007568359375,-0.09765625,-0.9765624403953552,0.9155272841453552,0.4577636420726776,86.66667175292969,75608.0,1.0
18:12:52.993518,136290.84375,144154.984375,161708.171875,158597.171875,180578.5,178111.9375,686010.125,131965.0625,0.05615234375,1.00927734375,-0.09619140625,-1.0986326932907104,0.8850097060203552,0.4882812201976776,86.66667175292969,75609.0,1.0
18:12:53.022842,136300.3125,144167.953125,161712.734375,158610.21875,180578.140625,178112.921875,686010.625,131973.921875,0.054931640625,1.009765625,-0.095458984375,-1.1291502714157104,0.8850097060203552,0.4272460639476776,86.66667175292969,75610.0,1.0
18:12:53.022865,136325.4375,144201.921875,161725.25,158606.015625,180588.15625,178126.78125,686194.625,131967.296875,0.052490234375,1.01123046875,-0.09765625,-1.1291502714157104,0.8850097060203552,0.3967284858226776,86.66667175292969,75611.0,1.0
18:12:53.026601,136331.4375,144209.890625,161739.828125,158607.453125,180610.328125,178148.859375,686086.9375,131972.21875,0.051025390625,1.0107421875,-0.095947265625,-1.1596678495407104,0.8850097060203552,0.3051757514476776,86.66667175292969,75612.0,1.0
18:12:53.026631,136314.890625,144178.421875,161730.4375,158612.09375,180600.046875,178130.984375,686009.3125,131981.78125,0.04931640625,1.00927734375,-0.099609375,-1.2207030057907104,0.8850097060203552,0.3662109076976776,86.66667175292969,75613.0,1.0
18:12:53.026640,136293.875,144156.953125,161705.3125,158594.484375,180571.53125,178102.28125,685980.8125,131967.75,0.046630859375,1.009765625,-0.099853515625,-1.2512205839157104,0.8239745497703552,0.3356933295726776,86.66667175292969,75614.0,1.0
18:12:53.026651,136310.875,144185.65625,161710.046875,158593.953125,180571.796875,178108.453125,686128.25,131960.59375,0.047119140625,1.00830078125,-0.09814453125,-1.2512205839157104,0.7324218153953552,0.3051757514476776,86.66667175292969,75615.0,1.0
18:12:53.034676,136316.046875,144192.625,161720.515625,158591.359375,180587.0,178125.4375,686096.75,131952.453125,0.04541015625,1.008544921875,-0.09716796875,-1.3122557401657104,0.5798339247703552,0.1525878757238388,86.66667175292969,75616.0,1.0
18:12:53.034700,136302.546875,144167.859375,161717.65625,158599.84375,180584.140625,178118.5625,685991.1875,131962.921875,0.041748046875,1.01025390625,-0.098876953125,-1.3732908964157104,0.3662109076976776,0.0610351525247097,86.66667175292969,75617.0,1.0
18:12:53.034707,136290.484375,144155.796875,161702.453125,158591.359375,180567.0625,178103.0,685978.3125,131957.640625,0.042724609375,1.00927734375,-0.096435546875,-1.4648436307907104,0.2441406100988388,0.03051757626235485,86.66667175292969,75618.0,1.0
18:12:53.039773,136311.9375,144187.359375,161711.84375,158597.078125,180574.03125,178114.53125,686079.875,131962.734375,0.04443359375,1.00830078125,-0.0947265625,-1.5258787870407104,0.1525878757238388,0.0,86.66667175292969,75619.0,1.0
18:12:53.042317,136323.65625,144203.265625,161724.984375,158602.0,180590.03125,178134.109375,686138.4375,131963.984375,0.045166015625,1.0107421875,-0.095703125,-1.6174315214157104,-0.0915527269244194,-0.0915527269244194,86.66667175292969,75620.0,1.0
18:12:53.044785,136306.125,144177.078125,161718.8125,158598.234375,180587.0,178128.921875,685985.25,131961.84375,0.044189453125,1.010498046875,-0.09765625,-1.7395018339157104,-0.1525878757238388,-0.03051757626235485,86.66667175292969,75621.0,1.0
18:12:53.047297,136291.46875,144154.8125,161702.71875,158593.0625,180568.046875,178107.921875,685985.1875,131961.046875,0.046875,1.01025390625,-0.093505859375,-1.7700194120407104,-0.2136230319738388,0.0915527269244194,86.66667175292969,75622.0,1.0
18:12:53.051249,136313.8125,144187.359375,161715.765625,158599.9375,180578.328125,178119.1875,686039.1875,131967.484375,0.04541015625,1.010498046875,-0.0947265625,-1.9531248807907104,-0.2441406100988388,0.1831054538488388,86.66667175292969,75623.0,1.0
18:12:53.057258,136317.484375,144193.4375,161716.578125,158591.265625,180582.25,178121.859375,686150.125,131956.484375,0.049560546875,1.007568359375,-0.0966796875,-1.8920897245407104,-0.3662109076976776,0.3356933295726776,86.66667175292969,75624.0,1.0
18:12:53.067815,136310.953125,144179.578125,161724.09375,158600.75,180594.859375,178132.6875,685990.5625,131966.5,0.049072265625,1.0068359375,-0.099853515625,-1.9531248807907104,-0.4577636420726776,0.2746581733226776,86.66667175292969,75625.0,1.0
18:12:53.067839,136288.34375,144152.125,161703.96875,158591.0,180570.359375,178108.625,685992.25,131961.84375,0.04833984375,1.0068359375,-0.097412109375,-1.9836424589157104,-0.5493163466453552,0.3356933295726776,86.66667175292969,75626.0,1.0
18:12:53.074767,136302.546875,144174.921875,161709.875,158594.9375,180573.3125,178112.828125,685995.875,131964.078125,0.04931640625,1.006103515625,-0.096435546875,-1.9836424589157104,-0.5493163466453552,0.4577636420726776,86.66667175292969,75627.0,1.0
18:12:53.077230,136320.34375,144195.671875,161719.703125,158598.0625,180584.3125,178123.5625,686157.375,131964.171875,0.049072265625,1.00830078125,-0.0947265625,-2.075195074081421,-0.5798339247703552,0.6103515028953552,86.66667175292969,75628.0,1.0
18:12:53.079750,136312.390625,144183.328125,161724.171875,158598.421875,180594.59375,178130.53125,685987.25,131968.1875,0.04833984375,1.007568359375,-0.0966796875,-2.044677495956421,-0.7324218153953552,0.5493163466453552,86.66667175292969,75629.0,1.0
18:12:53.082350,136289.046875,144147.21875,161705.140625,158596.28125,180573.3125,178102.015625,685985.4375,131976.78125,0.051025390625,1.008544921875,-0.096923828125,-2.014159917831421,-0.7934569716453552,0.5798339247703552,86.66667175292969,75630.0,1.0
18:12:53.084781,136285.828125,144153.5625,161695.484375,158585.359375,180561.328125,178095.046875,685945.0,131962.828125,0.05078125,1.00732421875,-0.096923828125,-2.075195074081421,-0.7629393935203552,0.7019042372703552,86.66667175292969,75631.0,1.0
18:12:53.087950,136303.265625,144177.15625,161703.609375,158588.234375,180566.78125,178103.171875,686125.25,131956.390625,0.048828125,1.008056640625,-0.095703125,-2.044677495956421,-0.7934569716453552,0.8239745497703552,86.66667175292969,75632.0,1.0
18:12:53.087960,136307.46875,144180.203125,161719.265625,158593.953125,180588.421875,178124.546875,686002.6875,131960.765625,0.048828125,1.0107421875,-0.095458984375,-2.044677495956421,-0.7934569716453552,0.9460448622703552,86.66667175292969,75633.0,1.0
18:12:53.089799,136292.890625,144154.984375,161709.6875,158600.03125,180575.734375,178108.546875,685970.6875,131970.703125,0.04931640625,1.012939453125,-0.093505859375,-2.075195074081421,-0.7629393935203552,1.0070799589157104,86.66667175292969,75634.0,1.0
18:12:53.105364,136294.59375,144160.984375,161706.109375,158597.078125,180569.296875,178102.109375,685930.875,131968.1875,0.04931640625,1.0126953125,-0.094482421875,-2.075195074081421,-0.7324218153953552,1.0070799589157104,86.66667175292969,75635.0,1.0
18:12:53.105371,136318.734375,144195.671875,161717.46875,158600.828125,180578.234375,178116.859375,686097.8125,131964.609375,0.050537109375,1.010986328125,-0.093017578125,-2.197265386581421,-0.7934569716453552,0.9460448622703552,86.66667175292969,75636.0,1.0
18:12:53.107263,136322.140625,144201.03125,161728.734375,158600.65625,180596.109375,178137.515625,686025.0625,131966.3125,0.05126953125,1.010009765625,-0.091552734375,-2.258300542831421,-0.7934569716453552,0.8544921278953552,86.66667175292969,75637.0,1.0
18:12:53.109966,136296.203125,144162.859375,161712.203125,158594.671875,180578.953125,178113.015625,685956.5,131965.953125,0.0537109375,1.011474609375,-0.09521484375,-2.319335699081421,-0.7629393935203552,0.8544921278953552,86.66667175292969,75638.0,1.0
18:12:53.113505,136288.609375,144155.609375,161702.265625,158590.8125,180565.796875,178098.96875,685947.1875,131964.078125,0.0556640625,1.01123046875,-0.097412109375,-2.288818120956421,-0.7629393935203552,0.7934569716453552,86.66667175292969,75639.0,1.0
18:12:53.129197,136317.75,144192.453125,161720.15625,158603.421875,180579.3125,178113.8125,686075.75,131969.171875,0.057373046875,1.012451171875,-0.09521484375,-2.319335699081421,-0.6713866591453552,0.7324218153953552,86.66667175292969,75640.0,1.0
18:12:53.129272,136325.078125,144199.515625,161730.796875,158605.84375,180595.484375,178130.8125,686072.4375,131971.59375,0.058837890625,1.0126953125,-0.0947265625,-2.471923589706421,-0.6103515028953552,0.7629393935203552,86.66667175292969,75641.0,1.0
18:12:53.132551,136299.6875,144162.59375,161714.796875,158598.515625,180581.984375,178114.171875,685950.3125,131967.75,0.06005859375,1.01123046875,-0.092041015625,-2.471923589706421,-0.4882812201976776,0.7934569716453552,86.66667175292969,75642.0,1.0
18:12:53.132627,136302.640625,144162.234375,161715.6875,158606.734375,180580.109375,178110.875,685953.5,131980.171875,0.061767578125,1.011474609375,-0.093994140625,-2.471923589706421,-0.2746581733226776,0.7019042372703552,86.66667175292969,75643.0,1.0
18:12:53.133555,136316.953125,144188.421875,161718.359375,158605.125,180580.015625,178114.0,686030.875,131974.8125,0.06396484375,1.00732421875,-0.0966796875,-2.532958745956421,-0.0915527269244194,0.7324218153953552,86.66667175292969,75644.0,1.0
18:12:53.143476,136322.21875,144198.984375,161723.109375,158600.828125,180588.6875,178126.421875,686107.6875,131969.0,0.06640625,1.005859375,-0.094482421875,-2.593993902206421,0.1831054538488388,0.7019042372703552,86.66667175292969,75645.0,1.0
18:12:53.143559,136311.046875,144179.75,161725.609375,158604.328125,180593.96875,178128.03125,685953.0625,131977.578125,0.063720703125,1.00390625,-0.092529296875,-2.471923589706421,0.3356933295726776,0.7629393935203552,86.66667175292969,75646.0,1.0
18:12:53.147975,136296.109375,144158.75,161710.765625,158597.53125,180574.75,178107.015625,685957.375,131969.171875,0.0634765625,1.00439453125,-0.09326171875,-2.349853277206421,0.5798339247703552,0.7934569716453552,86.66667175292969,75647.0,1.0
18:12:53.148041,136304.78125,144179.75,161711.578125,158595.109375,180573.40625,178108.71875,686004.0625,131963.28125,0.063232421875,1.007080078125,-0.09228515625,-2.349853277206421,0.7019042372703552,0.7324218153953552,86.66667175292969,75648.0,1.0
18:12:53.153585,136313.546875,144194.0625,161715.234375,158591.53125,180579.75,178119.625,686123.0625,131958.171875,0.061767578125,1.005859375,-0.091796875,-2.349853277206421,1.0070799589157104,0.7629393935203552,86.66667175292969,75649.0,1.0
18:12:53.160443,136301.03125,144175.109375,161716.125,158596.0,180585.109375,178121.59375,685949.75,131964.890625,0.060791015625,1.00390625,-0.0927734375,-2.349853277206421,1.0986326932907104,0.8239745497703552,86.66667175292969,75650.0,1.0
18:12:53.160519,136276.890625,144145.875,161694.5,158580.53125,180559.71875,178097.015625,685958.8125,131953.703125,0.059326171875,1.0029296875,-0.097412109375,-2.227782964706421,1.1901854276657104,0.7019042372703552,86.66667175292969,75651.0,1.0
18:12:53.162263,136288.703125,144163.484375,161697.890625,158582.765625,180562.140625,178096.203125,685968.75,131953.890625,0.06005859375,1.004638671875,-0.09619140625,-2.197265386581421,1.4038084745407104,0.6103515028953552,86.66667175292969,75652.0,1.0
18:12:53.172297,136314.71875,144195.9375,161716.84375,158596.1875,180580.734375,178117.03125,686132.4375,131963.1875,0.05810546875,1.005859375,-0.09423828125,-2.105712652206421,1.4953612089157104,0.6713866591453552,86.66667175292969,75653.0,1.0
18:12:53.179132,136324.453125,144201.75,161738.296875,158611.65625,180607.921875,178144.9375,685979.875,131978.46875,0.058349609375,1.00537109375,-0.094970703125,-2.044677495956421,1.5869139432907104,0.5493163466453552,86.66667175292969,75654.0,1.0
18:12:53.179191,136294.5,144161.0625,161712.28125,158599.40625,180578.5,178113.109375,685976.75,131971.5,0.05859375,1.005126953125,-0.09423828125,-2.044677495956421,1.6479490995407104,0.6103515028953552,86.66667175292969,75655.0,1.0
18:12:53.181042,136297.8125,144169.921875,161707.28125,158597.609375,180570.546875,178106.390625,685980.0,131968.640625,0.056640625,1.00537109375,-0.093017578125,-2.014159917831421,1.8005369901657104,0.6408690810203552,86.66667175292969,75656.0,1.0
18:12:53.191117,136322.3125,144200.671875,161721.671875,158609.859375,180582.25,178121.5,686144.75,131977.84375,0.0537109375,1.006591796875,-0.092529296875,-1.9226073026657104,1.8005369901657104,0.5187987685203552,86.66667175292969,75657.0,1.0
18:12:53.198663,136324.546875,144203.0,161733.75,158608.515625,180601.484375,178141.625,686022.25,131974.71875,0.0517578125,1.00830078125,-0.0927734375,-1.9531248807907104,1.8615721464157104,0.4882812201976776,86.66667175292969,75658.0,1.0
18:12:53.198730,136294.859375,144161.515625,161711.75,158598.328125,180578.59375,178113.28125,685977.9375,131971.328125,0.05078125,1.0087890625,-0.091796875,-1.8310545682907104,1.8615721464157104,0.5798339247703552,86.66667175292969,75659.0,1.0
18:12:53.198757,136285.5625,144157.046875,161696.90625,158583.3125,180561.25,178099.0625,685958.8125,131958.984375,0.048828125,1.0107421875,-0.08935546875,-1.9226073026657104,1.8310545682907104,0.6103515028953552,86.66667175292969,75660.0,1.0
18:12:53.201729,136309.890625,144187.0,161709.609375,158594.21875,180569.375,178108.1875,686116.125,131966.3125,0.049072265625,1.0107421875,-0.089111328125,-1.8920897245407104,1.8615721464157104,0.5798339247703552,86.66667175292969,75661.0,1.0
18:12:53.201792,136314.265625,144191.828125,161720.953125,158594.671875,180587.171875,178126.953125,686057.875,131961.125,0.048095703125,1.00634765625,-0.08935546875,-1.8920897245407104,1.6784666776657104,0.5187987685203552,86.66667175292969,75662.0,1.0
18:12:53.236166,136290.484375,144157.84375,161706.46875,158591.984375,180572.875,178110.328125,685959.0625,131962.109375,0.04736328125,1.00537109375,-0.09228515625,-1.9531248807907104,1.5869139432907104,0.5798339247703552,86.66667175292969,75663.0,1.0
18:12:53.262355,136286.8125,144155.265625,161699.328125,158591.265625,180563.125,178101.484375,685954.875,131961.046875,0.045166015625,1.005859375,-0.091064453125,-1.8615721464157104,1.4648436307907104,0.5187987685203552,86.66667175292969,75664.0,1.0
18:12:53.262390,136307.03125,144184.3125,161708.078125,158595.375,180567.328125,178106.75,686070.125,131962.015625,0.04541015625,1.00634765625,-0.09033203125,-1.8920897245407104,1.4038084745407104,0.5493163466453552,86.66667175292969,75665.0,1.0
18:12:53.262398,136316.5,144197.015625,161719.890625,158597.609375,180582.703125,178124.09375,686076.625,131963.1875,0.04296875,1.008056640625,-0.0947265625,-1.8920897245407104,1.1901854276657104,0.5187987685203552,86.66667175292969,75666.0,1.0
18:12:53.273178,136295.671875,144167.0625,161710.046875,158593.0625,180574.828125,178113.375,685942.25,131963.90625,0.044677734375,1.007568359375,-0.09375,-1.8615721464157104,1.0681151151657104,0.4882812201976776,86.66667175292969,75667.0,1.0
18:12:53.273208,136286.28125,144154.625,161700.21875,158590.015625,180560.4375,178098.34375,685979.4375,131965.515625,0.0458984375,1.005859375,-0.087890625,-1.8005369901657104,0.8850097060203552,0.4577636420726776,86.66667175292969,75668.0,1.0
18:12:53.273215,136310.25,144186.734375,161713.8125,158609.421875,180570.09375,178108.09375,686064.75,131972.125,0.047119140625,1.007080078125,-0.087890625,-1.7395018339157104,0.7324218153953552,0.4577636420726776,86.66667175292969,75669.0,1.0
18:12:53.273221,136323.828125,144204.078125,161727.03125,158609.328125,180587.0,178126.6875,686120.0,131971.671875,0.046630859375,1.008056640625,-0.087890625,-1.8005369901657104,0.5187987685203552,0.4577636420726776,86.66667175292969,75670.0,1.0
18:12:53.273227,136304.875,144180.03125,161720.953125,158590.375,180584.671875,178124.90625,685951.625,131961.484375,0.04736328125,1.005859375,-0.08740234375,-1.8005369901657104,0.4882812201976776,0.4882812201976776,86.66667175292969,75671.0,1.0
18:12:53.275380,136288.96875,144154.984375,161705.84375,158589.921875,180566.34375,178100.578125,685996.1875,131964.171875,0.0478515625,1.007080078125,-0.08935546875,-1.7395018339157104,0.3967284858226776,0.6103515028953552,86.66667175292969,75672.0,1.0
18:12:53.275393,136301.921875,144178.421875,161708.359375,158590.8125,180565.53125,178103.171875,686027.4375,131958.984375,0.046875,1.009033203125,-0.091796875,-1.8310545682907104,0.2441406100988388,0.5798339247703552,86.66667175292969,75673.0,1.0
18:12:53.277229,136320.171875,144201.03125,161721.5,158597.25,180578.671875,178116.953125,686131.4375,131964.53125,0.046630859375,1.0087890625,-0.09326171875,-1.8310545682907104,0.0915527269244194,0.6713866591453552,86.66667175292969,75674.0,1.0
18:12:53.282278,136315.421875,144190.21875,161729.265625,158602.71875,180590.921875,178127.59375,685950.5625,131974.0,0.047607421875,1.007080078125,-0.092529296875,-1.8005369901657104,0.1220703050494194,0.5493163466453552,86.66667175292969,75675.0,1.0
18:12:53.284751,136296.5625,144165.09375,161711.84375,158597.796875,180569.5625,178107.5625,685962.0,131966.84375,0.048583984375,1.0068359375,-0.093017578125,-1.8615721464157104,0.03051757626235485,0.6103515028953552,86.66667175292969,75676.0,1.0
18:12:53.287281,136304.25,144178.859375,161711.125,158596.8125,180567.5,178103.890625,685969.625,131961.9375,0.050048828125,1.005615234375,-0.091552734375,-1.8310545682907104,0.0610351525247097,0.6103515028953552,86.66667175292969,75677.0,1.0
18:12:53.290579,136325.171875,144205.859375,161724.53125,158602.078125,180579.75,178118.015625,686116.6875,131963.546875,0.050048828125,1.006103515625,-0.09228515625,-1.7700194120407104,-0.03051757626235485,0.7629393935203552,86.66667175292969,75678.0,1.0
18:12:53.292512,136326.15625,144204.34375,161738.296875,158612.8125,180599.0625,178137.0625,685954.875,131978.5625,0.04931640625,1.007080078125,-0.09423828125,-1.7395018339157104,-0.1220703050494194,0.6713866591453552,86.66667175292969,75679.0,1.0
18:12:53.295207,136303.359375,144170.09375,161719.796875,158606.734375,180576.71875,178110.421875,685952.8125,131978.65625,0.048828125,1.010498046875,-0.093505859375,-1.6784666776657104,-0.2441406100988388,0.7324218153953552,86.66667175292969,75680.0,1.0
18:12:53.297538,136319.984375,144192.546875,161729.453125,158615.046875,180583.421875,178119.453125,685977.5625,131980.0,0.04931640625,1.009033203125,-0.094970703125,-1.6784666776657104,-0.2136230319738388,0.7934569716453552,86.66667175292969,75681.0,1.0
18:12:53.302234,136340.109375,144220.53125,161738.390625,158617.90625,180591.109375,178131.4375,686114.4375,131977.9375,0.050048828125,1.00830078125,-0.093017578125,-1.7395018339157104,-0.1831054538488388,0.7019042372703552,86.66667175292969,75682.0,1.0
18:12:53.307823,136338.3125,144217.84375,161746.96875,158621.9375,180606.84375,178145.921875,685991.3125,131983.84375,0.04931640625,1.0078125,-0.096923828125,-1.8310545682907104,-0.3051757514476776,0.7324218153953552,86.66667175292969,75683.0,1.0
18:12:53.307853,136315.609375,144185.03125,161731.15625,158615.40625,180590.03125,178126.515625,685939.5,131983.390625,0.052001953125,1.006591796875,-0.095947265625,-1.7089842557907104,-0.3356933295726776,0.7324218153953552,86.66667175292969,75684.0,1.0
18:12:53.310363,136312.296875,144185.65625,161723.546875,158607.890625,180580.015625,178119.1875,685967.625,131978.46875,0.05322265625,1.005859375,-0.093505859375,-1.7700194120407104,-0.3662109076976776,0.7324218153953552,86.66667175292969,75685.0,1.0
18:12:53.310387,136318.296875,144199.15625,161718.8125,158602.265625,180573.21875,178110.875,686073.0625,131968.015625,0.0546875,1.009033203125,-0.09326171875,-1.6784666776657104,-0.2746581733226776,0.7019042372703552,86.66667175292969,75686.0,1.0
18:12:53.312354,136323.296875,144205.953125,161730.796875,158601.375,180592.0,178131.25,686026.3125,131967.75,0.054931640625,1.011474609375,-0.0927734375,-1.7700194120407104,-0.3356933295726776,0.7019042372703552,86.66667175292969,75687.0,1.0
18:12:53.314763,136305.140625,144177.15625,161722.65625,158604.671875,180583.953125,178120.53125,685936.25,131980.078125,0.054443359375,1.010986328125,-0.093505859375,-1.9226073026657104,-0.2746581733226776,0.6408690810203552,86.66667175292969,75688.0,1.0
18:12:53.317422,136297.015625,144164.640625,161712.375,158602.53125,180570.90625,178102.546875,685988.9375,131976.859375,0.054443359375,1.01171875,-0.094970703125,-1.9531248807907104,-0.2746581733226776,0.6713866591453552,86.66667175292969,75689.0,1.0
18:12:53.319777,136310.328125,144189.40625,161714.34375,158596.09375,180568.84375,178104.78125,686074.25,131962.203125,0.05419921875,1.0107421875,-0.095458984375,-1.9836424589157104,-0.1831054538488388,0.7629393935203552,86.66667175292969,75690.0,1.0
18:12:53.326025,136319.359375,144201.921875,161726.859375,158601.90625,180585.46875,178121.953125,686085.6875,131967.484375,0.054931640625,1.010009765625,-0.09521484375,-1.9836424589157104,-0.2136230319738388,0.7324218153953552,86.66667175292969,75691.0,1.0
18:12:53.333510,136309.796875,144184.578125,161729.453125,158611.921875,180591.640625,178124.90625,685946.625,131984.46875,0.0546875,1.010498046875,-0.09765625,-1.9531248807907104,-0.0610351525247097,0.6713866591453552,86.66667175292969,75692.0,1.0
18:12:53.333518,136297.1875,144165.984375,161714.25,158608.171875,180573.3125,178104.515625,685972.9375,131983.84375,0.05419921875,1.009765625,-0.096923828125,-1.9531248807907104,-0.0610351525247097,0.6408690810203552,86.66667175292969,75693.0,1.0
18:12:53.333521,136312.484375,144192.1875,161717.828125,158603.421875,180574.484375,178108.28125,686037.1875,131971.328125,0.052734375,1.009521484375,-0.091796875,-2.014159917831421,0.03051757626235485,0.4577636420726776,86.66667175292969,75694.0,1.0
18:12:53.337350,136320.25,144204.796875,161724.984375,158601.640625,180584.765625,178121.421875,686111.875,131967.390625,0.05419921875,1.010498046875,-0.093017578125,-2.075195074081421,0.0610351525247097,0.4272460639476776,86.66667175292969,75695.0,1.0
18:12:53.341120,136306.75,144183.328125,161725.421875,158603.421875,180588.78125,178123.203125,685938.5,131972.125,0.052734375,1.01025390625,-0.094970703125,-2.044677495956421,0.03051757626235485,0.3967284858226776,86.66667175292969,75696.0,1.0
18:12:53.351730,136293.4375,144161.96875,161711.390625,158602.265625,180570.09375,178104.875,685978.4375,131973.46875,0.052978515625,1.008056640625,-0.09326171875,-2.075195074081421,-0.0915527269244194,0.3967284858226776,86.66667175292969,75697.0,1.0
18:12:53.351771,136300.671875,144177.609375,161708.703125,158597.34375,180566.515625,178100.140625,686011.75,131966.046875,0.05615234375,1.009521484375,-0.09033203125,-2.136230230331421,0.0,0.3051757514476776,86.66667175292969,75698.0,1.0
18:12:53.353865,136315.34375,144197.09375,161718.28125,158598.515625,180576.796875,178110.875,686131.4375,131964.34375,0.055908203125,1.008056640625,-0.091796875,-2.136230230331421,-0.0915527269244194,0.4272460639476776,86.66667175292969,75699.0,1.0
18:12:53.358024,136311.5,144193.25,161727.484375,158600.390625,180590.390625,178128.921875,685958.4375,131970.34375,0.053955078125,1.00537109375,-0.095703125,-2.075195074081421,0.0,0.5187987685203552,86.66667175292969,75700.0,1.0
18:12:53.366600,136287.0,144155.34375,161704.421875,158593.328125,180564.375,178096.5625,685975.0,131969.171875,0.05419921875,1.006103515625,-0.091552734375,-2.044677495956421,0.03051757626235485,0.4882812201976776,86.66667175292969,75701.0,1.0
18:12:53.366766,136290.9375,144165.71875,161700.03125,158588.140625,180557.84375,178092.1875,686009.125,131961.84375,0.053955078125,1.00341796875,-0.093994140625,-1.9836424589157104,-0.0915527269244194,0.4882812201976776,86.66667175292969,75702.0,1.0
18:12:53.368595,136310.15625,144193.875,161711.65625,158593.859375,180567.234375,178105.0625,686155.5625,131968.109375,0.052734375,1.00439453125,-0.093994140625,-1.8920897245407104,-0.0915527269244194,0.4882812201976776,86.66667175292969,75703.0,1.0
18:12:53.377676,136312.921875,144196.828125,161726.859375,158599.578125,180589.140625,178126.78125,686014.5,131970.703125,0.0517578125,1.004150390625,-0.093505859375,-1.8005369901657104,-0.03051757626235485,0.4272460639476776,86.66667175292969,75704.0,1.0
18:12:53.381615,136291.46875,144164.375,161710.046875,158600.828125,180567.6875,178103.53125,685989.625,131970.15625,0.050537109375,1.0048828125,-0.091796875,-1.8005369901657104,0.0610351525247097,0.5798339247703552,86.66667175292969,75705.0,1.0
18:12:53.381642,136283.515625,144160.71875,161694.671875,158585.546875,180549.796875,178088.0625,685956.8125,131955.234375,0.0517578125,1.005859375,-0.091064453125,-1.7089842557907104,0.0610351525247097,0.5798339247703552,86.66667175292969,75706.0,1.0
18:12:53.387875,136312.828125,144199.78125,161712.90625,158599.578125,180565.71875,178108.984375,686140.1875,131964.265625,0.0546875,1.006591796875,-0.0908203125,-1.6784666776657104,0.0,0.5798339247703552,86.66667175292969,75707.0,1.0
18:12:53.387930,136311.765625,144202.203125,161721.578125,158593.140625,180582.34375,178128.03125,686036.0625,131958.984375,0.0537109375,1.008056640625,-0.09326171875,-1.6479490995407104,-0.0610351525247097,0.5798339247703552,86.66667175292969,75708.0,1.0
18:12:53.389797,136285.203125,144161.421875,161701.828125,158587.953125,180560.890625,178101.03125,685965.3125,131958.359375,0.05224609375,1.008544921875,-0.0947265625,-1.5869139432907104,-0.0915527269244194,0.6713866591453552,86.66667175292969,75709.0,1.0
18:12:53.396082,136279.84375,144156.875,161693.515625,158584.296875,180549.53125,178087.4375,685948.3125,131955.140625,0.05322265625,1.009033203125,-0.093017578125,-1.5869139432907104,-0.03051757626235485,0.6408690810203552,86.66667175292969,75710.0,1.0
18:12:53.403731,136298.53125,144183.421875,161700.03125,158588.140625,180553.28125,178093.796875,686109.25,131952.015625,0.052978515625,1.009521484375,-0.093994140625,-1.6784666776657104,0.0,0.6713866591453552,86.66667175292969,75711.0,1.0
18:12:53.410436,136314.359375,144200.59375,161721.140625,158598.59375,180578.765625,178119.984375,686082.25,131962.734375,0.052490234375,1.008544921875,-0.095703125,-1.7089842557907104,-0.0610351525247097,0.6408690810203552,86.66667175292969,75712.0,1.0
18:12:53.410444,136297.453125,144173.40625,161714.078125,158598.0625,180571.078125,178109.796875,685967.5625,131966.21875,0.05029296875,1.009765625,-0.09130859375,-1.6479490995407104,-0.0610351525247097,0.7324218153953552,86.66667175292969,75713.0,1.0
18:12:53.417915,136290.578125,144165.0,161705.3125,158595.734375,180559.71875,178097.28125,685972.0,131966.84375,0.052490234375,1.010986328125,-0.090087890625,-1.7089842557907104,-0.1525878757238388,0.6408690810203552,86.66667175292969,75714.0,1.0
18:12:53.417924,136313.46875,144197.015625,161717.375,158607.8125,180569.5625,178108.359375,686098.0,131974.265625,0.05126953125,1.0107421875,-0.0927734375,-1.8005369901657104,-0.2136230319738388,0.6713866591453552,86.66667175292969,75715.0,1.0
18:12:53.425452,136325.171875,144211.046875,161732.40625,158609.234375,180589.765625,178126.421875,686131.1875,131976.59375,0.0517578125,1.010009765625,-0.09130859375,-1.9226073026657104,-0.3051757514476776,0.7629393935203552,86.66667175292969,75716.0,1.0
18:12:53.425465,136307.296875,144182.703125,161728.109375,158604.671875,180587.703125,178119.09375,685989.75,131975.078125,0.051513671875,1.011962890625,-0.0927734375,-2.044677495956421,-0.3051757514476776,0.7324218153953552,86.66667175292969,75717.0,1.0
18:12:53.431028,136295.21875,144164.5625,161714.703125,158604.140625,180569.5625,178099.953125,686002.625,131978.390625,0.051025390625,1.01220703125,-0.0908203125,-2.105712652206421,-0.3356933295726776,0.5798339247703552,86.66667175292969,75718.0,1.0
18:12:53.438000,136305.953125,144188.34375,161715.0625,158598.234375,180566.4375,178101.484375,686062.125,131963.1875,0.050537109375,1.012939453125,-0.089599609375,-2.136230230331421,-0.3051757514476776,0.6103515028953552,86.66667175292969,75719.0,1.0
18:12:53.438014,136319.359375,144205.0625,161724.984375,158603.78125,180577.15625,178115.25,686161.125,131963.0,0.05224609375,1.010009765625,-0.08984375,-2.136230230331421,-0.2441406100988388,0.5798339247703552,86.66667175292969,75720.0,1.0
18:12:53.444287,136303.53125,144182.4375,161721.3125,158600.125,180578.5,178114.796875,685985.25,131965.875,0.05322265625,1.009033203125,-0.0908203125,-2.166747808456421,-0.3356933295726776,0.4577636420726776,86.66667175292969,75721.0,1.0
18:12:53.444341,136283.6875,144156.59375,161702.984375,158593.40625,180555.515625,178091.734375,685988.125,131962.828125,0.0546875,1.00634765625,-0.09326171875,-2.197265386581421,-0.3356933295726776,0.4882812201976776,86.66667175292969,75722.0,1.0
18:12:53.445967,136293.875,144173.40625,161703.609375,158592.609375,180554.09375,178090.03125,686001.1875,131957.46875,0.0537109375,1.009033203125,-0.0927734375,-2.075195074081421,-0.1831054538488388,0.3662109076976776,86.66667175292969,75723.0,1.0
18:12:53.457382,136312.125,144195.40625,161715.140625,158599.578125,180567.59375,178102.640625,686162.625,131963.359375,0.05517578125,1.0078125,-0.08935546875,-2.105712652206421,-0.3356933295726776,0.4272460639476776,86.66667175292969,75724.0,1.0
18:12:53.462627,136298.078125,144180.03125,161713.8125,158589.03125,180571.796875,178109.703125,685989.1875,131956.296875,0.054931640625,1.007568359375,-0.092529296875,-2.105712652206421,-0.3051757514476776,0.4882812201976776,86.66667175292969,75725.0,1.0
18:12:53.462704,136273.40625,144146.140625,161692.609375,158584.734375,180547.03125,178081.984375,685999.9375,131956.03125,0.05517578125,1.005859375,-0.09326171875,-1.9836424589157104,-0.3051757514476776,0.5493163466453552,86.66667175292969,75726.0,1.0
18:12:53.474164,136287.984375,144170.640625,161699.765625,158589.484375,180552.390625,178089.765625,685993.375,131958.890625,0.0546875,1.005615234375,-0.090087890625,-1.9226073026657104,-0.2746581733226776,0.6408690810203552,86.66667175292969,75727.0,1.0
18:12:53.474242,136301.484375,144191.015625,161704.6875,158589.484375,180556.78125,178096.46875,686167.1875,131957.640625,0.0546875,1.00390625,-0.08935546875,-1.9531248807907104,-0.2136230319738388,0.6713866591453552,86.66667175292969,75728.0,1.0
18:12:53.478992,136298.984375,144186.640625,161712.734375,158590.28125,180571.078125,178111.046875,686009.875,131957.734375,0.05615234375,1.00390625,-0.087158203125,-1.8310545682907104,-0.1831054538488388,0.7934569716453552,86.66667175292969,75729.0,1.0
18:12:53.483330,136278.140625,144150.515625,161697.4375,158588.671875,180552.75,178088.25,685978.3125,131959.078125,0.055908203125,1.0009765625,-0.091064453125,-1.6479490995407104,-0.1831054538488388,0.6408690810203552,86.66667175292969,75730.0,1.0
18:12:53.483424,136286.453125,144162.765625,161700.390625,158595.921875,180553.640625,178089.328125,685963.625,131964.171875,0.054931640625,1.00244140625,-0.09033203125,-1.5563963651657104,-0.1831054538488388,0.6408690810203552,86.66667175292969,75731.0,1.0
18:12:53.489176,136300.671875,144184.859375,161702.890625,158598.953125,180554.1875,178091.640625,686133.6875,131960.328125,0.052734375,1.002197265625,-0.089599609375,-1.4953612089157104,-0.1220703050494194,0.4882812201976776,86.66667175292969,75732.0,1.0
18:12:53.489209,136309.609375,144195.84375,161721.578125,158604.953125,180578.40625,178117.21875,686050.4375,131971.328125,0.052734375,1.004150390625,-0.0888671875,-1.4038084745407104,-0.1525878757238388,0.4272460639476776,86.66667175292969,75733.0,1.0
18:12:53.491040,136290.484375,144161.421875,161709.609375,158597.53125,180563.296875,178097.09375,685973.8125,131967.75,0.05126953125,1.005126953125,-0.090576171875,-1.4648436307907104,-0.1831054538488388,0.3662109076976776,86.66667175292969,75734.0,1.0
18:12:53.501063,136288.25,144160.171875,161703.171875,158596.8125,180553.28125,178087.265625,685951.1875,131967.921875,0.049072265625,1.004638671875,-0.088134765625,-1.4343260526657104,-0.0610351525247097,0.4577636420726776,86.66667175292969,75735.0,1.0
18:12:53.505455,136305.765625,144189.859375,161708.53125,158595.640625,180556.78125,178094.421875,686095.125,131959.96875,0.048828125,1.0048828125,-0.09033203125,-1.4648436307907104,-0.1220703050494194,0.3662109076976776,86.66667175292969,75736.0,1.0
18:12:53.505471,136308.359375,144195.9375,161716.578125,158592.875,180572.515625,178111.3125,686082.0,131957.375,0.04833984375,1.00634765625,-0.091552734375,-1.5869139432907104,-0.2441406100988388,0.2441406100988388,86.66667175292969,75737.0,1.0
18:12:53.511620,136298.53125,144173.765625,161717.828125,158603.609375,180574.75,178106.84375,685963.6875,131974.546875,0.05126953125,1.00732421875,-0.091796875,-1.4953612089157104,-0.3356933295726776,0.0915527269244194,86.66667175292969,75738.0,1.0
18:12:53.511635,136286.109375,144158.03125,161703.171875,158596.1875,180554.453125,178086.1875,685948.875,131971.671875,0.052490234375,1.008056640625,-0.08837890625,-1.5258787870407104,-0.3356933295726776,0.0915527269244194,86.66667175292969,75739.0,1.0
18:12:53.513495,136296.921875,144179.84375,161701.828125,158589.296875,180549.890625,178087.359375,686040.3125,131957.734375,0.0537109375,1.0087890625,-0.08984375,-1.4038084745407104,-0.3356933295726776,0.1220703050494194,86.66667175292969,75740.0,1.0
18:12:53.524804,136311.21875,144198.359375,161717.921875,158594.9375,180569.734375,178108.90625,686111.9375,131959.703125,0.055908203125,1.009033203125,-0.09130859375,-1.4343260526657104,-0.2136230319738388,0.3356933295726776,86.66667175292969,75741.0,1.0
18:12:53.529659,136294.0625,144170.1875,161713.53125,158595.375,180567.765625,178101.21875,685958.0625,131962.46875,0.0576171875,1.0087890625,-0.093505859375,-1.3122557401657104,-0.1831054538488388,0.4577636420726776,86.66667175292969,75742.0,1.0
18:12:53.529670,136283.59375,144156.0625,161701.46875,158592.421875,180551.328125,178086.453125,685962.125,131962.65625,0.058837890625,1.008056640625,-0.09375,-1.2817381620407104,-0.0915527269244194,0.4272460639476776,86.66667175292969,75743.0,1.0
18:12:53.534289,136299.6875,144182.078125,161706.65625,158592.609375,180555.4375,178093.703125,686006.8125,131960.328125,0.056884765625,1.008544921875,-0.095703125,-1.1901854276657104,-0.1525878757238388,0.5187987685203552,86.66667175292969,75744.0,1.0
18:12:53.534302,136314.890625,144202.828125,161720.515625,158596.09375,180571.53125,178111.21875,686138.75,131961.671875,0.0537109375,1.008544921875,-0.095458984375,-1.2512205839157104,0.0610351525247097,0.5493163466453552,86.66667175292969,75745.0,1.0
18:12:53.543690,136308.453125,144191.5625,161728.375,158604.40625,180583.59375,178119.625,685977.8125,131972.390625,0.053466796875,1.0087890625,-0.093994140625,-1.2207030057907104,-0.0610351525247097,0.5798339247703552,86.66667175292969,75746.0,1.0
18:12:53.546602,136283.328125,144160.265625,161704.5,158591.359375,180554.546875,178092.09375,685981.4375,131964.171875,0.0517578125,1.008056640625,-0.089599609375,-1.0986326932907104,-0.03051757626235485,0.4882812201976776,86.66667175292969,75747.0,1.0
18:12:53.546625,136292.546875,144176.71875,161704.328125,158589.5625,180552.296875,178090.9375,685975.4375,131962.734375,0.052001953125,1.009033203125,-0.091796875,-1.0375975370407104,-0.03051757626235485,0.3967284858226776,86.66667175292969,75748.0,1.0
18:12:53.552388,136311.578125,144202.015625,161715.6875,158596.8125,180564.734375,178104.78125,686151.1875,131961.671875,0.04931640625,1.01025390625,-0.0927734375,-1.0986326932907104,-0.0915527269244194,0.3662109076976776,86.66667175292969,75749.0,1.0
18:12:53.556024,136302.828125,144190.125,161720.328125,158595.5625,180576.984375,178117.125,685989.625,131964.96875,0.050537109375,1.01123046875,-0.090576171875,-1.1291502714157104,-0.2136230319738388,0.2136230319738388,86.66667175292969,75750.0,1.0
18:12:53.563617,136273.9375,144149.265625,161694.21875,158580.71875,180547.46875,178082.890625,685969.4375,131954.78125,0.04931640625,1.013671875,-0.089599609375,-1.1596678495407104,-0.2441406100988388,0.1220703050494194,86.66667175292969,75751.0,1.0
18:12:53.571750,136283.421875,144168.40625,161697.359375,158581.078125,180547.125,178087.0,685945.5,131950.125,0.048583984375,1.014404296875,-0.0888671875,-1.2207030057907104,-0.2136230319738388,0.0610351525247097,86.66667175292969,75752.0,1.0
18:12:53.571769,136308.8125,144201.75,161712.90625,158592.15625,180560.796875,178102.640625,686132.3125,131954.78125,0.051513671875,1.01220703125,-0.090087890625,-1.3122557401657104,-0.2746581733226776,-0.03051757626235485,86.66667175292969,75753.0,1.0
18:12:53.573779,136306.578125,144195.765625,161721.140625,158594.484375,180575.8125,178116.328125,686010.625,131958.625,0.0517578125,1.012939453125,-0.090087890625,-1.4038084745407104,-0.2746581733226776,-0.1220703050494194,86.66667175292969,75754.0,1.0
18:12:53.588757,136283.78125,144159.1875,161703.53125,158590.1875,180553.828125,178091.015625,685978.9375,131959.703125,0.05322265625,1.011474609375,-0.08935546875,-1.4953612089157104,-0.2746581733226776,-0.1525878757238388,86.66667175292969,75755.0,1.0
18:12:53.628706,136287.0,144167.328125,161701.921875,158588.859375,180549.265625,178087.53125,685965.6875,131958.0,0.05517578125,1.01123046875,-0.090576171875,-1.5563963651657104,-0.2441406100988388,-0.03051757626235485,86.66667175292969,75756.0,1.0
18:12:53.631031,136311.40625,144201.390625,161714.609375,158598.421875,180558.65625,178100.765625,686121.9375,131960.328125,0.057373046875,1.01171875,-0.0908203125,-1.5563963651657104,-0.3051757514476776,-0.03051757626235485,86.66667175292969,75757.0,1.0
18:12:53.662732,136317.3125,144209.796875,161729.1875,158601.546875,180580.375,178123.5625,686049.75,131964.96875,0.058349609375,1.011474609375,-0.0908203125,-1.5563963651657104,-0.2136230319738388,0.03051757626235485,86.66667175292969,75758.0,1.0
18:12:53.664891,136295.484375,144177.078125,161714.96875,158597.34375,180566.96875,178107.5625,685979.8125,131966.578125,0.0576171875,1.011962890625,-0.091064453125,-1.5563963651657104,-0.2136230319738388,0.0,86.66667175292969,75759.0,1.0
18:12:53.667982,136278.0625,144156.875,161692.890625,158581.4375,180541.578125,178076.984375,685953.25,131951.921875,0.056640625,1.01220703125,-0.090087890625,-1.6784666776657104,-0.0915527269244194,0.03051757626235485,86.66667175292969,75760.0,1.0
18:12:53.668044,136293.515625,144180.109375,161695.03125,158579.28125,180540.5,178080.109375,686075.5,131944.953125,0.055419921875,1.0126953125,-0.087890625,-1.6479490995407104,-0.03051757626235485,0.1220703050494194,86.66667175292969,75761.0,1.0
18:12:53.669994,136299.953125,144189.59375,161706.65625,158582.765625,180556.953125,178099.953125,686078.6875,131948.703125,0.052734375,1.010986328125,-0.08837890625,-1.7395018339157104,0.0,0.2136230319738388,86.66667175292969,75762.0,1.0
18:12:53.672405,136287.53125,144167.6875,161706.390625,158587.515625,180558.390625,178095.84375,685960.875,131961.9375,0.051025390625,1.010986328125,-0.088134765625,-1.9531248807907104,0.0610351525247097,0.2441406100988388,86.66667175292969,75763.0,1.0
18:12:53.674873,136284.578125,144163.390625,161701.375,158590.8125,180550.515625,178087.0,685969.25,131972.21875,0.049072265625,1.009033203125,-0.08984375,-2.044677495956421,0.03051757626235485,0.2441406100988388,86.66667175292969,75764.0,1.0
18:12:53.680088,136301.484375,144191.203125,161706.65625,158592.78125,180552.484375,178092.546875,686056.6875,131959.609375,0.048828125,1.007568359375,-0.088134765625,-2.014159917831421,0.0610351525247097,0.2441406100988388,86.66667175292969,75765.0,1.0
18:12:53.682619,136310.875,144205.859375,161716.578125,158589.03125,180566.78125,178111.5,686116.875,131950.046875,0.049560546875,1.006591796875,-0.0869140625,-2.075195074081421,0.0610351525247097,0.3051757514476776,86.66667175292969,75766.0,1.0
18:12:53.689654,136306.484375,144187.984375,161724.625,158601.640625,180578.5,178114.625,685973.0,131968.375,0.049560546875,1.0048828125,-0.085205078125,-2.014159917831421,0.03051757626235485,0.3051757514476776,86.66667175292969,75767.0,1.0
18:12:53.691015,136288.25,144162.140625,161704.0625,158592.78125,180553.734375,178087.171875,685978.0,131962.828125,0.050048828125,1.007080078125,-0.083984375,-2.105712652206421,-0.03051757626235485,0.2441406100988388,86.66667175292969,75768.0,1.0
18:12:53.693560,136304.15625,144190.125,161709.0625,158592.25,180555.25,178093.96875,685999.9375,131956.65625,0.048095703125,1.006103515625,-0.0869140625,-2.044677495956421,-0.1220703050494194,0.2746581733226776,86.66667175292969,75769.0,1.0
18:12:53.699933,136315.703125,144207.03125,161717.921875,158597.890625,180565.625,178106.21875,686131.25,131960.140625,0.0458984375,1.003173828125,-0.087646484375,-2.136230230331421,-0.2136230319738388,0.2441406100988388,86.66667175292969,75770.0,1.0
18:12:53.702359,136309.96875,144195.671875,161725.421875,158599.046875,180578.953125,178117.390625,685959.9375,131966.140625,0.0478515625,1.00341796875,-0.08642578125,-1.9836424589157104,-0.2441406100988388,0.2441406100988388,86.66667175292969,75771.0,1.0
18:12:53.706719,136292.265625,144168.40625,161708.984375,158597.53125,180559.09375,178093.609375,685984.75,131967.125,0.048095703125,1.00439453125,-0.0869140625,-1.9836424589157104,-0.2136230319738388,0.2136230319738388,86.66667175292969,75772.0,1.0
18:12:53.706769,136299.609375,144187.09375,161708.078125,158592.25,180556.5,178094.328125,685996.1875,131960.765625,0.047607421875,1.004638671875,-0.087158203125,-1.9226073026657104,-0.3967284858226776,0.2441406100988388,86.66667175292969,75773.0,1.0
18:12:53.706787,136315.875,144209.53125,161716.671875,158594.84375,180565.53125,178103.265625,686143.6875,131962.375,0.046875,1.00390625,-0.0859375,-1.9836424589157104,-0.4577636420726776,0.2136230319738388,86.66667175292969,75774.0,1.0
18:12:53.706803,136313.8125,144203.359375,161727.75,158599.3125,180582.078125,178119.359375,685985.6875,131971.046875,0.04931640625,1.00390625,-0.085693359375,-1.9836424589157104,-0.3967284858226776,0.0915527269244194,86.66667175292969,75775.0,1.0
18:12:53.709314,136290.125,144169.03125,161708.171875,158592.875,180557.21875,178092.984375,685977.125,131967.203125,0.0498046875,1.001220703125,-0.088623046875,-1.8005369901657104,-0.4272460639476776,0.1525878757238388,86.66667175292969,75776.0,1.0
18:12:53.709347,136295.046875,144181.09375,161707.09375,158595.921875,180554.546875,178093.25,685963.625,131966.671875,0.048583984375,0.999755859375,-0.087158203125,-1.6784666776657104,-0.4272460639476776,0.1525878757238388,86.66667175292969,75777.0,1.0
18:12:53.711048,136313.375,144202.546875,161714.609375,158600.46875,180562.765625,178100.140625,686136.375,131969.890625,0.048583984375,1.002197265625,-0.091064453125,-1.5869139432907104,-0.4577636420726776,0.1525878757238388,86.66667175292969,75778.0,1.0
18:12:53.714094,136316.59375,144205.6875,161729.984375,158608.796875,180584.578125,178122.40625,686016.125,131977.578125,0.050537109375,1.001953125,-0.08984375,-1.5563963651657104,-0.5187987685203552,0.1831054538488388,86.66667175292969,75779.0,1.0
18:12:53.714135,136278.0625,144159.734375,161697.796875,158586.34375,180548.546875,178087.796875,685957.5625,131953.078125,0.05224609375,0.999755859375,-0.091552734375,-1.4343260526657104,-0.4882812201976776,0.1831054538488388,86.66667175292969,75780.0,1.0
18:12:53.717242,136268.125,144150.875,161682.15625,158574.90625,180530.484375,178068.484375,686001.4375,131943.78125,0.05078125,1.0009765625,-0.0947265625,-1.2817381620407104,-0.4272460639476776,0.3662109076976776,86.66667175292969,75781.0,1.0
18:12:53.717281,136288.515625,144178.421875,161690.828125,158577.5,180536.65625,178076.265625,686098.4375,131944.59375,0.049560546875,1.0009765625,-0.09423828125,-1.1291502714157104,-0.4272460639476776,0.4577636420726776,86.66667175292969,75782.0,1.0
18:12:53.717295,136302.546875,144194.15625,161712.109375,158590.46875,180564.734375,178105.59375,686033.8125,131957.734375,0.052001953125,1.00048828125,-0.091796875,-0.9765624403953552,-0.3967284858226776,0.6103515028953552,86.66667175292969,75783.0,1.0
18:12:53.720324,136280.015625,144160.984375,161699.5,158588.234375,180550.515625,178087.890625,685947.875,131958.359375,0.052978515625,1.001953125,-0.0908203125,-0.8850097060203552,-0.2746581733226776,0.6713866591453552,86.66667175292969,75784.0,1.0
18:12:53.720359,136274.125,144157.9375,161691.546875,158580.265625,180538.265625,178078.40625,685989.1875,131952.28125,0.052001953125,1.001708984375,-0.091552734375,-0.7629393935203552,-0.3051757514476776,0.6408690810203552,86.66667175292969,75785.0,1.0
18:12:53.722295,136298.53125,144187.53125,161703.796875,158588.3125,180548.546875,178085.125,686092.5625,131955.9375,0.05419921875,1.005859375,-0.092041015625,-0.7019042372703552,-0.3051757514476776,0.7019042372703552,86.66667175292969,75786.0,1.0
18:12:53.725388,136313.28125,144201.03125,161721.578125,158597.53125,180571.609375,178106.84375,686079.75,131966.21875,0.056640625,1.00830078125,-0.0908203125,-0.5493163466453552,-0.2441406100988388,0.7324218153953552,86.66667175292969,75787.0,1.0
18:12:53.725417,136302.828125,144183.15625,161722.921875,158602.890625,180574.484375,178109.078125,685941.8125,131974.359375,0.053955078125,1.008056640625,-0.091552734375,-0.4272460639476776,-0.2136230319738388,0.7324218153953552,86.66667175292969,75788.0,1.0
18:12:53.727446,136292.09375,144171.34375,161711.390625,158598.78125,180559.1875,178094.234375,685986.3125,131971.765625,0.052978515625,1.00830078125,-0.090576171875,-0.3967284858226776,0.0,0.9155272841453552,86.66667175292969,75789.0,1.0
18:12:53.729908,136304.78125,144193.703125,161712.640625,158594.84375,180555.703125,178093.796875,686065.3125,131961.75,0.05126953125,1.008544921875,-0.0908203125,-0.3051757514476776,0.0,0.7934569716453552,86.66667175292969,75790.0,1.0
18:12:53.732428,136308.8125,144197.28125,161714.875,158589.296875,180561.953125,178098.34375,686112.125,131953.4375,0.05029296875,1.0087890625,-0.0927734375,-0.2441406100988388,0.0,0.7934569716453552,86.66667175292969,75791.0,1.0
18:12:53.734829,136298.265625,144181.984375,161717.203125,158594.578125,180570.28125,178103.71875,685952.375,131963.984375,0.05126953125,1.010009765625,-0.092529296875,-0.3662109076976776,0.0610351525247097,0.8850097060203552,86.66667175292969,75792.0,1.0
18:12:53.738002,136282.890625,144160.265625,161702.625,158591.71875,180551.234375,178082.796875,685991.6875,131966.21875,0.050537109375,1.010498046875,-0.095458984375,-0.2746581733226776,0.03051757626235485,0.9460448622703552,86.66667175292969,75793.0,1.0
18:12:53.738056,136293.4375,144181.359375,161703.609375,158591.890625,180548.8125,178083.78125,686019.625,131956.5625,0.05078125,1.011962890625,-0.09521484375,-0.3356933295726776,-0.0610351525247097,0.9155272841453552,86.66667175292969,75794.0,1.0
18:12:53.740067,136304.078125,144198.890625,161708.0,158587.25,180555.796875,178095.9375,686122.5625,131947.8125,0.05029296875,1.013671875,-0.09228515625,-0.3967284858226776,-0.03051757626235485,0.8239745497703552,86.66667175292969,75795.0,1.0
18:12:53.742396,136301.921875,144191.640625,161718.984375,158595.203125,180571.609375,178111.578125,685947.25,131957.28125,0.05078125,1.013427734375,-0.09375,-0.4577636420726776,-0.0610351525247097,0.7324218153953552,86.66667175292969,75796.0,1.0
18:12:53.752964,136283.15625,144160.09375,161702.1875,158590.734375,180548.90625,178082.96875,685965.9375,131959.25,0.05029296875,1.012451171875,-0.094482421875,-0.4882812201976776,0.0610351525247097,0.6713866591453552,86.66667175292969,75797.0,1.0
18:12:53.753019,136298.625,144183.15625,161708.171875,158595.375,180550.78125,178087.171875,685997.0625,131961.390625,0.048828125,1.012939453125,-0.094482421875,-0.5187987685203552,0.1525878757238388,0.7019042372703552,86.66667175292969,75798.0,1.0
18:12:53.755568,136314.890625,144205.234375,161717.03125,158599.578125,180558.390625,178096.390625,686132.9375,131963.984375,0.052978515625,1.0126953125,-0.095947265625,-0.6713866591453552,0.2136230319738388,0.5493163466453552,86.66667175292969,75799.0,1.0
18:12:53.755627,136309.890625,144199.96875,161723.46875,158593.59375,180571.796875,178111.5,685976.6875,131958.53125,0.054931640625,1.009033203125,-0.0966796875,-0.8239745497703552,0.2441406100988388,0.5493163466453552,86.66667175292969,75800.0,1.0
18:12:53.764998,136289.328125,144166.875,161706.203125,158592.78125,180551.59375,178088.0625,685980.375,131960.234375,0.05810546875,1.009033203125,-0.095458984375,-0.8544921278953552,0.2441406100988388,0.5493163466453552,86.66667175292969,75801.0,1.0
18:12:53.769135,136293.703125,144177.25,161705.671875,158592.703125,180549.0,178085.5625,685996.375,131958.53125,0.058349609375,1.009033203125,-0.095703125,-0.9155272841453552,0.3967284858226776,0.6408690810203552,86.66667175292969,75802.0,1.0
18:12:53.769209,136312.203125,144208.90625,161714.515625,158595.46875,180556.234375,178098.265625,686137.1875,131957.734375,0.05859375,1.009033203125,-0.098388671875,-0.9460448622703552,0.5187987685203552,0.6103515028953552,86.66667175292969,75803.0,1.0
18:12:53.779169,136310.15625,144206.578125,161720.6875,158592.78125,180568.84375,178114.0,686024.875,131955.59375,0.056884765625,1.008544921875,-0.099853515625,-0.8850097060203552,0.6713866591453552,0.7019042372703552,86.66667175292969,75804.0,1.0
18:12:53.779238,136301.03125,144184.765625,161718.1875,158601.1875,180563.75,178104.609375,685985.25,131969.53125,0.0556640625,1.012451171875,-0.099365234375,-0.9155272841453552,0.7324218153953552,0.7629393935203552,86.66667175292969,75805.0,1.0
18:12:53.781651,136296.734375,144182.34375,161710.046875,158599.5,180552.75,178092.71875,685969.6875,131972.578125,0.052978515625,1.013671875,-0.098388671875,-1.0070799589157104,0.6103515028953552,0.7629393935203552,86.66667175292969,75806.0,1.0
18:12:53.781718,136314.0,144206.578125,161714.875,158598.6875,180555.34375,178096.828125,686110.4375,131962.109375,0.051025390625,1.012451171875,-0.097900390625,-1.0986326932907104,0.7019042372703552,0.7324218153953552,86.66667175292969,75807.0,1.0
18:12:53.788910,136315.78125,144209.96875,161723.90625,158594.3125,180571.171875,178114.0,686062.125,131957.828125,0.051513671875,1.010986328125,-0.09716796875,-1.2817381620407104,0.7019042372703552,0.7629393935203552,86.66667175292969,75808.0,1.0
18:12:53.795502,136291.375,144172.6875,161710.046875,158596.0,180559.28125,178094.234375,685962.0,131968.375,0.05126953125,1.0087890625,-0.095703125,-1.2817381620407104,0.6408690810203552,0.7629393935203552,86.66667175292969,75809.0,1.0
18:12:53.795650,136284.765625,144162.140625,161699.953125,158589.65625,180546.9375,178079.3125,685944.75,131964.171875,0.050048828125,1.01025390625,-0.096435546875,-1.3122557401657104,0.7324218153953552,0.7324218153953552,86.66667175292969,75810.0,1.0
18:12:53.801480,136307.109375,144194.234375,161710.765625,158597.171875,180553.734375,178091.203125,686060.5625,131963.359375,0.05126953125,1.011962890625,-0.096923828125,-1.4038084745407104,0.7324218153953552,0.6713866591453552,86.66667175292969,75811.0,1.0
18:12:53.809681,136312.296875,144202.640625,161718.984375,158594.578125,180567.0625,178105.234375,686093.5625,131960.765625,0.048828125,1.01171875,-0.097412109375,-1.5258787870407104,0.7324218153953552,0.7324218153953552,86.66667175292969,75812.0,1.0
18:12:53.809767,136305.0625,144188.34375,161723.734375,158603.96875,180572.953125,178110.6875,685955.0625,131972.484375,0.047119140625,1.01171875,-0.0947265625,-1.6479490995407104,0.7019042372703552,0.5493163466453552,86.66667175292969,75813.0,1.0
18:12:53.811123,136286.453125,144165.1875,161703.078125,158593.59375,180547.65625,178085.296875,685962.625,131964.34375,0.044677734375,1.009033203125,-0.09521484375,-1.7089842557907104,0.6103515028953552,0.5798339247703552,86.66667175292969,75814.0,1.0
18:12:53.820352,136304.703125,144191.109375,161709.875,158596.625,180551.046875,178089.671875,686020.875,131963.90625,0.044189453125,1.007568359375,-0.09716796875,-1.8615721464157104,0.5798339247703552,0.3356933295726776,86.66667175292969,75815.0,1.0
18:12:53.820367,136323.65625,144214.625,161727.484375,158602.53125,180571.796875,178112.296875,686120.1875,131970.34375,0.0439453125,1.0107421875,-0.096435546875,-1.9531248807907104,0.4577636420726776,0.2746581733226776,86.66667175292969,75816.0,1.0
18:12:53.822418,136310.953125,144197.375,161727.9375,158601.453125,180576.890625,178116.859375,685949.5625,131970.875,0.045654296875,1.012939453125,-0.0986328125,-1.8920897245407104,0.4272460639476776,0.2136230319738388,86.66667175292969,75817.0,1.0
18:12:53.832430,136295.125,144173.9375,161713.09375,158606.5625,180558.109375,178095.9375,685961.5625,131975.875,0.047119140625,1.012939453125,-0.09716796875,-2.014159917831421,0.3967284858226776,0.2441406100988388,86.66667175292969,75818.0,1.0
18:12:53.836758,136309.703125,144198.625,161718.546875,158606.203125,180560.96875,178101.03125,685975.6875,131974.0,0.048095703125,1.013427734375,-0.09521484375,-2.166747808456421,0.2746581733226776,0.1831054538488388,86.66667175292969,75819.0,1.0
18:12:53.836829,136320.703125,144213.90625,161723.546875,158595.921875,180567.953125,178106.125,686139.125,131969.0,0.049560546875,1.01171875,-0.093017578125,-2.197265386581421,0.2746581733226776,0.2136230319738388,86.66667175292969,75820.0,1.0
18:12:53.844833,136324.71875,144211.3125,161740.359375,158612.546875,180590.5625,178126.0625,685980.6875,131988.671875,0.0478515625,1.0107421875,-0.093505859375,-2.319335699081421,0.2441406100988388,0.3051757514476776,86.66667175292969,75821.0,1.0
18:12:53.851572,136308.28125,144182.4375,161724.984375,158612.453125,180568.84375,178101.921875,685976.25,131982.40625,0.0478515625,1.010986328125,-0.091552734375,-2.380370855331421,0.2441406100988388,0.3967284858226776,86.66667175292969,75822.0,1.0
18:12:53.851584,136305.765625,144188.078125,161714.796875,158598.328125,180556.15625,178092.71875,685980.375,131965.515625,0.04833984375,1.009521484375,-0.09326171875,-2.502441167831421,0.1220703050494194,0.4577636420726776,86.66667175292969,75823.0,1.0
18:12:53.853679,136322.671875,144211.140625,161723.734375,158601.1875,180564.46875,178102.546875,686151.375,131965.6875,0.048095703125,1.009765625,-0.09521484375,-2.563476324081421,0.0915527269244194,0.5493163466453552,86.66667175292969,75824.0,1.0
18:12:53.860476,136320.875,144211.765625,161734.453125,158605.9375,180582.796875,178123.921875,686000.375,131971.953125,0.047607421875,1.009521484375,-0.093505859375,-2.502441167831421,0.0610351525247097,0.6103515028953552,86.66667175292969,75825.0,1.0
18:12:53.860500,136288.96875,144166.171875,161707.28125,158595.46875,180553.734375,178089.140625,685971.0625,131965.953125,0.047119140625,1.010009765625,-0.091552734375,-2.624511480331421,-0.03051757626235485,0.7019042372703552,86.66667175292969,75826.0,1.0
18:12:53.862439,136284.671875,144165.890625,161697.359375,158584.296875,180541.21875,178076.265625,685950.9375,131955.234375,0.049072265625,1.009521484375,-0.091552734375,-2.655029058456421,-0.0915527269244194,0.7934569716453552,86.66667175292969,75827.0,1.0
18:12:53.869821,136300.859375,144191.109375,161702.890625,158584.375,180543.09375,178081.90625,686105.25,131949.953125,0.049560546875,1.00927734375,-0.08984375,-2.777099370956421,-0.1525878757238388,0.8544921278953552,86.66667175292969,75828.0,1.0
18:12:53.880449,136311.9375,144203.453125,161723.734375,158596.1875,180569.734375,178109.609375,686010.5625,131962.65625,0.049560546875,1.009033203125,-0.091796875,-2.685546636581421,-0.1525878757238388,0.9155272841453552,86.66667175292969,75829.0,1.0
18:12:53.880466,136292.09375,144171.984375,161712.375,158599.578125,180556.78125,178092.71875,685953.1875,131971.671875,0.0498046875,1.009765625,-0.092041015625,-2.807616949081421,-0.2441406100988388,1.0681151151657104,86.66667175292969,75830.0,1.0
18:12:53.882992,136292.546875,144173.765625,161708.796875,158597.703125,180551.234375,178085.65625,685972.3125,131974.1875,0.0478515625,1.0107421875,-0.093994140625,-2.746581792831421,-0.3051757514476776,1.0375975370407104,86.66667175292969,75831.0,1.0
18:12:53.883007,136313.015625,144204.25,161716.578125,158598.78125,180556.15625,178095.578125,686103.875,131967.03125,0.046630859375,1.01025390625,-0.09033203125,-2.777099370956421,-0.3662109076976776,1.0681151151657104,86.66667175292969,75832.0,1.0
18:12:53.893709,136324.09375,144217.578125,161733.03125,158608.796875,180578.328125,178120.609375,686059.375,131972.578125,0.04931640625,1.01025390625,-0.0927734375,-2.838134527206421,-0.3356933295726776,1.0681151151657104,86.66667175292969,75833.0,1.0
18:12:53.896810,136311.859375,144190.21875,161729.90625,158617.015625,180575.640625,178107.921875,685968.125,131984.46875,0.05078125,1.012451171875,-0.089111328125,-2.899169683456421,-0.4882812201976776,1.0375975370407104,86.66667175292969,75834.0,1.0
18:12:53.896832,136300.140625,144177.4375,161716.125,158609.78125,180558.734375,178091.015625,685959.3125,131982.046875,0.04736328125,1.0126953125,-0.09033203125,-2.960204839706421,-0.4577636420726776,0.9460448622703552,86.66667175292969,75835.0,1.0
18:12:53.906076,136311.5,144198.625,161714.796875,158605.296875,180553.46875,178090.296875,686057.875,131973.28125,0.048828125,1.012451171875,-0.08935546875,-3.051757574081421,-0.4272460639476776,0.9155272841453552,86.66667175292969,75836.0,1.0
18:12:53.909207,136321.859375,144211.5,161725.96875,158604.859375,180568.484375,178108.984375,686111.9375,131971.328125,0.0498046875,1.0107421875,-0.0888671875,-3.021239995956421,-0.5187987685203552,1.0070799589157104,86.66667175292969,75837.0,1.0
18:12:53.909234,136316.59375,144200.765625,161734.015625,158612.28125,180578.234375,178118.203125,685970.3125,131978.109375,0.052734375,1.010009765625,-0.086669921875,-3.082275152206421,-0.4882812201976776,0.9155272841453552,86.66667175292969,75838.0,1.0
18:12:53.916110,136302.375,144183.328125,161718.546875,158606.015625,180558.390625,178098.625,685967.375,131975.34375,0.05419921875,1.0068359375,-0.08642578125,-2.990722417831421,-0.4272460639476776,0.7934569716453552,86.66667175292969,75839.0,1.0
18:12:53.922948,136311.671875,144200.9375,161716.75,158600.203125,180554.1875,178094.234375,686008.875,131966.84375,0.053955078125,1.008056640625,-0.091064453125,-3.021239995956421,-0.3662109076976776,0.7324218153953552,86.66667175292969,75840.0,1.0
18:12:53.922960,136336.34375,144228.84375,161740.453125,158616.5625,180579.65625,178119.453125,686124.0,131979.28125,0.05419921875,1.00830078125,-0.087890625,-3.082275152206421,-0.3356933295726776,0.7629393935203552,86.66667175292969,75841.0,1.0
18:12:53.925430,136336.625,144221.6875,161754.390625,158630.15625,180597.359375,178134.109375,685961.3125,131996.71875,0.05517578125,1.007568359375,-0.089111328125,-2.990722417831421,-0.2441406100988388,0.7324218153953552,86.66667175292969,75842.0,1.0
18:12:53.925437,136297.8125,144175.640625,161716.046875,158603.609375,180556.15625,178092.09375,685976.9375,131976.5,0.055419921875,1.00927734375,-0.088623046875,-2.960204839706421,-0.2746581733226776,0.7934569716453552,86.66667175292969,75843.0,1.0
18:12:53.934819,136297.28125,144185.390625,161706.46875,158590.1875,180544.34375,178081.453125,686004.3125,131960.140625,0.05517578125,1.00927734375,-0.08837890625,-2.960204839706421,-0.2746581733226776,0.8544921278953552,86.66667175292969,75844.0,1.0
18:12:53.939180,136312.828125,144206.40625,161715.0625,158592.34375,180553.90625,178094.6875,686141.25,131955.859375,0.0556640625,1.008544921875,-0.08544921875,-2.929687261581421,-0.3356933295726776,0.6713866591453552,86.66667175292969,75845.0,1.0
18:12:53.939190,136307.109375,144198.171875,161722.484375,158591.890625,180567.953125,178108.90625,685975.1875,131959.15625,0.056396484375,1.00927734375,-0.087646484375,-2.929687261581421,-0.1525878757238388,0.7324218153953552,86.66667175292969,75846.0,1.0
18:12:53.967393,136290.65625,144168.125,161708.796875,158593.328125,180550.609375,178084.140625,685980.375,131964.609375,0.0576171875,1.0068359375,-0.08642578125,-2.990722417831421,0.0,0.6713866591453552,86.66667175292969,75847.0,1.0
18:12:53.967499,136304.25,144189.140625,161714.875,158601.546875,180553.203125,178090.125,685971.5625,131969.265625,0.05712890625,1.006103515625,-0.087158203125,-2.929687261581421,0.0,0.5798339247703552,86.66667175292969,75848.0,1.0
18:12:53.967529,136329.203125,144221.328125,161730.171875,158611.03125,180566.703125,178107.296875,686171.875,131975.53125,0.053466796875,1.00634765625,-0.08740234375,-2.807616949081421,0.0,0.6103515028953552,86.66667175292969,75849.0,1.0
18:12:53.992355,136318.296875,144208.90625,161731.234375,158605.65625,180574.921875,178115.515625,686030.5625,131977.21875,0.054931640625,1.005859375,-0.084716796875,-2.716064214706421,-0.03051757626235485,0.6408690810203552,86.66667175292969,75850.0,1.0
18:12:53.995635,136294.5,144173.765625,161712.546875,158599.3125,180553.828125,178091.46875,685988.5625,131974.359375,0.056884765625,1.005126953125,-0.0869140625,-2.655029058456421,0.0915527269244194,0.4882812201976776,86.66667175292969,75851.0,1.0
18:12:53.995699,136300.765625,144187.171875,161713.71875,158601.453125,180552.21875,178093.4375,685978.0,131969.984375,0.056640625,1.00634765625,-0.08544921875,-2.624511480331421,0.1525878757238388,0.4882812201976776,86.66667175292969,75852.0,1.0
18:12:53.997331,136317.125,144214.71875,161719.703125,158600.75,180557.3125,178102.734375,686154.625,131967.484375,0.054443359375,1.005615234375,-0.086669921875,-2.593993902206421,0.3051757514476776,0.4882812201976776,86.66667175292969,75853.0,1.0
18:12:54.002352,136316.953125,144213.640625,161728.203125,158600.75,180573.5,178117.484375,686055.875,131972.578125,0.054443359375,1.005859375,-0.08642578125,-2.532958745956421,0.2136230319738388,0.4272460639476776,86.66667175292969,75854.0,1.0
18:12:54.005023,136290.75,144176.359375,161709.96875,158595.734375,180554.359375,178094.0625,685994.375,131969.4375,0.055419921875,1.00537109375,-0.086181640625,-2.380370855331421,0.3356933295726776,0.3967284858226776,86.66667175292969,75855.0,1.0
18:12:54.007376,136289.140625,144174.5625,161704.6875,158594.390625,180545.6875,178085.390625,685982.5,131966.9375,0.0537109375,1.0068359375,-0.083740234375,-2.410888433456421,0.3356933295726776,0.4577636420726776,86.66667175292969,75856.0,1.0
18:12:54.009903,136306.21875,144201.296875,161710.5,158595.46875,180548.28125,178090.84375,686126.875,131960.0625,0.0537109375,1.006591796875,-0.083984375,-2.349853277206421,0.2746581733226776,0.3356933295726776,86.66667175292969,75857.0,1.0
18:12:54.012327,136310.6875,144207.828125,161721.5,158595.734375,180565.09375,178107.921875,686095.125,131961.21875,0.053466796875,1.007080078125,-0.083740234375,-2.319335699081421,0.1831054538488388,0.4272460639476776,86.66667175292969,75858.0,1.0
18:12:54.014866,136295.84375,144178.765625,161716.671875,158599.40625,180560.0,178098.796875,685980.0625,131970.0625,0.052978515625,1.007568359375,-0.08447265625,-2.288818120956421,0.2746581733226776,0.3356933295726776,86.66667175292969,75859.0,1.0
18:12:54.018432,136293.796875,144175.90625,161712.46875,158601.109375,180552.296875,178090.9375,685979.1875,131973.734375,0.051513671875,1.006591796875,-0.0830078125,-2.197265386581421,0.3356933295726776,0.4272460639476776,86.66667175292969,75860.0,1.0
18:12:54.020239,136306.578125,144199.6875,161714.25,158596.8125,180551.40625,178092.890625,686070.625,131964.171875,0.051025390625,1.0068359375,-0.08251953125,-2.075195074081421,0.3967284858226776,0.4882812201976776,86.66667175292969,75861.0,1.0
18:12:54.022278,136305.328125,144198.984375,161713.1875,158587.953125,180554.359375,178095.765625,686119.3125,131952.28125,0.051025390625,1.0078125,-0.08154296875,-2.075195074081421,0.3662109076976776,0.3967284858226776,86.66667175292969,75862.0,1.0
18:12:54.024841,136299.609375,144184.671875,161720.59375,158598.59375,180564.46875,178102.640625,685968.75,131967.203125,0.05078125,1.007568359375,-0.0830078125,-2.166747808456421,0.3662109076976776,0.3662109076976776,86.66667175292969,75863.0,1.0
18:12:54.027859,136288.875,144167.5,161709.875,158601.8125,180549.078125,178084.578125,685970.5,131976.421875,0.051025390625,1.00634765625,-0.08251953125,-2.044677495956421,0.2746581733226776,0.3356933295726776,86.66667175292969,75864.0,1.0
18:12:54.027882,136306.390625,144198.078125,161715.859375,158602.265625,180552.125,178094.328125,686022.375,131970.875,0.05078125,1.005859375,-0.082763671875,-2.014159917831421,0.2136230319738388,0.3662109076976776,86.66667175292969,75865.0,1.0
18:12:54.029782,136323.5625,144218.375,161729.359375,158604.765625,180567.6875,178110.0625,686143.4375,131968.1875,0.0498046875,1.006103515625,-0.08203125,-2.014159917831421,0.3051757514476776,0.3967284858226776,86.66667175292969,75866.0,1.0
18:12:54.032864,136306.484375,144196.109375,161725.515625,158599.140625,180567.6875,178108.453125,685967.0,131962.921875,0.05029296875,1.006103515625,-0.083740234375,-1.7700194120407104,0.1831054538488388,0.3967284858226776,86.66667175292969,75867.0,1.0
18:12:54.032889,136285.296875,144165.453125,161704.953125,158592.703125,180542.5625,178081.28125,685972.5625,131960.5,0.050537109375,1.005859375,-0.0859375,-1.7089842557907104,0.2136230319738388,0.4577636420726776,86.66667175292969,75868.0,1.0
18:12:54.034824,136302.90625,144190.484375,161713.359375,158599.40625,180548.90625,178089.953125,685982.5,131964.34375,0.049560546875,1.0078125,-0.082275390625,-1.6784666776657104,0.1831054538488388,0.3967284858226776,86.66667175292969,75869.0,1.0
18:12:54.045444,136327.140625,144220.25,161730.171875,158609.5,180566.4375,178111.046875,686149.75,131971.328125,0.05029296875,1.00732421875,-0.082763671875,-1.6174315214157104,0.0915527269244194,0.5187987685203552,86.66667175292969,75870.0,1.0
18:12:54.045521,136316.328125,144207.03125,161732.671875,158608.078125,180574.921875,178117.578125,685982.0625,131973.015625,0.050537109375,1.00634765625,-0.0830078125,-1.5563963651657104,0.0915527269244194,0.5493163466453552,86.66667175292969,75871.0,1.0
18:12:54.048002,136297.1875,144173.3125,161718.09375,158617.1875,180557.125,178088.515625,685988.3125,131984.90625,0.049560546875,1.007080078125,-0.0830078125,-1.5563963651657104,0.0610351525247097,0.6103515028953552,86.66667175292969,75872.0,1.0
18:12:54.048041,136306.75,144191.375,161719.078125,158610.125,180555.4375,178092.359375,685961.125,131976.78125,0.049072265625,1.009033203125,-0.08642578125,-1.5258787870407104,0.0610351525247097,0.7019042372703552,86.66667175292969,75873.0,1.0
18:12:54.053712,136334.375,144225.359375,161735.265625,158617.46875,180569.5625,178110.953125,686152.4375,131979.546875,0.048583984375,1.00927734375,-0.08544921875,-1.4038084745407104,-0.0610351525247097,0.7629393935203552,86.66667175292969,75874.0,1.0
18:12:54.064104,136321.6875,144211.3125,161733.75,158612.09375,180574.65625,178115.0625,686009.375,131974.1875,0.048828125,1.010009765625,-0.08251953125,-1.4953612089157104,-0.1525878757238388,0.8239745497703552,86.66667175292969,75875.0,1.0
18:12:54.064145,136290.75,144171.4375,161709.6875,158597.4375,180547.75,178087.890625,685962.4375,131967.03125,0.049560546875,1.0087890625,-0.08154296875,-1.3732908964157104,-0.1525878757238388,0.8239745497703552,86.66667175292969,75876.0,1.0
18:12:54.070426,136297.28125,144185.390625,161711.75,158599.3125,180546.578125,178091.375,685936.25,131970.703125,0.04833984375,1.010009765625,-0.0791015625,-1.3427733182907104,-0.1220703050494194,0.8239745497703552,86.66667175292969,75877.0,1.0
18:12:54.070462,136317.390625,144208.90625,161720.15625,158606.734375,180553.734375,178093.703125,686103.4375,131974.359375,0.049560546875,1.009765625,-0.081298828125,-1.3732908964157104,-0.2136230319738388,0.9460448622703552,86.66667175292969,75878.0,1.0
18:12:54.076622,136326.96875,144218.296875,161738.03125,158613.0,180578.953125,178116.234375,686046.5,131976.421875,0.0498046875,1.010498046875,-0.081298828125,-1.2817381620407104,-0.2136230319738388,1.0375975370407104,86.66667175292969,75879.0,1.0
18:12:54.076650,136294.328125,144175.375,161714.96875,158599.9375,180554.1875,178089.046875,685954.5,131962.5625,0.049560546875,1.009521484375,-0.081787109375,-1.3427733182907104,-0.2441406100988388,0.9460448622703552,86.66667175292969,75880.0,1.0
18:12:54.091638,136285.921875,144166.875,161703.078125,158593.0625,180538.453125,178073.40625,685968.1875,131957.734375,0.052734375,1.0087890625,-0.085205078125,-1.4038084745407104,-0.1831054538488388,0.8544921278953552,86.66667175292969,75881.0,1.0
18:12:54.091662,136307.296875,144198.078125,161711.84375,158598.953125,180542.640625,178082.96875,686095.125,131958.71875,0.054931640625,1.0048828125,-0.087646484375,-1.2817381620407104,-0.1525878757238388,0.8850097060203552,86.66667175292969,75882.0,1.0
18:12:54.097842,136315.96875,144211.578125,161724.171875,158600.03125,180560.34375,178105.5,686085.875,131960.59375,0.0537109375,1.004150390625,-0.085693359375,-1.2207030057907104,-0.2441406100988388,0.8850097060203552,86.66667175292969,75883.0,1.0
18:12:54.097863,136303.53125,144189.765625,161723.28125,158605.84375,180561.15625,178103.625,685965.4375,131971.5,0.054443359375,1.004638671875,-0.0849609375,-1.1596678495407104,-0.2441406100988388,0.8239745497703552,86.66667175292969,75884.0,1.0
18:12:54.100372,136286.453125,144165.359375,161704.234375,158593.140625,180538.0,178075.28125,685956.5,131962.828125,0.05615234375,1.004150390625,-0.0830078125,-1.0375975370407104,-0.2136230319738388,0.8850097060203552,86.66667175292969,75885.0,1.0
18:12:54.100400,136304.703125,144193.53125,161710.859375,158596.625,180541.21875,178082.078125,686032.125,131962.203125,0.05517578125,1.00439453125,-0.08203125,-1.0375975370407104,-0.2136230319738388,0.7934569716453552,86.66667175292969,75886.0,1.0
18:12:54.104816,136316.953125,144209.4375,161723.015625,158594.9375,180557.484375,178098.53125,686106.875,131959.703125,0.05419921875,1.0068359375,-0.084716796875,-0.9460448622703552,-0.1525878757238388,0.7934569716453552,86.66667175292969,75887.0,1.0
18:12:54.109809,136310.59375,144198.171875,161729.984375,158607.546875,180568.046875,178107.015625,685952.6875,131977.046875,0.055419921875,1.0068359375,-0.084716796875,-0.9765624403953552,-0.03051757626235485,0.8239745497703552,86.66667175292969,75888.0,1.0
18:12:54.117838,136296.46875,144176.171875,161716.3125,158608.796875,180550.25,178086.546875,685971.0625,131979.375,0.05419921875,1.007080078125,-0.0859375,-1.0375975370407104,-0.1220703050494194,0.9460448622703552,86.66667175292969,75889.0,1.0
18:12:54.117859,136308.640625,144200.671875,161716.484375,158600.03125,180546.765625,178089.234375,686014.875,131962.828125,0.054931640625,1.009765625,-0.086181640625,-1.0070799589157104,-0.0915527269244194,0.9460448622703552,86.66667175292969,75890.0,1.0
18:12:54.122711,136328.125,144227.59375,161731.421875,158608.34375,180563.84375,178106.046875,686135.75,131970.34375,0.055419921875,1.010009765625,-0.085205078125,-0.9460448622703552,0.0,0.8239745497703552,86.66667175292969,75891.0,1.0
18:12:54.122732,136317.84375,144209.53125,161734.1875,158606.90625,180571.265625,178111.21875,685966.375,131976.234375,0.055419921875,1.00927734375,-0.083984375,-0.9155272841453552,0.0610351525247097,0.7629393935203552,86.66667175292969,75892.0,1.0
18:12:54.137320,136301.125,144181.984375,161718.640625,158605.484375,180551.046875,178089.234375,685991.875,131970.78125,0.054443359375,1.008544921875,-0.08154296875,-0.9765624403953552,0.0915527269244194,0.7629393935203552,86.66667175292969,75893.0,1.0
18:12:54.141042,136306.3125,144198.265625,161716.671875,158600.921875,180547.390625,178089.234375,685975.1875,131962.828125,0.0546875,1.007080078125,-0.0830078125,-0.9765624403953552,0.1831054538488388,0.7019042372703552,86.66667175292969,75894.0,1.0
18:12:54.141209,136324.71875,144222.671875,161727.75,158607.984375,180558.734375,178102.828125,686151.8125,131967.203125,0.054931640625,1.00732421875,-0.0869140625,-1.1291502714157104,0.3356933295726776,0.7629393935203552,86.66667175292969,75895.0,1.0
18:12:54.141258,136320.4375,144214.453125,161736.25,158608.796875,180574.03125,178114.09375,686000.8125,131972.125,0.05517578125,1.00732421875,-0.08642578125,-1.1291502714157104,0.2441406100988388,0.6713866591453552,86.66667175292969,75896.0,1.0
18:12:54.143593,136298.078125,144181.359375,161719.171875,158608.078125,180553.90625,178090.578125,685985.25,131976.78125,0.0546875,1.009521484375,-0.0869140625,-1.0070799589157104,0.1831054538488388,0.6103515028953552,86.66667175292969,75897.0,1.0
18:12:54.148563,136304.515625,144196.5625,161719.703125,158607.984375,180552.125,178092.546875,685961.9375,131974.1875,0.055908203125,1.009033203125,-0.0888671875,-1.0070799589157104,0.3356933295726776,0.6713866591453552,86.66667175292969,75898.0,1.0
18:12:54.155405,136316.953125,144216.234375,161723.015625,158604.953125,180553.734375,178094.59375,686142.875,131968.640625,0.054443359375,1.009765625,-0.087890625,-0.8850097060203552,0.3356933295726776,0.7629393935203552,86.66667175292969,75899.0,1.0
18:12:54.155452,136313.734375,144209.796875,161730.078125,158606.5625,180568.046875,178107.5625,686015.9375,131974.8125,0.054931640625,1.010009765625,-0.08447265625,-0.9155272841453552,0.2746581733226776,0.6713866591453552,86.66667175292969,75900.0,1.0
18:12:54.161070,136291.203125,144173.9375,161713.1875,158601.1875,180548.734375,178085.5625,685967.8125,131970.15625,0.054443359375,1.010009765625,-0.08544921875,-0.9765624403953552,0.2746581733226776,0.5798339247703552,86.66667175292969,75901.0,1.0
18:12:54.169327,136289.953125,144177.34375,161706.5625,158596.90625,180538.984375,178078.234375,685951.9375,131964.703125,0.052490234375,1.0087890625,-0.088134765625,-1.0681151151657104,0.3051757514476776,0.5798339247703552,86.66667175292969,75902.0,1.0
18:12:54.169417,136313.546875,144210.59375,161718.28125,158602.359375,180547.46875,178091.375,686107.3125,131964.265625,0.05029296875,1.009521484375,-0.08837890625,-0.9765624403953552,0.3356933295726776,0.4577636420726776,86.66667175292969,75903.0,1.0
18:12:54.171176,136317.484375,144214.71875,161729.8125,158605.84375,180566.4375,178109.796875,686046.9375,131970.875,0.05078125,1.00927734375,-0.08935546875,-0.9765624403953552,0.3051757514476776,0.5493163466453552,86.66667175292969,75904.0,1.0
18:12:54.179950,136292.09375,144179.9375,161713.453125,158597.078125,180550.515625,178090.484375,685959.5,131969.890625,0.052978515625,1.00732421875,-0.08984375,-0.9155272841453552,0.1831054538488388,0.4882812201976776,86.66667175292969,75905.0,1.0
18:12:54.190776,136285.65625,144173.59375,161702.890625,158592.25,180536.03125,178076.09375,685956.1875,131963.625,0.052001953125,1.007080078125,-0.08837890625,-0.9155272841453552,0.2136230319738388,0.5493163466453552,86.66667175292969,75906.0,1.0
18:12:54.190864,136315.078125,144212.390625,161721.5,158615.859375,180549.71875,178092.984375,686081.125,131973.734375,0.051025390625,1.008056640625,-0.087890625,-0.8850097060203552,0.3356933295726776,0.5798339247703552,86.66667175292969,75907.0,1.0
18:12:54.193259,136328.390625,144229.46875,161736.34375,158617.109375,180571.171875,178118.203125,686093.0,131976.859375,0.05322265625,1.005859375,-0.089111328125,-0.8239745497703552,0.3051757514476776,0.6408690810203552,86.66667175292969,75908.0,1.0
