Timestamp,Fz,FC3,FCz,FC4,Cz,C3,C4
18:17:57.530999,131629.515625,142775.34375,158231.3125,155601.046875,169605.140625,167559.6875,686216.125,128318.15625,0.058349609375,1.007080078125,0.065673828125,-1.4648436307907104,1.3427733182907104,0.6408690810203552,86.66667175292969,151796.0,1.0
18:17:57.547778,131636.40625,142777.9375,158250.09375,155619.46875,169626.5,167582.390625,686014.9375,128342.203125,0.0595703125,1.0068359375,0.065185546875,-1.3427733182907104,1.4953612089157104,0.5187987685203552,86.66667175292969,151797.0,1.0
18:17:57.547849,131609.140625,142740.296875,158223.265625,155608.296875,169595.921875,167545.90625,686060.375,128333.0859375,0.058349609375,1.007080078125,0.065185546875,-1.4038084745407104,1.5258787870407104,0.5798339247703552,86.66667175292969,151798.0,1.0
18:17:57.549813,131615.84375,142752.015625,158221.5625,155605.25,169593.515625,167541.171875,686075.75,128325.0390625,0.057373046875,1.0078125,0.06298828125,-1.4343260526657104,1.6174315214157104,0.6103515028953552,86.66667175292969,151799.0,1.0
18:17:57.552161,131638.28125,142777.5,158240.4375,155617.140625,169613.8125,167559.328125,686219.0625,128336.03125,0.0576171875,1.009033203125,0.063720703125,-1.2207030057907104,1.5563963651657104,0.5493163466453552,86.66667175292969,151800.0,1.0
18:17:57.554727,131646.6875,142781.515625,158264.3125,155633.5,169644.203125,167584.625,686014.75,128354.0078125,0.05517578125,1.0087890625,0.063232421875,-1.1901854276657104,1.6784666776657104,0.4882812201976776,86.66667175292969,151801.0,1.0
18:17:57.557181,131624.953125,142749.6875,158244.375,155628.140625,169620.609375,167556.640625,686026.375,128352.3984375,0.050537109375,1.008544921875,0.06640625,-1.0986326932907104,1.7395018339157104,0.4577636420726776,86.66667175292969,151802.0,1.0
18:17:57.559788,131627.734375,142761.5,158237.84375,155619.5625,169611.125,167554.140625,686043.1875,128341.578125,0.050537109375,1.00927734375,0.06689453125,-1.1901854276657104,1.7395018339157104,0.4577636420726776,86.66667175292969,151803.0,1.0
18:17:57.562304,131640.0625,142780.890625,158241.421875,155617.953125,169612.28125,167560.21875,686203.6875,128336.2109375,0.048095703125,1.01025390625,0.068359375,-1.1596678495407104,1.6174315214157104,0.3356933295726776,86.66667175292969,151804.0,1.0
18:17:57.564764,131640.609375,142780.171875,158254.921875,155623.140625,169632.84375,167580.609375,686033.125,128343.546875,0.04833984375,1.009521484375,0.068359375,-1.0986326932907104,1.4953612089157104,0.3967284858226776,86.66667175292969,151805.0,1.0
18:17:57.571076,131610.03125,142740.390625,158228.359375,155608.65625,169603.703125,167548.5,685992.5,128332.28125,0.048583984375,1.010009765625,0.067626953125,-1.0375975370407104,1.5258787870407104,0.3356933295726776,86.66667175292969,151806.0,1.0
18:17:57.573498,131611.90625,142746.828125,158222.375,155602.75,169594.5,167543.671875,686054.4375,128323.609375,0.048095703125,1.009765625,0.066162109375,-1.0375975370407104,1.4038084745407104,0.3051757514476776,86.66667175292969,151807.0,1.0
18:17:57.576081,131634.4375,142774.8125,158236.328125,155610.34375,169606.125,167555.296875,686187.6875,128329.2421875,0.048828125,1.011474609375,0.064208984375,-0.9460448622703552,1.2817381620407104,0.3356933295726776,86.66667175292969,151808.0,1.0
18:17:57.579123,131652.765625,142794.390625,158264.125,155627.25,169641.078125,167588.03125,686084.3125,128351.0546875,0.046630859375,1.011474609375,0.0673828125,-0.8850097060203552,1.1901854276657104,0.3356933295726776,86.66667175292969,151809.0,1.0
18:17:57.581232,131639.53125,142771.234375,158257.59375,155633.6875,169633.46875,167576.765625,685997.5,128355.1640625,0.045166015625,1.010498046875,0.06591796875,-1.0070799589157104,1.0681151151657104,0.3967284858226776,86.66667175292969,151810.0,1.0
18:17:57.584392,131625.046875,142758.71875,158238.640625,155617.40625,169611.84375,167559.328125,686069.5,128338.09375,0.044921875,1.011962890625,0.066650390625,-1.0070799589157104,0.9765624403953552,0.3662109076976776,86.66667175292969,151811.0,1.0
18:17:57.585129,131633.1875,142779.1875,158236.859375,155610.53125,169608.359375,167562.0,686168.25,128327.09375,0.043212890625,1.01220703125,0.0654296875,-1.0375975370407104,0.8544921278953552,0.4882812201976776,86.66667175292969,151812.0,1.0
18:17:57.587180,131641.859375,142788.140625,158249.109375,155617.328125,169623.46875,167578.1875,686129.375,128329.5078125,0.044189453125,1.010498046875,0.067626953125,-1.0681151151657104,0.7019042372703552,0.5187987685203552,86.66667175292969,151813.0,1.0
18:17:57.587267,131621.5625,142757.375,158238.109375,155614.1875,169611.125,167562.625,685974.4375,128329.5078125,0.04541015625,1.009765625,0.064208984375,-1.1291502714157104,0.4882812201976776,0.6103515028953552,86.66667175292969,151814.0,1.0
18:17:57.587299,131598.671875,142731.0,158213.515625,155597.921875,169584.578125,167532.59375,686057.125,128318.328125,0.044921875,1.0107421875,0.068115234375,-1.1291502714157104,0.3967284858226776,0.7629393935203552,86.66667175292969,151815.0,1.0
18:17:57.589977,131613.875,142760.234375,158219.328125,155599.625,169589.046875,167543.40625,686149.25,128318.953125,0.046630859375,1.01025390625,0.069580078125,-1.1596678495407104,0.2136230319738388,0.9765624403953552,86.66667175292969,151816.0,1.0
18:17:57.592719,131626.84375,142776.6875,158231.046875,155600.25,169603.34375,167561.5625,686175.0,128318.8671875,0.043701171875,1.01171875,0.068359375,-1.1901854276657104,0.0915527269244194,1.0070799589157104,86.66667175292969,151817.0,1.0
18:17:57.595392,131613.25,142754.34375,158228.0,155601.765625,169603.34375,167558.34375,685976.3125,128322.8046875,0.04345703125,1.012939453125,0.0712890625,-1.0681151151657104,-0.1525878757238388,1.1291502714157104,86.66667175292969,151818.0,1.0
18:17:57.595473,131589.90625,142725.1875,158204.140625,155587.734375,169576.078125,167528.203125,686048.3125,128311.5390625,0.044189453125,1.0126953125,0.068603515625,-1.1291502714157104,-0.2136230319738388,1.1291502714157104,86.66667175292969,151819.0,1.0
18:17:57.598207,131608.328125,142754.25,158215.3125,155592.5625,169585.015625,167540.015625,686093.375,128316.71875,0.046630859375,1.01171875,0.06787109375,-1.2207030057907104,-0.3356933295726776,1.2207030057907104,86.66667175292969,151820.0,1.0
18:17:57.601618,131624.0625,142773.921875,158228.71875,155600.15625,169601.46875,167556.015625,686196.25,128325.5703125,0.046142578125,1.01025390625,0.068359375,-1.3427733182907104,-0.3662109076976776,1.2512205839157104,86.66667175292969,151821.0,1.0
18:17:57.601696,131618.515625,142761.046875,158236.671875,155605.515625,169614.96875,167563.96875,685972.375,128331.828125,0.04736328125,1.00927734375,0.06591796875,-1.4343260526657104,-0.4577636420726776,1.3122557401657104,86.66667175292969,151822.0,1.0
18:17:57.607390,131599.390625,142732.875,158217.359375,155602.390625,169591.8125,167536.96875,686042.5,128329.59375,0.049072265625,1.010986328125,0.06787109375,-1.4343260526657104,-0.6103515028953552,1.3732908964157104,86.66667175292969,151823.0,1.0
18:17:57.615469,131617.984375,142760.15625,158226.046875,155607.3125,169598.15625,167547.96875,686086.625,128327.984375,0.05078125,1.010009765625,0.066650390625,-1.3732908964157104,-0.6713866591453552,1.3732908964157104,86.66667175292969,151824.0,1.0
18:17:57.615538,131631.578125,142777.40625,158234.171875,155608.46875,169608.0,167557.171875,686206.1875,128324.5859375,0.048828125,1.01025390625,0.065673828125,-1.3732908964157104,-0.7629393935203552,1.4953612089157104,86.66667175292969,151825.0,1.0
18:17:57.624684,131623.4375,142763.546875,158240.703125,155608.46875,169620.953125,167565.84375,685996.25,128331.296875,0.04931640625,1.009765625,0.064697265625,-1.4953612089157104,-0.8239745497703552,1.4343260526657104,86.66667175292969,151826.0,1.0
18:17:57.629205,131599.75,142731.453125,158217.546875,155598.28125,169593.328125,167540.09375,686020.0625,128323.515625,0.051025390625,1.0087890625,0.063720703125,-1.5258787870407104,-0.8239745497703552,1.3732908964157104,86.66667175292969,151827.0,1.0
18:17:57.629281,131601.625,142740.484375,158213.34375,155591.3125,169584.125,167534.921875,686099.6875,128311.0,0.052001953125,1.008544921875,0.0654296875,-1.5563963651657104,-0.8850097060203552,1.2512205839157104,86.66667175292969,151828.0,1.0
18:17:57.635379,131627.546875,142772.84375,158232.03125,155605.078125,169600.65625,167552.625,686216.0,128319.8515625,0.056884765625,1.0078125,0.064697265625,-1.5563963651657104,-0.8544921278953552,1.2512205839157104,86.66667175292969,151829.0,1.0
18:17:57.635455,131637.75,142782.328125,158251.078125,155616.25,169626.40625,167577.921875,686045.1875,128334.9609375,0.05908203125,1.0068359375,0.0654296875,-1.4953612089157104,-0.7934569716453552,1.2817381620407104,86.66667175292969,151830.0,1.0
18:17:57.664778,131609.046875,142744.140625,158227.828125,155605.515625,169599.140625,167548.140625,686004.5625,128326.0234375,0.060302734375,1.009521484375,0.062744140625,-1.4648436307907104,-0.8544921278953552,1.1291502714157104,86.66667175292969,151831.0,1.0
18:17:57.672155,131602.515625,142739.953125,158216.65625,155595.234375,169585.640625,167534.640625,686072.875,128317.078125,0.059326171875,1.009521484375,0.0625,-1.3732908964157104,-0.7019042372703552,1.3122557401657104,86.66667175292969,151832.0,1.0
18:17:57.672228,131623.625,142770.703125,158228.09375,155602.390625,169595.921875,167548.0625,686187.3125,128322.171875,0.061279296875,1.009033203125,0.063232421875,-1.5258787870407104,-0.5798339247703552,1.3427733182907104,86.66667175292969,151833.0,1.0
18:17:57.672256,131632.828125,142780.53125,158245.984375,155608.921875,169621.140625,167572.828125,686082.875,128328.34375,0.061279296875,1.007568359375,0.06640625,-1.4648436307907104,-0.4272460639476776,1.2512205839157104,86.66667175292969,151834.0,1.0
18:17:57.676453,131613.609375,142749.6875,158236.140625,155608.375,169610.3125,167556.640625,685995.4375,128332.546875,0.0625,1.00927734375,0.068359375,-1.5563963651657104,-0.3662109076976776,1.2512205839157104,86.66667175292969,151835.0,1.0
18:17:57.676512,131603.40625,142739.953125,158223.359375,155602.75,169595.125,167539.5625,686100.3125,128330.7578125,0.06298828125,1.010009765625,0.06787109375,-1.5258787870407104,-0.3051757514476776,1.1596678495407104,86.66667175292969,151836.0,1.0
18:17:57.676535,131620.578125,142766.765625,158227.734375,155604.53125,169594.671875,167544.921875,686180.0,128321.3671875,0.061279296875,1.0087890625,0.067138671875,-1.4953612089157104,-0.2136230319738388,1.1596678495407104,86.66667175292969,151837.0,1.0
18:17:57.676556,131630.40625,142776.515625,158237.75,155607.125,169607.8125,167563.34375,686140.5625,128322.3515625,0.0625,1.009521484375,0.06689453125,-1.4343260526657104,0.03051757626235485,1.1901854276657104,86.66667175292969,151838.0,1.0
18:17:57.679385,131609.84375,142745.40625,158227.203125,155600.875,169597.09375,167548.953125,685975.1875,128318.6875,0.061279296875,1.009765625,0.067626953125,-1.4648436307907104,0.2441406100988388,1.0375975370407104,86.66667175292969,151839.0,1.0
18:17:57.679452,131594.921875,142726.53125,158210.390625,155591.390625,169577.59375,167525.265625,686063.5625,128314.0390625,0.065673828125,1.010009765625,0.066162109375,-1.2817381620407104,0.2746581733226776,1.1596678495407104,86.66667175292969,151840.0,1.0
18:17:57.680923,131612.265625,142753.796875,158219.15625,155595.859375,169584.296875,167534.109375,686122.4375,128313.953125,0.06591796875,1.0078125,0.064453125,-1.2512205839157104,0.3967284858226776,1.0986326932907104,86.66667175292969,151841.0,1.0
18:17:57.683473,131636.046875,142781.34375,158244.8125,155610.53125,169614.796875,167565.3125,686167.75,128328.1640625,0.064697265625,1.0068359375,0.064453125,-1.1596678495407104,0.4577636420726776,0.9765624403953552,86.66667175292969,151842.0,1.0
18:17:57.687180,131631.671875,142773.03125,158253.9375,155619.921875,169628.203125,167574.34375,685972.5,128342.1171875,0.0625,1.00537109375,0.067138671875,-1.1291502714157104,0.7019042372703552,0.9460448622703552,86.66667175292969,151843.0,1.0
18:17:57.699193,131603.953125,142739.5,158225.59375,155603.828125,169597.359375,167540.453125,686079.6875,128330.4921875,0.062255859375,1.00537109375,0.06884765625,-1.1596678495407104,0.8850097060203552,0.9765624403953552,86.66667175292969,151844.0,1.0
18:17:57.699445,131619.859375,142763.640625,158232.296875,155609.640625,169601.640625,167547.703125,686124.375,128334.2421875,0.061279296875,1.005615234375,0.06591796875,-1.0375975370407104,0.9155272841453552,0.9155272841453552,86.66667175292969,151845.0,1.0
18:17:57.710305,131633.984375,142781.96875,158241.5,155613.296875,169611.484375,167561.015625,686203.4375,128331.828125,0.061279296875,1.005126953125,0.062255859375,-0.9765624403953552,1.0681151151657104,0.9155272841453552,86.66667175292969,151846.0,1.0
18:17:57.710325,131631.9375,142777.765625,158250.71875,155617.765625,169625.25,167576.046875,685993.25,128337.2890625,0.060546875,1.005859375,0.065673828125,-1.0070799589157104,1.1901854276657104,0.7934569716453552,86.66667175292969,151847.0,1.0
18:17:57.713388,131608.515625,142746.921875,158228.359375,155606.6875,169599.953125,167548.234375,686056.875,128328.34375,0.058349609375,1.00732421875,0.064697265625,-0.8850097060203552,1.1291502714157104,0.7934569716453552,86.66667175292969,151848.0,1.0
18:17:57.713401,131616.90625,142763.640625,158230.421875,155606.765625,169600.84375,167550.5625,686112.5625,128326.5546875,0.056884765625,1.0068359375,0.0693359375,-0.7324218153953552,1.1901854276657104,0.8239745497703552,86.66667175292969,151849.0,1.0
18:17:57.713403,131634.4375,142785.71875,158242.765625,155611.421875,169613.453125,167562.453125,686212.1875,128330.671875,0.055419921875,1.0078125,0.06640625,-0.7324218153953552,1.1596678495407104,0.7019042372703552,86.66667175292969,151850.0,1.0
18:17:57.717280,131647.484375,142796.359375,158268.15625,155630.203125,169644.203125,167592.3125,686023.1875,128352.21875,0.055419921875,1.0087890625,0.068115234375,-0.7019042372703552,1.1291502714157104,0.5798339247703552,86.66667175292969,151851.0,1.0
18:17:57.732757,131618.515625,142756.671875,158239.890625,155614.734375,169611.125,167557.71875,686055.25,128333.6171875,0.0546875,1.01025390625,0.06591796875,-0.6713866591453552,1.2207030057907104,0.6103515028953552,86.66667175292969,151852.0,1.0
18:17:57.732770,131621.109375,142763.640625,158235.421875,155610.703125,169603.4375,167551.1875,686125.375,128329.5078125,0.054443359375,1.0126953125,0.06787109375,-0.7019042372703552,1.1901854276657104,0.6408690810203552,86.66667175292969,151853.0,1.0
18:17:57.737144,131644.8125,142793.671875,158250.71875,155621.875,169617.5625,167566.921875,686217.0,128333.7109375,0.053466796875,1.01123046875,0.069580078125,-0.6713866591453552,1.0986326932907104,0.6408690810203552,86.66667175292969,151854.0,1.0
18:17:57.742115,131654.734375,142801.546875,158271.1875,155634.578125,169645.09375,167592.3125,686056.9375,128348.1015625,0.052978515625,1.012939453125,0.070068359375,-0.6103515028953552,1.0681151151657104,0.6713866591453552,86.66667175292969,151855.0,1.0
18:17:57.744657,131626.125,142762.828125,158248.390625,155623.21875,169620.6875,167564.859375,686014.0625,128342.6484375,0.0537109375,1.0107421875,0.068603515625,-0.5187987685203552,0.9460448622703552,0.6103515028953552,86.66667175292969,151856.0,1.0
18:17:57.747221,131619.6875,142758.984375,158237.3125,155613.5625,169606.65625,167551.09375,686112.75,128333.890625,0.0517578125,1.0107421875,0.066162109375,-0.6103515028953552,0.9155272841453552,0.6103515028953552,86.66667175292969,151857.0,1.0
18:17:57.749662,131634.078125,142780.359375,158241.0625,155615.171875,169607.1875,167553.78125,686201.8125,128336.03125,0.0517578125,1.010009765625,0.0703125,-0.5798339247703552,0.7934569716453552,0.7019042372703552,86.66667175292969,151858.0,1.0
18:17:57.753391,131632.640625,142779.734375,158246.609375,155614.015625,169619.625,167566.203125,686091.3125,128332.546875,0.050537109375,1.01123046875,0.06884765625,-0.4882812201976776,0.6408690810203552,0.6713866591453552,86.66667175292969,151859.0,1.0
18:17:57.762789,131614.765625,142753.53125,158236.328125,155610.53125,169609.0625,167554.234375,685985.875,128330.046875,0.049072265625,1.01171875,0.069580078125,-0.4882812201976776,0.5798339247703552,0.7019042372703552,86.66667175292969,151860.0,1.0
18:17:57.762825,131605.015625,142741.203125,158220.671875,155603.734375,169588.859375,167534.109375,686091.125,128322.4453125,0.04931640625,1.01123046875,0.0712890625,-0.4882812201976776,0.5798339247703552,0.7629393935203552,86.66667175292969,151861.0,1.0
18:17:57.770263,131617.453125,142761.84375,158221.5625,155599.4375,169585.640625,167534.015625,686170.6875,128313.59375,0.050537109375,1.010498046875,0.0703125,-0.5187987685203552,0.4272460639476776,0.7019042372703552,86.66667175292969,151862.0,1.0
18:17:57.770293,131633.984375,142777.765625,158239.890625,155608.921875,169608.703125,167557.984375,686142.5,128322.9765625,0.051025390625,1.010986328125,0.06787109375,-0.4882812201976776,0.3356933295726776,0.7629393935203552,86.66667175292969,151863.0,1.0
18:17:57.772906,131625.9375,142759.609375,158243.390625,155615.984375,169613.53125,167556.90625,685990.875,128339.609375,0.051025390625,1.009033203125,0.068359375,-0.4272460639476776,0.3356933295726776,0.7324218153953552,86.66667175292969,151864.0,1.0
18:17:57.772919,131608.78125,142740.125,158224.96875,155604.71875,169592.171875,167533.578125,686095.25,128325.390625,0.0517578125,1.00634765625,0.068603515625,-0.3967284858226776,0.2441406100988388,0.9155272841453552,86.66667175292969,151865.0,1.0
18:17:57.782115,131623.96875,142767.578125,158231.046875,155604.453125,169596.546875,167541.171875,686155.3125,128318.78125,0.051513671875,1.00732421875,0.06591796875,-0.4272460639476776,0.0610351525247097,0.8544921278953552,86.66667175292969,151866.0,1.0
18:17:57.786537,131643.734375,142790.453125,158250.984375,155618.65625,169620.0625,167564.78125,686178.375,128336.03125,0.05322265625,1.00537109375,0.06201171875,-0.3356933295726776,0.0,0.8544921278953552,86.66667175292969,151867.0,1.0
18:17:57.786552,131629.609375,142770.078125,158249.734375,155619.640625,169620.515625,167564.234375,685977.6875,128342.0234375,0.055419921875,1.005859375,0.064697265625,-0.1220703050494194,-0.0915527269244194,0.8239745497703552,86.66667175292969,151868.0,1.0
18:17:57.794036,131601.53125,142736.8125,158222.640625,155601.234375,169589.75,167531.34375,686054.1875,128327.0,0.05712890625,1.0048828125,0.06591796875,-0.0610351525247097,-0.0610351525247097,0.7934569716453552,86.66667175292969,151869.0,1.0
18:17:57.794086,131607.171875,142754.15625,158220.046875,155591.65625,169585.546875,167531.15625,686113.625,128311.625,0.05712890625,1.005126953125,0.066650390625,-0.0915527269244194,-0.03051757626235485,0.8544921278953552,86.66667175292969,151870.0,1.0
18:17:57.795835,131629.25,142780.359375,158236.859375,155608.296875,169603.34375,167553.515625,686188.9375,128321.1953125,0.0556640625,1.007080078125,0.064697265625,0.03051757626235485,0.0,0.9460448622703552,86.66667175292969,151871.0,1.0
18:17:57.805960,131631.9375,142779.46875,158252.0625,155618.9375,169622.84375,167571.84375,685988.5625,128335.046875,0.05419921875,1.008056640625,0.065673828125,0.0,-0.1831054538488388,0.8544921278953552,86.66667175292969,151872.0,1.0
18:17:57.810225,131612.171875,142751.5625,158233.28125,155609.1875,169599.328125,167546.0,686046.9375,128331.296875,0.056640625,1.0078125,0.066650390625,-0.03051757626235485,-0.1525878757238388,0.9155272841453552,86.66667175292969,151873.0,1.0
18:17:57.810232,131622.984375,142769.890625,158236.5,155610.265625,169600.21875,167548.328125,686118.6875,128329.7734375,0.056884765625,1.010009765625,0.06591796875,0.0610351525247097,-0.1525878757238388,1.0070799589157104,86.66667175292969,151874.0,1.0
18:17:57.819050,131643.203125,142797.171875,158248.21875,155618.75,169613.09375,167563.890625,686211.375,128336.484375,0.0576171875,1.01220703125,0.06591796875,0.0915527269244194,-0.1525878757238388,1.0681151151657104,86.66667175292969,151875.0,1.0
18:17:57.819067,131641.5,142792.703125,158257.328125,155621.609375,169627.75,167580.328125,686021.8125,128341.0390625,0.05615234375,1.01123046875,0.064697265625,0.0610351525247097,-0.2136230319738388,1.0681151151657104,86.66667175292969,151876.0,1.0
18:17:57.820923,131613.25,142755.140625,158233.28125,155608.375,169599.140625,167548.6875,686031.3125,128331.1171875,0.056640625,1.013916015625,0.06591796875,-0.1220703050494194,-0.1525878757238388,1.0681151151657104,86.66667175292969,151877.0,1.0
18:17:57.828486,131619.140625,142765.609375,158234.171875,155610.078125,169598.15625,167544.65625,686095.9375,128332.0078125,0.057373046875,1.012451171875,0.0673828125,-0.1220703050494194,-0.1831054538488388,0.9765624403953552,86.66667175292969,151878.0,1.0
18:17:57.837752,131626.921875,142780.71875,158233.90625,155604.984375,169597.265625,167544.921875,686194.0,128321.90625,0.058349609375,1.012939453125,0.067626953125,-0.1220703050494194,-0.1831054538488388,0.9765624403953552,86.66667175292969,151879.0,1.0
18:17:57.837758,131631.3125,142781.96875,158248.390625,155610.609375,169618.546875,167564.328125,686052.9375,128334.9609375,0.057373046875,1.01318359375,0.0654296875,-0.1525878757238388,-0.2136230319738388,1.1291502714157104,86.66667175292969,151880.0,1.0
18:17:57.840215,131608.15625,142746.921875,158228.984375,155605.515625,169594.765625,167539.203125,686021.1875,128329.59375,0.06005859375,1.011474609375,0.064697265625,-0.2441406100988388,-0.1220703050494194,1.0375975370407104,86.66667175292969,151881.0,1.0
18:17:57.840224,131593.578125,142734.484375,158207.984375,155588.796875,169569.109375,167517.21875,686121.0625,128314.1328125,0.059326171875,1.01220703125,0.067138671875,-0.3356933295726776,-0.1220703050494194,1.0375975370407104,86.66667175292969,151882.0,1.0
18:17:57.849730,131606.90625,142757.734375,158210.21875,155583.703125,169568.203125,167522.21875,686190.5625,128298.9296875,0.058349609375,1.0126953125,0.0654296875,-0.3967284858226776,-0.0915527269244194,0.9765624403953552,86.66667175292969,151883.0,1.0
18:17:57.854074,131619.0625,142770.25,158230.0625,155594.25,169595.75,167549.046875,686089.9375,128306.890625,0.05810546875,1.01611328125,0.0693359375,-0.5187987685203552,0.03051757626235485,0.8850097060203552,86.66667175292969,151884.0,1.0
18:17:57.854089,131601.265625,142741.828125,158222.546875,155595.234375,169589.3125,167535.1875,685979.8125,128314.9375,0.060546875,1.012451171875,0.067626953125,-0.5493163466453552,0.0610351525247097,0.8544921278953552,86.66667175292969,151885.0,1.0
18:17:57.861007,131597.59375,142736.375,158215.046875,155593.1875,169579.296875,167523.203125,686075.1875,128314.578125,0.059326171875,1.0107421875,0.0634765625,-0.5798339247703552,0.1525878757238388,0.8239745497703552,86.66667175292969,151886.0,1.0
18:17:57.864700,131621.109375,142768.28125,158228.09375,155601.046875,169588.59375,167534.640625,686161.125,128318.953125,0.060791015625,1.009765625,0.062744140625,-0.6103515028953552,0.1220703050494194,0.7934569716453552,86.66667175292969,151887.0,1.0
18:17:57.895286,131635.15625,142781.875,158243.828125,155609.0,169608.078125,167555.296875,686138.0625,128325.125,0.060302734375,1.00830078125,0.060546875,-0.5493163466453552,0.1220703050494194,0.7934569716453552,86.66667175292969,151888.0,1.0
18:17:57.895305,131627.90625,142764.53125,158249.640625,155623.671875,169615.78125,167556.015625,685981.9375,128342.2890625,0.06005859375,1.00732421875,0.059814453125,-0.4882812201976776,0.1831054538488388,0.7629393935203552,86.66667175292969,151889.0,1.0
18:17:57.914713,131607.4375,142741.375,158226.578125,155609.640625,169588.421875,167529.375,686055.1875,128328.7890625,0.06103515625,1.010009765625,0.059814453125,-0.3967284858226776,0.3051757514476776,0.8850097060203552,86.66667175292969,151890.0,1.0
18:17:57.920978,131612.265625,142754.703125,158218.265625,155597.65625,169577.5,167523.65625,686124.5,128313.6796875,0.0615234375,1.009033203125,0.060302734375,-0.3356933295726776,0.3051757514476776,0.8850097060203552,86.66667175292969,151891.0,1.0
18:17:57.923384,131619.765625,142764.890625,158225.5,155599.265625,169589.046875,167537.328125,686174.875,128316.9921875,0.060791015625,1.00537109375,0.059326171875,-0.2441406100988388,0.3967284858226776,1.0375975370407104,86.66667175292969,151892.0,1.0
18:17:57.925907,131616.828125,142758.8125,158237.578125,155612.21875,169606.203125,167552.34375,685991.9375,128340.859375,0.058837890625,1.004150390625,0.0634765625,-0.2136230319738388,0.4577636420726776,1.0070799589157104,86.66667175292969,151893.0,1.0
18:17:57.932166,131590.453125,142728.140625,158212.0,155595.15625,169576.609375,167520.515625,686046.9375,128318.8671875,0.059814453125,1.004150390625,0.0634765625,0.0,0.4882812201976776,0.9765624403953552,86.66667175292969,151894.0,1.0
18:17:57.934712,131600.46875,142747.28125,158214.859375,155594.875,169577.859375,167522.578125,686087.625,128312.34375,0.0595703125,1.006591796875,0.060791015625,0.0915527269244194,0.5187987685203552,0.9765624403953552,86.66667175292969,151895.0,1.0
18:17:57.937248,131615.296875,142764.796875,158224.96875,155597.03125,169589.84375,167536.4375,686188.3125,128313.1484375,0.05908203125,1.009521484375,0.062255859375,0.03051757626235485,0.5798339247703552,0.8850097060203552,86.66667175292969,151896.0,1.0
18:17:57.944673,131620.75,142765.0625,158241.234375,155613.828125,169609.15625,167554.9375,686003.5,128330.9375,0.05859375,1.007080078125,0.0625,0.1220703050494194,0.5493163466453552,0.9155272841453552,86.66667175292969,151897.0,1.0
18:17:57.947121,131596.609375,142730.640625,158215.671875,155600.421875,169578.140625,167521.765625,686055.0625,128319.40625,0.055908203125,1.004638671875,0.059326171875,0.1220703050494194,0.5798339247703552,1.0681151151657104,86.66667175292969,151898.0,1.0
18:17:57.949670,131596.171875,142741.203125,158208.609375,155589.34375,169569.640625,167516.765625,686101.75,128305.8125,0.055419921875,1.004150390625,0.05810546875,0.1831054538488388,0.3967284858226776,0.9765624403953552,86.66667175292969,151899.0,1.0
18:17:57.952237,131610.828125,142761.84375,158217.359375,155593.09375,169578.9375,167527.5,686202.875,128305.3671875,0.056884765625,1.005859375,0.05615234375,0.2136230319738388,0.6408690810203552,1.0070799589157104,86.66667175292969,151900.0,1.0
18:17:57.954758,131610.75,142758.28125,158230.421875,155599.796875,169599.0625,167545.828125,686032.125,128314.7578125,0.059814453125,1.008056640625,0.058837890625,0.1831054538488388,0.6408690810203552,1.1291502714157104,86.66667175292969,151901.0,1.0
18:17:57.957251,131582.484375,142719.296875,158206.453125,155589.421875,169571.875,167513.375,686029.4375,128309.125,0.062744140625,1.00830078125,0.056396484375,0.2746581733226776,0.5798339247703552,1.2512205839157104,86.66667175292969,151902.0,1.0
18:17:57.959732,131587.046875,142729.125,158205.5625,155586.03125,169568.03125,167510.328125,686087.1875,128304.921875,0.063720703125,1.010009765625,0.055908203125,0.2746581733226776,0.6713866591453552,1.2817381620407104,86.66667175292969,151903.0,1.0
18:17:57.962729,131617.0,142769.1875,158227.203125,155601.046875,169588.59375,167533.75,686223.4375,128318.0625,0.064453125,1.009521484375,0.056396484375,0.3356933295726776,0.7629393935203552,1.1901854276657104,86.66667175292969,151904.0,1.0
18:17:57.962735,131626.84375,142779.28125,158246.421875,155611.15625,169613.53125,167560.21875,686091.8125,128329.5078125,0.063232421875,1.0107421875,0.0576171875,0.3051757514476776,0.8544921278953552,1.3427733182907104,86.66667175292969,151905.0,1.0
18:17:57.964623,131601.0,142743.078125,158226.3125,155600.875,169590.734375,167533.84375,686031.5,128323.609375,0.064208984375,1.010009765625,0.056884765625,0.3662109076976776,0.8850097060203552,1.4038084745407104,86.66667175292969,151906.0,1.0
18:17:57.967723,131601.265625,142745.484375,158221.84375,155599.53125,169584.296875,167525.796875,686042.8125,128322.9765625,0.062255859375,1.011474609375,0.05712890625,0.3051757514476776,1.0070799589157104,1.3427733182907104,86.66667175292969,151907.0,1.0
18:17:57.967728,131625.9375,142778.75,158235.609375,155610.53125,169595.75,167541.796875,686184.125,128328.7890625,0.0595703125,1.01318359375,0.05908203125,0.2746581733226776,0.9460448622703552,1.2817381620407104,86.66667175292969,151908.0,1.0
18:17:57.969596,131640.25,142791.984375,158257.78125,155631.0,169623.90625,167568.265625,686125.375,128351.4140625,0.057861328125,1.017578125,0.05615234375,0.0915527269244194,0.9155272841453552,1.2207030057907104,86.66667175292969,151909.0,1.0
18:17:57.972118,131605.640625,142745.671875,158232.296875,155610.53125,169598.34375,167538.765625,686000.8125,128332.90625,0.056640625,1.01904296875,0.057861328125,0.0610351525247097,1.0070799589157104,0.9460448622703552,86.66667175292969,151910.0,1.0
18:17:57.980338,131588.578125,142727.15625,158210.03125,155594.34375,169573.484375,167514.984375,686036.5,128318.0625,0.05615234375,1.01904296875,0.0595703125,-0.03051757626235485,0.9155272841453552,0.8544921278953552,86.66667175292969,151911.0,1.0
18:17:57.980349,131612.265625,142762.46875,158222.375,155599.4375,169584.75,167530.984375,686146.625,128315.46875,0.056396484375,1.016845703125,0.061767578125,-0.2136230319738388,0.8239745497703552,0.7019042372703552,86.66667175292969,151912.0,1.0
18:17:57.983113,131628.265625,142784.5625,158241.59375,155609.09375,169607.8125,167559.234375,686153.875,128324.859375,0.056640625,1.016845703125,0.06005859375,-0.2746581733226776,0.8850097060203552,0.7019042372703552,86.66667175292969,151913.0,1.0
18:17:57.983184,131614.765625,142761.3125,158238.375,155612.21875,169605.40625,167552.0,685998.6875,128331.65625,0.05517578125,1.01416015625,0.0615234375,-0.3356933295726776,0.8544921278953552,0.4882812201976776,86.66667175292969,151914.0,1.0
18:17:57.984786,131595.546875,142736.015625,158215.3125,155599.703125,169579.03125,167522.84375,686041.0625,128320.5625,0.0546875,1.01416015625,0.062255859375,-0.4272460639476776,0.7324218153953552,0.2441406100988388,86.66667175292969,151915.0,1.0
18:17:57.987186,131607.34375,142757.5625,158218.0,155599.796875,169579.203125,167526.515625,686104.4375,128314.0390625,0.05712890625,1.014892578125,0.05908203125,-0.3967284858226776,0.5798339247703552,0.2136230319738388,86.66667175292969,151916.0,1.0
18:17:57.989663,131623.703125,142777.5,158233.734375,155604.890625,169597.453125,167546.71875,686187.9375,128316.09375,0.05908203125,1.014404296875,0.059326171875,-0.5187987685203552,0.5798339247703552,0.2136230319738388,86.66667175292969,151917.0,1.0
18:17:57.992212,131618.609375,142766.59375,158238.921875,155613.125,169605.84375,167554.234375,685997.0625,128327.71875,0.0595703125,1.01220703125,0.059326171875,-0.6103515028953552,0.5187987685203552,0.1525878757238388,86.66667175292969,151918.0,1.0
18:17:57.996669,131588.296875,142729.84375,158207.4375,155590.765625,169570.09375,167518.015625,686053.75,128310.9140625,0.058349609375,1.01220703125,0.060302734375,-0.6713866591453552,0.4577636420726776,0.1831054538488388,86.66667175292969,151919.0,1.0
18:17:57.996727,131594.5625,142743.078125,158205.75,155585.40625,169566.59375,167515.0625,686089.3125,128303.84375,0.0576171875,1.01123046875,0.06005859375,-0.7324218153953552,0.4577636420726776,0.1525878757238388,86.66667175292969,151920.0,1.0
18:17:58.006609,131614.3125,142764.53125,158220.234375,155597.296875,169581.984375,167530.265625,686208.6875,128313.1484375,0.055419921875,1.0107421875,0.060791015625,-0.7934569716453552,0.3356933295726776,0.1220703050494194,86.66667175292969,151921.0,1.0
18:17:58.006689,131607.796875,142755.234375,158227.203125,155597.296875,169594.9375,167541.796875,686006.0,128321.1953125,0.0556640625,1.009765625,0.059326171875,-0.8544921278953552,0.3662109076976776,0.1525878757238388,86.66667175292969,151922.0,1.0
18:17:58.009055,131584.546875,142725.375,158206.734375,155585.21875,169571.515625,167514.171875,686042.5,128307.2421875,0.05517578125,1.01123046875,0.060302734375,-0.8239745497703552,0.2441406100988388,0.2136230319738388,86.66667175292969,151923.0,1.0
18:17:58.009121,131596.078125,142743.96875,158211.828125,155591.390625,169575.1875,167518.28125,686054.625,128311.8046875,0.0556640625,1.01220703125,0.058349609375,-0.9460448622703552,0.1831054538488388,0.2441406100988388,86.66667175292969,151924.0,1.0
18:17:58.018404,131610.828125,142760.234375,158216.296875,155594.171875,169578.140625,167522.21875,686214.75,128308.9453125,0.0546875,1.0146484375,0.059814453125,-1.0375975370407104,0.1525878757238388,0.2746581733226776,86.66667175292969,151925.0,1.0
18:17:58.026518,131621.03125,142772.578125,158239.625,155608.109375,169605.578125,167553.421875,686044.6875,128328.609375,0.054443359375,1.013916015625,0.0576171875,-1.0681151151657104,0.0915527269244194,0.3051757514476776,86.66667175292969,151926.0,1.0
18:17:58.026531,131595.71875,142734.140625,158218.96875,155601.140625,169580.28125,167523.109375,686034.625,128324.6796875,0.05419921875,1.013916015625,0.06005859375,-1.2512205839157104,0.0915527269244194,0.3662109076976776,86.66667175292969,151927.0,1.0
18:17:58.028509,131596.078125,142735.203125,158215.3125,155599.359375,169575.890625,167515.0625,686061.25,128321.28125,0.053466796875,1.01611328125,0.062255859375,-1.3122557401657104,-0.0610351525247097,0.3967284858226776,86.66667175292969,151928.0,1.0
18:17:58.032235,131613.515625,142760.515625,158224.515625,155599.53125,169585.640625,167526.78125,686219.625,128316.3671875,0.05322265625,1.013427734375,0.064208984375,-1.3427733182907104,-0.1220703050494194,0.4272460639476776,86.66667175292969,151929.0,1.0
18:17:58.040297,131622.28125,142768.90625,158241.0625,155606.6875,169607.734375,167550.65625,686086.75,128325.3046875,0.0517578125,1.0146484375,0.06201171875,-1.4648436307907104,-0.2441406100988388,0.5187987685203552,86.66667175292969,151930.0,1.0
18:17:58.040308,131602.078125,142738.609375,158225.140625,155600.421875,169588.953125,167530.09375,686018.0625,128322.3515625,0.04931640625,1.012451171875,0.05908203125,-1.5258787870407104,-0.2746581733226776,0.7019042372703552,86.66667175292969,151931.0,1.0
18:17:58.046549,131602.421875,142743.703125,158222.015625,155603.546875,169583.671875,167525.53125,686058.1875,128328.609375,0.051025390625,1.011474609375,0.06201171875,-1.6174315214157104,-0.3662109076976776,0.6408690810203552,86.66667175292969,151932.0,1.0
18:17:58.046569,131610.5625,142760.859375,158220.578125,155598.640625,169579.828125,167524.8125,686190.1875,128323.4296875,0.051025390625,1.01123046875,0.06298828125,-1.7089842557907104,-0.5187987685203552,0.7324218153953552,86.66667175292969,151933.0,1.0
18:17:58.053511,131614.046875,142762.46875,158230.421875,155595.328125,169595.125,167538.484375,686123.375,128317.2578125,0.052734375,1.00927734375,0.06396484375,-1.7395018339157104,-0.5798339247703552,0.7019042372703552,86.66667175292969,151934.0,1.0
18:17:58.061654,131601.984375,142740.578125,158226.484375,155596.765625,169591.984375,167532.0625,686016.125,128320.65625,0.05224609375,1.011962890625,0.0615234375,-1.8310545682907104,-0.7324218153953552,0.6713866591453552,86.66667175292969,151935.0,1.0
18:17:58.061676,131587.3125,142725.375,158207.265625,155582.984375,169569.640625,167511.484375,686048.0,128310.9140625,0.052490234375,1.0087890625,0.06103515625,-1.9836424589157104,-0.7629393935203552,0.6408690810203552,86.66667175292969,151936.0,1.0
18:17:58.064122,131607.609375,142757.734375,158216.03125,155588.71875,169574.28125,167521.421875,686151.5625,128312.875,0.05322265625,1.00830078125,0.06005859375,-1.8920897245407104,-0.7629393935203552,0.6408690810203552,86.66667175292969,151937.0,1.0
18:17:58.064145,131622.640625,142771.421875,158232.75,155603.109375,169594.234375,167539.921875,686172.5625,128319.40625,0.056396484375,1.00634765625,0.056884765625,-1.9226073026657104,-0.7934569716453552,0.4577636420726776,86.66667175292969,151938.0,1.0
18:17:58.075972,131606.265625,142747.28125,158228.453125,155602.390625,169592.890625,167535.1875,685999.3125,128321.4609375,0.05615234375,1.007568359375,0.060546875,-1.8920897245407104,-0.8544921278953552,0.3662109076976776,86.66667175292969,151939.0,1.0
18:17:58.080558,131578.734375,142715.53125,158200.109375,155581.734375,169561.328125,167500.765625,686039.5625,128305.8125,0.0576171875,1.005859375,0.0625,-1.8615721464157104,-0.8544921278953552,0.3356933295726776,86.66667175292969,151940.0,1.0
18:17:58.080645,131601.53125,142747.359375,158214.0625,155593.890625,169574.28125,167513.640625,686108.625,128315.828125,0.05712890625,1.004638671875,0.0576171875,-1.7700194120407104,-0.7629393935203552,0.2746581733226776,86.66667175292969,151941.0,1.0
18:17:58.086278,131614.046875,142763.375,158227.5625,155595.421875,169591.359375,167531.34375,686188.9375,128314.1328125,0.06005859375,1.0068359375,0.0595703125,-1.8005369901657104,-0.8239745497703552,0.2746581733226776,86.66667175292969,151942.0,1.0
18:17:58.090587,131606.1875,142748.171875,158231.9375,155599.4375,169598.875,167536.53125,685983.0,128321.1953125,0.05859375,1.005859375,0.05712890625,-1.6784666776657104,-0.7934569716453552,0.2746581733226776,86.66667175292969,151943.0,1.0
18:17:58.090667,131576.671875,142710.4375,158201.71875,155582.28125,169563.828125,167498.609375,686037.5625,128306.9765625,0.06005859375,1.005859375,0.05615234375,-1.5869139432907104,-0.7019042372703552,0.2746581733226776,86.66667175292969,151944.0,1.0
18:17:58.097176,131587.59375,142731.90625,158204.84375,155581.203125,169564.453125,167501.125,686078.125,128305.1015625,0.06201171875,1.0029296875,0.05810546875,-1.4648436307907104,-0.7324218153953552,0.2441406100988388,86.66667175292969,151945.0,1.0
18:17:58.104290,131603.6875,142757.109375,158214.234375,155582.625,169574.46875,167518.640625,686204.5625,128307.15625,0.06298828125,1.00390625,0.0576171875,-1.4038084745407104,-0.5798339247703552,0.3967284858226776,86.66667175292969,151946.0,1.0
18:17:58.104369,131600.46875,142748.171875,158222.734375,155590.59375,169590.46875,167530.890625,685997.6875,128320.4765625,0.063232421875,1.008056640625,0.054931640625,-1.2207030057907104,-0.4882812201976776,0.3967284858226776,86.66667175292969,151947.0,1.0
18:17:58.110377,131581.328125,142718.671875,158206.90625,155587.90625,169570.53125,167505.40625,686039.375,128318.5078125,0.064208984375,1.00830078125,0.057373046875,-1.0986326932907104,-0.4577636420726776,0.3662109076976776,86.66667175292969,151948.0,1.0
18:17:58.110458,131580.609375,142725.90625,158200.828125,155577.71875,169561.59375,167498.53125,686076.1875,128302.234375,0.063720703125,1.008056640625,0.058837890625,-1.0375975370407104,-0.3356933295726776,0.4577636420726776,86.66667175292969,151949.0,1.0
18:17:58.112404,131601.984375,142752.46875,158216.734375,155585.671875,169577.78125,167513.28125,686216.3125,128304.4765625,0.064208984375,1.0078125,0.055908203125,-0.9460448622703552,-0.1831054538488388,0.4272460639476776,86.66667175292969,151950.0,1.0
18:17:58.134758,131614.671875,142764.0,158242.671875,155601.5,169609.0625,167544.65625,686032.75,128320.1171875,0.064453125,1.006591796875,0.0576171875,-0.9765624403953552,-0.0915527269244194,0.5187987685203552,86.66667175292969,151951.0,1.0
18:17:58.140334,131601.09375,142737.703125,158231.671875,155606.328125,169593.25,167525.265625,686030.6875,128328.4375,0.063720703125,1.006103515625,0.05517578125,-0.8544921278953552,0.0915527269244194,0.6408690810203552,86.66667175292969,151952.0,1.0
18:17:58.140429,131602.421875,142741.015625,158224.4375,155602.390625,169583.140625,167515.96875,686035.3125,128324.4140625,0.063232421875,1.0068359375,0.057861328125,-0.7324218153953552,0.2136230319738388,0.7019042372703552,86.66667175292969,151953.0,1.0
18:17:58.140461,131609.671875,142752.1875,158222.90625,155597.03125,169580.8125,167511.84375,686183.3125,128314.3046875,0.063232421875,1.008056640625,0.057861328125,-0.6103515028953552,0.1831054538488388,0.6713866591453552,86.66667175292969,151954.0,1.0
18:17:58.140769,131618.078125,142763.8125,158241.78125,155606.953125,169606.203125,167538.484375,686049.625,128327.359375,0.059814453125,1.009521484375,0.05517578125,-0.5798339247703552,0.3051757514476776,0.8239745497703552,86.66667175292969,151955.0,1.0
18:17:58.142925,131592.234375,142727.515625,158219.609375,155596.578125,169581.703125,167513.09375,685985.6875,128321.7265625,0.059326171875,1.010009765625,0.0556640625,-0.4577636420726776,0.3967284858226776,0.7629393935203552,86.66667175292969,151956.0,1.0
18:17:58.143012,131587.59375,142725.640625,158207.265625,155583.796875,169566.15625,167503.359375,686086.8125,128308.40625,0.05810546875,1.0126953125,0.0556640625,-0.3967284858226776,0.4882812201976776,0.8239745497703552,86.66667175292969,151957.0,1.0
18:17:58.148482,131608.515625,142754.15625,158218.4375,155590.671875,169575.1875,167513.546875,686196.625,128311.890625,0.05615234375,1.012939453125,0.0537109375,-0.4882812201976776,0.5187987685203552,0.7934569716453552,86.66667175292969,151958.0,1.0
18:17:58.153403,131616.90625,142761.40625,158235.421875,155599.703125,169596.90625,167532.859375,686118.0625,128323.0703125,0.055908203125,1.011474609375,0.056396484375,-0.5187987685203552,0.4577636420726776,0.7019042372703552,86.66667175292969,151959.0,1.0
18:17:58.153483,131598.046875,142734.578125,158225.6875,155595.78125,169585.90625,167520.25,685978.75,128313.328125,0.055419921875,1.013916015625,0.056396484375,-0.5798339247703552,0.4882812201976776,0.6713866591453552,86.66667175292969,151960.0,1.0
18:17:58.162190,131586.25,142723.3125,158209.953125,155585.5,169566.515625,167502.109375,686051.625,128301.7890625,0.055908203125,1.014404296875,0.055908203125,-0.5798339247703552,0.5187987685203552,0.6103515028953552,86.66667175292969,151961.0,1.0
18:17:58.170306,131607.34375,142753.453125,158220.140625,155591.03125,169574.640625,167513.28125,686146.625,128303.671875,0.056396484375,1.014892578125,0.0576171875,-0.6713866591453552,0.4882812201976776,0.5798339247703552,86.66667175292969,151962.0,1.0
18:17:58.170371,131626.5625,142777.5,158241.953125,155598.1875,169601.296875,167542.25,686160.875,128314.1328125,0.05712890625,1.01513671875,0.057373046875,-0.5493163466453552,0.5493163466453552,0.6408690810203552,86.66667175292969,151963.0,1.0
18:17:58.172122,131627.28125,142769.09375,158252.328125,155616.421875,169612.640625,167549.9375,685992.0625,128334.9609375,0.0576171875,1.014892578125,0.057373046875,-0.5493163466453552,0.5493163466453552,0.6408690810203552,86.66667175292969,151964.0,1.0
18:17:58.177353,131603.140625,142741.46875,158226.484375,155599.53125,169583.859375,167520.875,686054.9375,128320.390625,0.0556640625,1.014404296875,0.057373046875,-0.6408690810203552,0.5798339247703552,0.5798339247703552,86.66667175292969,151965.0,1.0
18:17:58.187751,131610.5625,142757.203125,158225.6875,155595.6875,169581.4375,167519.359375,686098.5625,128312.6953125,0.0537109375,1.013427734375,0.057373046875,-0.7324218153953552,0.6713866591453552,0.4882812201976776,86.66667175292969,151966.0,1.0
18:17:58.187766,131622.453125,142774.28125,158237.03125,155598.015625,169596.1875,167536.078125,686172.375,128317.3515625,0.05322265625,1.013916015625,0.057373046875,-0.8544921278953552,0.6103515028953552,0.3356933295726776,86.66667175292969,151967.0,1.0
18:17:58.190328,131611.90625,142760.6875,158240.171875,155599.4375,169604.15625,167542.96875,685953.4375,128320.65625,0.0517578125,1.01220703125,0.057373046875,-0.9155272841453552,0.4577636420726776,0.2746581733226776,86.66667175292969,151968.0,1.0
18:17:58.190363,131587.3125,142729.21875,158215.3125,155586.75,169574.46875,167510.59375,686052.6875,128309.75,0.05224609375,1.01513671875,0.0595703125,-0.9155272841453552,0.4577636420726776,0.2136230319738388,86.66667175292969,151969.0,1.0
18:17:58.199678,131599.125,142746.828125,158217.015625,155591.21875,169572.671875,167510.953125,686122.5625,128308.2265625,0.053955078125,1.0146484375,0.05810546875,-0.9460448622703552,0.4272460639476776,0.2746581733226776,86.66667175292969,151970.0,1.0
18:17:58.204119,131620.3125,142771.421875,158231.9375,155601.5,169589.21875,167529.90625,686206.75,128318.0625,0.05419921875,1.0126953125,0.057373046875,-0.9155272841453552,0.4577636420726776,0.2746581733226776,86.66667175292969,151971.0,1.0
18:17:58.204164,131613.609375,142763.453125,158239.984375,155599.890625,169603.703125,167544.296875,685995.25,128320.8359375,0.0537109375,1.012451171875,0.0537109375,-1.0681151151657104,0.3967284858226776,0.1525878757238388,86.66667175292969,151972.0,1.0
18:17:58.214200,131595.359375,142735.828125,158222.90625,155599.984375,169581.078125,167521.140625,686031.1875,128324.3203125,0.05615234375,1.012451171875,0.051513671875,-1.0986326932907104,0.3051757514476776,0.3662109076976776,86.66667175292969,151973.0,1.0
18:17:58.214278,131600.734375,142749.25,158220.3125,155595.953125,169575.8125,167519.09375,686086.3125,128320.03125,0.0546875,1.01220703125,0.05517578125,-1.0986326932907104,0.3356933295726776,0.3662109076976776,86.66667175292969,151974.0,1.0
18:17:58.216657,131616.375,142770.96875,158229.609375,155598.8125,169586.265625,167527.9375,686207.25,128314.1328125,0.05322265625,1.012939453125,0.058837890625,-1.1291502714157104,0.2746581733226776,0.3356933295726776,86.66667175292969,151975.0,1.0
18:17:58.216731,131617.890625,142770.34375,158244.28125,155604.8125,169608.265625,167544.921875,686027.9375,128324.859375,0.052490234375,1.012451171875,0.05859375,-1.1901854276657104,0.2746581733226776,0.3967284858226776,86.66667175292969,151976.0,1.0
18:17:58.227192,131592.328125,142732.609375,158222.1875,155594.171875,169581.703125,167515.609375,686022.1875,128318.953125,0.052001953125,1.012451171875,0.0595703125,-1.2207030057907104,0.1831054538488388,0.3967284858226776,86.66667175292969,151977.0,1.0
18:17:58.236042,131585.4375,142729.3125,158207.984375,155581.203125,169562.390625,167499.59375,686108.375,128300.625,0.052490234375,1.012451171875,0.056884765625,-1.3427733182907104,0.1831054538488388,0.5493163466453552,86.66667175292969,151978.0,1.0
18:17:58.236122,131600.375,142753.796875,158212.890625,155580.9375,169564.71875,167507.375,686199.9375,128294.9921875,0.049560546875,1.011474609375,0.060302734375,-1.3122557401657104,0.0610351525247097,0.6103515028953552,86.66667175292969,151979.0,1.0
18:17:58.259949,131620.125,142772.9375,158240.703125,155602.484375,169598.875,167542.78125,686067.8125,128316.8125,0.052978515625,1.012939453125,0.059326171875,-1.4953612089157104,0.0610351525247097,0.6408690810203552,86.66667175292969,151980.0,1.0
18:17:58.285332,131600.640625,142741.203125,158229.53125,155601.5,169587.609375,167524.28125,686004.5,128322.0,0.0517578125,1.01171875,0.057373046875,-1.5563963651657104,-0.0915527269244194,0.6713866591453552,86.66667175292969,151981.0,1.0
18:17:58.285349,131589.203125,142730.734375,158215.125,155588.984375,169572.328125,167505.40625,686111.625,128311.625,0.050537109375,1.00830078125,0.057373046875,-1.6479490995407104,-0.0610351525247097,0.7629393935203552,86.66667175292969,151982.0,1.0
18:17:58.310918,131606.90625,142756.21875,158222.734375,155593.71875,169576.703125,167511.671875,686199.125,128315.109375,0.051025390625,1.00830078125,0.056640625,-1.7395018339157104,-0.1525878757238388,0.8850097060203552,86.66667175292969,151983.0,1.0
18:17:58.310956,131618.96875,142770.703125,158239.546875,155600.6875,169596.015625,167535.453125,686123.5625,128321.90625,0.05126953125,1.010009765625,0.054443359375,-1.7089842557907104,-0.2136230319738388,0.8239745497703552,86.66667175292969,151984.0,1.0
18:17:58.310961,131600.015625,142740.84375,158228.359375,155594.609375,169583.140625,167521.421875,685987.25,128313.7734375,0.05322265625,1.01025390625,0.06005859375,-1.7089842557907104,-0.2441406100988388,0.9460448622703552,86.66667175292969,151985.0,1.0
18:17:58.321122,131589.546875,142729.9375,158215.40625,155591.75,169567.5,167505.40625,686087.125,128316.453125,0.053466796875,1.00830078125,0.057861328125,-1.7395018339157104,-0.3662109076976776,1.0070799589157104,86.66667175292969,151986.0,1.0
18:17:58.323436,131606.71875,142757.109375,158221.75,155593.546875,169572.765625,167513.1875,686163.375,128309.65625,0.052734375,1.00830078125,0.060302734375,-1.8615721464157104,-0.2746581733226776,0.9765624403953552,86.66667175292969,151987.0,1.0
18:17:58.325976,131613.0625,142765.34375,158231.5,155594.96875,169589.046875,167528.921875,686155.125,128310.8203125,0.052001953125,1.008544921875,0.059326171875,-1.8005369901657104,-0.2746581733226776,1.0681151151657104,86.66667175292969,151988.0,1.0
18:17:58.333480,131613.6875,142759.078125,158243.921875,155611.15625,169604.328125,167540.28125,685972.625,128330.8515625,0.052734375,1.007080078125,0.059326171875,-1.7089842557907104,-0.3662109076976776,1.0375975370407104,86.66667175292969,151989.0,1.0
18:17:58.335936,131598.765625,142740.03125,158226.390625,155600.328125,169582.15625,167518.640625,686090.75,128320.921875,0.05126953125,1.007080078125,0.058349609375,-1.6479490995407104,-0.3967284858226776,0.9765624403953552,86.66667175292969,151990.0,1.0
18:17:58.338369,131605.5625,142757.734375,158223.265625,155593.71875,169576.078125,167519.09375,686166.5625,128310.734375,0.052490234375,1.0087890625,0.057373046875,-1.5869139432907104,-0.3967284858226776,1.0375975370407104,86.66667175292969,151991.0,1.0
18:17:58.344604,131623.890625,142778.390625,158237.484375,155602.21875,169592.34375,167537.6875,686192.0625,128317.4375,0.053466796875,1.010009765625,0.0595703125,-1.6174315214157104,-0.4272460639476776,1.0681151151657104,86.66667175292969,151992.0,1.0
18:17:58.347122,131616.109375,142767.21875,158243.734375,155606.234375,169602.984375,167546.625,685980.375,128323.9609375,0.052490234375,1.0107421875,0.06298828125,-1.5869139432907104,-0.5187987685203552,0.9460448622703552,86.66667175292969,151993.0,1.0
18:17:58.349603,131593.125,142735.828125,158220.9375,155594.34375,169577.78125,167515.875,686064.625,128316.09375,0.053466796875,1.008544921875,0.059326171875,-1.5563963651657104,-0.4882812201976776,0.9765624403953552,86.66667175292969,151994.0,1.0
18:17:58.354650,131602.609375,142755.140625,158223.890625,155595.5,169577.78125,167518.375,686132.0625,128314.3046875,0.05419921875,1.01025390625,0.06005859375,-1.5869139432907104,-0.5493163466453552,0.9155272841453552,86.66667175292969,151995.0,1.0
18:17:58.357096,131617.0,142773.921875,158231.9375,155598.28125,169586.8125,167530.265625,686205.125,128314.7578125,0.0556640625,1.011474609375,0.0615234375,-1.5563963651657104,-0.6408690810203552,1.0070799589157104,86.66667175292969,151996.0,1.0
18:17:58.359617,131614.671875,142764.0,158241.5,155604.625,169603.609375,167541.171875,685998.875,128325.3046875,0.0576171875,1.01220703125,0.060302734375,-1.6174315214157104,-0.6408690810203552,1.0681151151657104,86.66667175292969,151997.0,1.0
18:17:58.362105,131590.0,142726.53125,158218.078125,155596.84375,169574.46875,167507.375,686031.9375,128321.3671875,0.058349609375,1.011962890625,0.059326171875,-1.6479490995407104,-0.5187987685203552,1.0375975370407104,86.66667175292969,151998.0,1.0
18:17:58.364603,131598.5,142744.140625,158220.234375,155595.5,169573.65625,167510.328125,686120.5625,128318.6015625,0.060546875,1.00927734375,0.059814453125,-1.6784666776657104,-0.5493163466453552,1.0681151151657104,86.66667175292969,151999.0,1.0
18:17:58.367306,131627.375,142780.796875,158242.125,155610.890625,169596.1875,167533.3125,686222.125,128332.6328125,0.0595703125,1.009521484375,0.057861328125,-1.5869139432907104,-0.5187987685203552,1.0986326932907104,86.66667175292969,152000.0,1.0
18:17:58.369625,131629.96875,142784.5625,158255.984375,155617.6875,169618.453125,167556.640625,686045.4375,128346.140625,0.061279296875,1.0087890625,0.0595703125,-1.6479490995407104,-0.3967284858226776,1.0681151151657104,86.66667175292969,152001.0,1.0
18:17:58.372135,131598.578125,142739.859375,158227.296875,155603.546875,169585.015625,167522.125,686015.1875,128326.1953125,0.06396484375,1.01025390625,0.05810546875,-1.6784666776657104,-0.3662109076976776,1.0986326932907104,86.66667175292969,152002.0,1.0
18:17:58.374615,131590.359375,142735.03125,158212.1875,155588.4375,169566.78125,167504.703125,686121.875,128305.3671875,0.063720703125,1.012451171875,0.05908203125,-1.6174315214157104,-0.1831054538488388,1.0070799589157104,86.66667175292969,152003.0,1.0
18:17:58.377739,131612.171875,142766.671875,158224.703125,155599.53125,169578.3125,167521.6875,686213.0,128310.4609375,0.06640625,1.010986328125,0.06005859375,-1.6479490995407104,-0.0915527269244194,1.0070799589157104,86.66667175292969,152004.0,1.0
18:17:58.377749,131621.296875,142777.140625,158243.03125,155607.40625,169603.609375,167548.140625,686086.3125,128321.1015625,0.06298828125,1.01025390625,0.064208984375,-1.6784666776657104,-0.03051757626235485,0.9765624403953552,86.66667175292969,152005.0,1.0
18:17:58.379683,131592.5,142735.828125,158221.65625,155593.265625,169581.171875,167520.875,686003.4375,128313.4140625,0.06201171875,1.009033203125,0.0595703125,-1.6174315214157104,0.0915527269244194,1.0681151151657104,86.66667175292969,152006.0,1.0
18:17:58.382115,131586.0625,142730.640625,158212.09375,155587.90625,169570.265625,167509.34375,686082.875,128310.4609375,0.0615234375,1.007568359375,0.05615234375,-1.4953612089157104,0.1831054538488388,1.0375975370407104,86.66667175292969,152007.0,1.0
18:17:58.384608,131602.609375,142756.671875,158218.890625,155590.40625,169575.453125,167518.015625,686168.8125,128308.765625,0.061279296875,1.007080078125,0.057373046875,-1.4648436307907104,0.3051757514476776,0.9155272841453552,86.66667175292969,152008.0,1.0
18:17:58.387739,131616.640625,142772.40625,158238.28125,155599.796875,169601.109375,167542.6875,686120.0,128320.921875,0.061279296875,1.0078125,0.05908203125,-1.4648436307907104,0.4272460639476776,0.9155272841453552,86.66667175292969,152009.0,1.0
18:17:58.388068,131597.953125,142743.4375,158228.546875,155597.5625,169591.28125,167528.390625,685986.875,128326.375,0.061279296875,1.0107421875,0.06005859375,-1.4038084745407104,0.4882812201976776,0.9460448622703552,86.66667175292969,152010.0,1.0
18:17:58.389717,131579.625,142720.71875,158208.34375,155587.1875,169566.421875,167501.203125,686097.625,128314.578125,0.0615234375,1.0107421875,0.0576171875,-1.4038084745407104,0.4577636420726776,0.7934569716453552,86.66667175292969,152011.0,1.0
18:17:58.392700,131592.6875,142743.4375,158209.859375,155585.140625,169565.53125,167503.890625,686149.25,128306.53125,0.060791015625,1.010498046875,0.05810546875,-1.5563963651657104,0.5798339247703552,0.7934569716453552,86.66667175292969,152012.0,1.0
18:17:58.392708,131607.078125,142762.5625,158223.09375,155589.421875,169581.796875,167526.421875,686149.75,128306.2578125,0.06005859375,1.0107421875,0.05908203125,-1.4343260526657104,0.7324218153953552,0.6713866591453552,86.66667175292969,152013.0,1.0
18:17:58.395822,131601.984375,142750.671875,158229.796875,155599.703125,169590.921875,167533.65625,685977.3125,128320.5625,0.0595703125,1.009033203125,0.06005859375,-1.3122557401657104,0.7934569716453552,0.6713866591453552,86.66667175292969,152014.0,1.0
18:17:58.395831,131586.875,142729.21875,158214.421875,155592.640625,169571.96875,167509.609375,686083.9375,128316.09375,0.059814453125,1.011962890625,0.06103515625,-1.3732908964157104,0.8239745497703552,0.6103515028953552,86.66667175292969,152015.0,1.0
18:17:58.395835,131598.9375,142749.78125,158217.8125,155592.734375,169573.75,167509.875,686147.5625,128317.171875,0.058837890625,1.010986328125,0.060302734375,-1.3427733182907104,0.7934569716453552,0.7629393935203552,86.66667175292969,152016.0,1.0
18:17:58.398420,131615.75,142771.953125,158232.484375,155600.6875,169589.671875,167529.546875,686200.0,128323.515625,0.054931640625,1.0087890625,0.060791015625,-1.4648436307907104,0.8239745497703552,0.6103515028953552,86.66667175292969,152017.0,1.0
18:17:58.401454,131600.375,142745.21875,158228.90625,155598.640625,169589.125,167524.546875,685996.875,128316.546875,0.057373046875,1.010986328125,0.062255859375,-1.4038084745407104,0.8544921278953552,0.5493163466453552,86.66667175292969,152018.0,1.0
18:17:58.401460,131566.671875,142706.15625,158195.28125,155573.421875,169549.4375,167486.015625,686072.5,128294.1875,0.05712890625,1.01123046875,0.060546875,-1.4038084745407104,0.8850097060203552,0.5187987685203552,86.66667175292969,152019.0,1.0
18:17:58.403980,131577.21875,142726.0,158198.0625,155575.03125,169551.046875,167489.859375,686121.3125,128295.3515625,0.056640625,1.01025390625,0.06103515625,-1.4038084745407104,0.7629393935203552,0.4882812201976776,86.66667175292969,152020.0,1.0
18:17:58.403984,131600.734375,142753.71875,158214.5,155585.765625,169568.296875,167510.0625,686213.4375,128304.828125,0.056640625,1.008544921875,0.060546875,-1.4343260526657104,0.7324218153953552,0.5187987685203552,86.66667175292969,152021.0,1.0
18:17:58.409621,131602.34375,142754.78125,158228.546875,155593.71875,169586.265625,167530.453125,686017.8125,128311.4453125,0.05517578125,1.009765625,0.05908203125,-1.3732908964157104,0.7019042372703552,0.5493163466453552,86.66667175292969,152022.0,1.0
18:17:58.412156,131579.984375,142721.890625,158206.015625,155585.84375,169559.359375,167500.5,686042.3125,128304.921875,0.05224609375,1.00927734375,0.061279296875,-1.3122557401657104,0.6103515028953552,0.5493163466453552,86.66667175292969,152023.0,1.0
18:17:58.414599,131581.953125,142731.90625,158200.5625,155577.984375,169553.28125,167497.28125,686069.75,128297.0546875,0.052490234375,1.010009765625,0.06103515625,-1.3732908964157104,0.4882812201976776,0.5798339247703552,86.66667175292969,152024.0,1.0
18:17:58.417102,131593.046875,142749.78125,158205.296875,155577.71875,169558.640625,167502.546875,686197.625,128297.234375,0.052001953125,1.009765625,0.060791015625,-1.4953612089157104,0.4882812201976776,0.7324218153953552,86.66667175292969,152025.0,1.0
18:17:58.420220,131603.40625,142758.09375,158228.71875,155594.96875,169587.34375,167529.28125,686045.0625,128313.59375,0.05224609375,1.010498046875,0.06005859375,-1.4648436307907104,0.4272460639476776,0.6103515028953552,86.66667175292969,152026.0,1.0
18:17:58.420226,131582.3125,142727.703125,158211.375,155586.390625,169566.59375,167506.75,686018.5,128307.6953125,0.052734375,1.009521484375,0.06103515625,-1.4343260526657104,0.3967284858226776,0.6713866591453552,86.66667175292969,152027.0,1.0
18:17:58.429651,131582.21875,142730.203125,158203.328125,155579.6875,169556.3125,167499.78125,686072.875,128299.734375,0.051513671875,1.01025390625,0.06103515625,-1.4343260526657104,0.3662109076976776,0.7019042372703552,86.66667175292969,152028.0,1.0
18:17:58.434113,131602.515625,142757.828125,158212.546875,155586.03125,169564.1875,167511.046875,686191.8125,128306.3515625,0.0517578125,1.009033203125,0.060546875,-1.4038084745407104,0.3051757514476776,0.7019042372703552,86.66667175292969,152029.0,1.0
18:17:58.434137,131609.578125,142763.1875,158229.796875,155595.78125,169589.046875,167532.0625,686089.875,128321.640625,0.053466796875,1.009521484375,0.060546875,-1.3427733182907104,0.1831054538488388,0.8544921278953552,86.66667175292969,152030.0,1.0
18:17:58.440894,131580.875,142723.21875,158207.984375,155581.921875,169565.4375,167503.625,686013.0,128305.9921875,0.053466796875,1.009765625,0.059326171875,-1.3427733182907104,0.1831054538488388,0.7629393935203552,86.66667175292969,152031.0,1.0
18:17:58.453372,131570.953125,142716.078125,158191.890625,155570.65625,169544.609375,167487.4375,686081.8125,128287.7578125,0.0537109375,1.0078125,0.06005859375,-1.2817381620407104,0.03051757626235485,0.8544921278953552,86.66667175292969,152032.0,1.0
18:17:58.453418,131588.125,142743.25,158200.015625,155574.59375,169552.03125,167498.53125,686186.25,128287.484375,0.05419921875,1.01025390625,0.06005859375,-1.2207030057907104,0.03051757626235485,0.8850097060203552,86.66667175292969,152033.0,1.0
18:17:58.453432,131607.4375,142764.265625,158225.859375,155588.796875,169585.640625,167530.359375,686145.5,128303.578125,0.053955078125,1.0087890625,0.05908203125,-1.3427733182907104,-0.0915527269244194,0.9460448622703552,86.66667175292969,152034.0,1.0
18:17:58.456460,131579.09375,142728.953125,158207.359375,155576.90625,169566.875,167510.59375,685996.4375,128293.921875,0.053466796875,1.010498046875,0.06201171875,-1.2817381620407104,-0.2136230319738388,1.0375975370407104,86.66667175292969,152035.0,1.0
18:17:58.456468,131558.4375,142707.21875,158184.46875,155562.421875,169540.3125,167483.328125,686063.5,128282.8359375,0.05322265625,1.01025390625,0.061767578125,-1.2207030057907104,-0.3356933295726776,1.0070799589157104,86.66667175292969,152036.0,1.0
18:17:58.465927,131571.5,142726.53125,158186.703125,155561.359375,169539.59375,167482.875,686157.8125,128279.9765625,0.052001953125,1.01123046875,0.059326171875,-1.2207030057907104,-0.3356933295726776,0.9460448622703552,86.66667175292969,152037.0,1.0
18:17:58.468981,131583.109375,142740.296875,158199.03125,155566.265625,169556.046875,167499.59375,686164.375,128286.1484375,0.05419921875,1.01025390625,0.0576171875,-1.2512205839157104,-0.4272460639476776,0.9460448622703552,86.66667175292969,152038.0,1.0
18:17:58.468990,131567.203125,142717.234375,158195.015625,155564.21875,169554.0,167494.6875,685975.8125,128288.109375,0.056640625,1.011962890625,0.060546875,-1.3122557401657104,-0.3967284858226776,0.9765624403953552,86.66667175292969,152039.0,1.0
18:17:58.475952,131539.484375,142682.640625,158164.703125,155547.140625,169519.125,167457.9375,686054.3125,128271.8359375,0.056640625,1.0146484375,0.060302734375,-1.3122557401657104,-0.3662109076976776,1.1596678495407104,86.66667175292969,152040.0,1.0
18:17:58.486485,131558.984375,142711.15625,158175.4375,155555.8125,169526.90625,167467.859375,686106.125,128281.2265625,0.060302734375,1.01318359375,0.060302734375,-1.3122557401657104,-0.4577636420726776,1.2207030057907104,86.66667175292969,152041.0,1.0
18:17:58.486512,131579.265625,142737.265625,158193.9375,155562.875,169546.578125,167492.8125,686191.0625,128281.046875,0.0595703125,1.011474609375,0.058349609375,-1.2817381620407104,-0.4272460639476776,1.1901854276657104,86.66667175292969,152042.0,1.0
18:17:58.490954,131578.5625,142731.0,158206.640625,155572.078125,169564.28125,167507.828125,685999.9375,128289.9921875,0.06005859375,1.01123046875,0.06005859375,-1.1901854276657104,-0.3662109076976776,1.2817381620407104,86.66667175292969,152043.0,1.0
18:17:58.493458,131558.890625,142700.96875,158187.859375,155565.28125,169542.640625,167479.9375,686038.8125,128286.3203125,0.061279296875,1.0107421875,0.059326171875,-1.1596678495407104,-0.3967284858226776,1.2512205839157104,86.66667175292969,152044.0,1.0
18:17:58.497765,131578.109375,142729.578125,158198.765625,155571.90625,169551.84375,167491.546875,686080.5,128290.5234375,0.0625,1.00927734375,0.057373046875,-1.0375975370407104,-0.3662109076976776,1.2512205839157104,86.66667175292969,152045.0,1.0
18:17:58.497824,131595.90625,142751.5625,158210.21875,155581.375,169564.09375,167504.78125,686217.25,128297.9453125,0.06298828125,1.010986328125,0.056884765625,-0.9460448622703552,-0.3356933295726776,1.2207030057907104,86.66667175292969,152046.0,1.0
18:17:58.507217,131591.078125,142745.046875,158219.421875,155583.609375,169580.8125,167519.984375,686025.9375,128305.1875,0.0625,1.01220703125,0.05615234375,-1.0070799589157104,-0.1831054538488388,1.2207030057907104,86.66667175292969,152047.0,1.0
18:17:58.510240,131558.796875,142703.28125,158188.9375,155564.03125,169544.96875,167483.78125,686051.0,128287.484375,0.062255859375,1.01171875,0.0546875,-1.0681151151657104,-0.1220703050494194,1.2512205839157104,86.66667175292969,152048.0,1.0
18:17:58.510247,131570.515625,142717.0625,158190.984375,155568.6875,169543.171875,167483.0625,686075.1875,128291.5078125,0.0615234375,1.009765625,0.057373046875,-1.0070799589157104,-0.0610351525247097,1.1596678495407104,86.66667175292969,152049.0,1.0
18:17:58.514630,131592.328125,142744.234375,158203.859375,155575.484375,169555.6875,167497.546875,686224.875,128295.53125,0.0615234375,1.009033203125,0.058349609375,-0.9155272841453552,0.0610351525247097,1.2207030057907104,86.66667175292969,152050.0,1.0
18:17:58.524819,131595.984375,142747.09375,158218.078125,155580.75,169577.5,167520.15625,686067.8125,128305.9921875,0.062744140625,1.0068359375,0.05908203125,-0.9155272841453552,0.03051757626235485,1.1596678495407104,86.66667175292969,152051.0,1.0
18:17:58.527789,131576.765625,142718.3125,158203.328125,155577.171875,169559.984375,167499.875,686040.0625,128307.6015625,0.06201171875,1.006591796875,0.060302734375,-0.9155272841453552,0.0,1.0681151151657104,86.66667175292969,152052.0,1.0
18:17:58.527854,131573.453125,142723.046875,158196.171875,155571.1875,169550.234375,167492.265625,686060.75,128296.4296875,0.060791015625,1.007080078125,0.06103515625,-0.9765624403953552,0.1831054538488388,1.0070799589157104,86.66667175292969,152053.0,1.0
18:17:58.530947,131591.875,142749.25,158205.203125,155576.546875,169557.21875,167500.765625,686201.25,128294.90625,0.0615234375,1.0068359375,0.061279296875,-0.9765624403953552,0.2136230319738388,0.9460448622703552,86.66667175292969,152054.0,1.0
18:17:58.541614,131612.4375,142768.28125,158232.125,155595.328125,169588.421875,167533.578125,686119.375,128316.8984375,0.0634765625,1.0048828125,0.056640625,-0.8850097060203552,0.2441406100988388,1.0070799589157104,86.66667175292969,152055.0,1.0
18:17:58.541685,131593.484375,142737.53125,158219.25,155592.5625,169571.421875,167515.15625,686033.625,128312.34375,0.06591796875,1.00732421875,0.055419921875,-0.9155272841453552,0.3356933295726776,0.9765624403953552,86.66667175292969,152056.0,1.0
18:17:58.551629,131572.828125,142716.703125,158193.9375,155571.90625,169542.453125,167487.53125,686044.4375,128291.6875,0.06884765625,1.00830078125,0.05615234375,-0.8850097060203552,0.4577636420726776,0.9765624403953552,86.66667175292969,152057.0,1.0
18:17:58.551689,131593.125,142747.640625,158203.59375,155576.90625,169549.703125,167497.09375,686172.1875,128292.40625,0.070556640625,1.008544921875,0.0556640625,-0.8544921278953552,0.5798339247703552,1.0375975370407104,86.66667175292969,152058.0,1.0
18:17:58.566531,131605.015625,142760.78125,158221.65625,155583.171875,169573.75,167517.921875,686165.4375,128304.0234375,0.068359375,1.0107421875,0.055908203125,-0.7629393935203552,0.6103515028953552,1.1596678495407104,86.66667175292969,152059.0,1.0
18:17:58.566607,131588.03125,142736.453125,158216.921875,155584.0625,169570.53125,167511.40625,686013.9375,128307.421875,0.06640625,1.01123046875,0.054931640625,-0.7629393935203552,0.8239745497703552,1.2512205839157104,86.66667175292969,152060.0,1.0
18:17:58.566636,131573.28125,142717.59375,158200.203125,155576.734375,169549.875,167487.796875,686060.5625,128303.21875,0.06591796875,1.0107421875,0.0546875,-0.7324218153953552,0.9155272841453552,1.2817381620407104,86.66667175292969,152061.0,1.0
18:17:58.569653,131597.78125,142752.1875,158213.25,155586.390625,169559.359375,167502.46875,686147.0,128312.5234375,0.0634765625,1.01171875,0.055908203125,-0.7324218153953552,0.9155272841453552,1.2817381620407104,86.66667175292969,152062.0,1.0
18:17:58.569698,131611.640625,142766.234375,158226.671875,155592.375,169574.734375,167519.71875,686189.375,128314.9375,0.061279296875,1.011962890625,0.052978515625,-0.6408690810203552,0.9155272841453552,1.1596678495407104,86.66667175292969,152063.0,1.0
18:17:58.569714,131595.984375,142743.796875,158220.9375,155586.828125,169571.96875,167515.515625,685997.125,128310.28125,0.059326171875,1.014892578125,0.0546875,-0.7629393935203552,0.9460448622703552,1.0681151151657104,86.66667175292969,152064.0,1.0
18:17:58.572141,131573.734375,142715.8125,158199.21875,155572.984375,169547.015625,167486.8125,686047.875,128301.1640625,0.05859375,1.015869140625,0.0556640625,-0.8239745497703552,0.9460448622703552,1.0070799589157104,86.66667175292969,152065.0,1.0
18:17:58.575907,131580.171875,142729.84375,158198.59375,155569.125,169544.15625,167484.40625,686094.9375,128292.2265625,0.0595703125,1.01611328125,0.05859375,-0.9765624403953552,0.8850097060203552,0.8850097060203552,86.66667175292969,152066.0,1.0
18:17:58.601530,131592.59375,142746.921875,158207.265625,155572.4375,169555.25,167498.53125,686206.0,128294.546875,0.058349609375,1.01611328125,0.060302734375,-1.1596678495407104,0.9460448622703552,0.6713866591453552,86.66667175292969,152067.0,1.0
18:17:58.601589,131591.96875,142742.984375,158218.0,155581.109375,169570.53125,167514.796875,686011.5625,128305.9921875,0.057373046875,1.015625,0.05908203125,-1.1901854276657104,0.8544921278953552,0.5187987685203552,86.66667175292969,152068.0,1.0
18:17:58.604112,131563.171875,142706.59375,158189.109375,155562.15625,169537.359375,167481.546875,686039.8125,128285.0703125,0.057373046875,1.0146484375,0.0595703125,-1.2207030057907104,0.7324218153953552,0.4272460639476776,86.66667175292969,152069.0,1.0
18:17:58.604182,131577.84375,142728.234375,158197.078125,155568.328125,169543.265625,167485.46875,686061.1875,128286.859375,0.058349609375,1.012939453125,0.060546875,-1.2817381620407104,0.7019042372703552,0.3662109076976776,86.66667175292969,152070.0,1.0
18:17:58.653536,131601.796875,142757.734375,158215.671875,155577.890625,169563.921875,167507.828125,686225.5,128294.546875,0.057861328125,1.012939453125,0.05908203125,-1.3122557401657104,0.6103515028953552,0.3662109076976776,86.66667175292969,152071.0,1.0
18:17:58.653577,131607.703125,142764.265625,158234.796875,155587.375,169589.75,167535.359375,686037.0,128306.53125,0.05908203125,1.01123046875,0.059326171875,-1.4038084745407104,0.6103515028953552,0.3051757514476776,86.66667175292969,152072.0,1.0
18:17:58.653597,131577.9375,142723.40625,158207.359375,155572.984375,169559.171875,167498.890625,686045.25,128296.6953125,0.0595703125,1.009765625,0.0595703125,-1.4648436307907104,0.5798339247703552,0.2746581733226776,86.66667175292969,152073.0,1.0
18:17:58.666527,131585.4375,142733.15625,158207.171875,155576.828125,169555.953125,167495.84375,686073.3125,128300.453125,0.058349609375,1.008544921875,0.059326171875,-1.3732908964157104,0.5493163466453552,0.2746581733226776,86.66667175292969,152074.0,1.0
18:17:58.666568,131609.84375,142762.03125,158221.125,155586.203125,169566.953125,167510.0625,686226.75,128303.3125,0.058837890625,1.010009765625,0.060546875,-1.4038084745407104,0.4577636420726776,0.3051757514476776,86.66667175292969,152075.0,1.0
18:17:58.669058,131612.796875,142762.75,158233.640625,155594.34375,169584.75,167528.203125,686063.875,128311.359375,0.05859375,1.00927734375,0.060791015625,-1.2817381620407104,0.4577636420726776,0.3051757514476776,86.66667175292969,152076.0,1.0
18:17:58.669139,131578.109375,142716.96875,158203.78125,155576.28125,169553.28125,167490.5625,686017.625,128301.2578125,0.056396484375,1.0068359375,0.061279296875,-1.2817381620407104,0.3662109076976776,0.3356933295726776,86.66667175292969,152077.0,1.0
18:17:58.671113,131567.828125,142710.984375,158189.828125,155562.875,169536.375,167474.203125,686084.5,128286.0546875,0.05615234375,1.007568359375,0.062744140625,-1.2817381620407104,0.3051757514476776,0.5493163466453552,86.66667175292969,152078.0,1.0
18:17:58.673938,131590.890625,142743.796875,158204.21875,155573.875,169551.125,167490.484375,686216.1875,128293.8359375,0.053955078125,1.01171875,0.062744140625,-1.2817381620407104,0.1831054538488388,0.5187987685203552,86.66667175292969,152079.0,1.0
18:17:58.675895,131608.59375,142761.40625,158229.171875,155590.40625,169583.5,167522.84375,686115.625,128312.34375,0.0556640625,1.0087890625,0.0634765625,-1.3732908964157104,0.1525878757238388,0.6713866591453552,86.66667175292969,152080.0,1.0
18:17:58.678397,131589.734375,142732.171875,158218.4375,155586.296875,169572.234375,167506.84375,686018.9375,128314.84375,0.055419921875,1.009521484375,0.061279296875,-1.3427733182907104,0.1525878757238388,0.7019042372703552,86.66667175292969,152081.0,1.0
18:17:58.684633,131582.578125,142725.640625,158209.5,155585.40625,169560.4375,167494.953125,686043.375,128318.8671875,0.054443359375,1.0126953125,0.060302734375,-1.4343260526657104,0.0,0.8239745497703552,86.66667175292969,152082.0,1.0
18:17:58.687197,131592.6875,142743.078125,158208.421875,155579.59375,169557.03125,167494.0625,686154.6875,128304.4765625,0.053466796875,1.014404296875,0.0625,-1.4953612089157104,-0.0610351525247097,0.7934569716453552,86.66667175292969,152083.0,1.0
18:17:58.689633,131606.546875,142758.453125,158226.21875,155586.296875,169579.03125,167517.296875,686149.5625,128307.421875,0.05322265625,1.014892578125,0.061279296875,-1.5258787870407104,-0.1525878757238388,0.8544921278953552,86.66667175292969,152084.0,1.0
18:17:58.692210,131595.453125,142740.390625,158224.78125,155592.375,169578.484375,167514.796875,685995.0,128318.15625,0.05322265625,1.01318359375,0.0625,-1.5869139432907104,-0.2136230319738388,0.8239745497703552,86.66667175292969,152085.0,1.0
18:17:58.694654,131571.578125,142714.203125,158199.9375,155571.546875,169550.59375,167484.046875,686058.3125,128301.609375,0.052978515625,1.013671875,0.062255859375,-1.5563963651657104,-0.2441406100988388,0.7629393935203552,86.66667175292969,152086.0,1.0
18:17:58.697223,131585.984375,142737.4375,158204.671875,155572.890625,169553.90625,167487.796875,686139.875,128297.9453125,0.052734375,1.01123046875,0.0634765625,-1.6784666776657104,-0.3967284858226776,0.8850097060203552,86.66667175292969,152087.0,1.0
18:17:58.699733,131598.9375,142753.265625,158218.4375,155578.609375,169570.53125,167506.03125,686180.0625,128300.71875,0.053955078125,1.01171875,0.06201171875,-1.7700194120407104,-0.5187987685203552,0.8239745497703552,86.66667175292969,152088.0,1.0
18:17:58.702254,131588.03125,142735.390625,158220.578125,155580.84375,169574.921875,167507.640625,685981.75,128308.5,0.0556640625,1.01123046875,0.061767578125,-1.7700194120407104,-0.5798339247703552,0.8544921278953552,86.66667175292969,152089.0,1.0
18:17:58.704667,131565.0625,142704.546875,158195.90625,155570.203125,169545.671875,167476.359375,686043.3125,128299.1953125,0.0556640625,1.010009765625,0.06298828125,-1.7700194120407104,-0.6713866591453552,0.8239745497703552,86.66667175292969,152090.0,1.0
18:17:58.708364,131574.0,142721.96875,158195.734375,155569.765625,169542.28125,167476.359375,686103.0,128295.53125,0.05712890625,1.008056640625,0.0634765625,-1.7700194120407104,-0.7629393935203552,0.8544921278953552,86.66667175292969,152091.0,1.0
18:17:58.708425,131588.21875,142742.1875,158204.140625,155569.046875,169550.421875,167493.15625,686198.75,128289.3671875,0.05810546875,1.007080078125,0.061767578125,-1.7395018339157104,-0.7324218153953552,0.7324218153953552,86.66667175292969,152092.0,1.0
18:17:58.708450,131583.5625,142733.859375,158211.203125,155568.859375,169562.484375,167506.3125,685993.5,128290.34375,0.0595703125,1.005859375,0.06103515625,-1.6479490995407104,-0.7934569716453552,0.6408690810203552,86.66667175292969,152093.0,1.0
18:17:58.710941,131568.71875,142709.453125,158197.609375,155568.234375,169545.5,167484.671875,686048.75,128295.53125,0.061279296875,1.005126953125,0.062255859375,-1.5563963651657104,-0.8239745497703552,0.4882812201976776,86.66667175292969,152094.0,1.0
18:17:58.714024,131581.859375,142730.109375,158204.9375,155574.046875,169551.40625,167489.9375,686081.8125,128301.8828125,0.0625,1.00634765625,0.06201171875,-1.4648436307907104,-0.7324218153953552,0.4882812201976776,86.66667175292969,152095.0,1.0
18:17:58.714066,131596.171875,142750.765625,158212.453125,155574.59375,169559.453125,167501.203125,686204.125,128297.3203125,0.061279296875,1.003662109375,0.060302734375,-1.3427733182907104,-0.6713866591453552,0.4882812201976776,86.66667175292969,152096.0,1.0
18:17:58.715953,131594.734375,142745.484375,158219.875,155580.9375,169572.140625,167514.984375,686005.4375,128304.921875,0.0615234375,1.003662109375,0.059814453125,-1.3122557401657104,-0.6408690810203552,0.5187987685203552,86.66667175292969,152097.0,1.0
18:17:58.719010,131560.5,142697.5625,158186.703125,155560.109375,169534.328125,167471.796875,686035.6875,128286.0546875,0.062744140625,1.004150390625,0.06005859375,-1.2207030057907104,-0.6103515028953552,0.5493163466453552,86.66667175292969,152098.0,1.0
18:17:58.719047,131564.078125,142706.0625,158186.96875,155558.9375,169536.203125,167469.828125,686103.875,128286.3203125,0.06396484375,1.00244140625,0.0615234375,-1.0986326932907104,-0.5187987685203552,0.5798339247703552,86.66667175292969,152099.0,1.0
18:17:58.720958,131590.8125,142740.390625,158206.640625,155573.78125,169556.859375,167490.921875,686217.75,128296.15625,0.06591796875,1.00390625,0.06396484375,-1.0070799589157104,-0.3967284858226776,0.6408690810203552,86.66667175292969,152100.0,1.0
18:17:58.723491,131585.796875,142735.921875,158210.65625,155570.203125,169566.25,167503.265625,686056.9375,128293.921875,0.06640625,1.002197265625,0.059326171875,-0.8850097060203552,-0.4272460639476776,0.6103515028953552,86.66667175292969,152101.0,1.0
18:17:58.727719,131565.59375,142705.078125,158194.390625,155566.265625,169545.765625,167480.5625,686022.0,128293.1171875,0.06689453125,1.00341796875,0.057373046875,-0.7019042372703552,-0.3967284858226776,0.7019042372703552,86.66667175292969,152102.0,1.0
18:17:58.727757,131562.734375,142704.984375,158188.046875,155559.828125,169539.421875,167470.90625,686101.6875,128289.2734375,0.067138671875,1.005126953125,0.056640625,-0.6713866591453552,-0.3356933295726776,0.7934569716453552,86.66667175292969,152103.0,1.0
18:17:58.733968,131591.078125,142741.375,158208.15625,155577.625,169558.46875,167490.390625,686204.75,128302.5078125,0.065673828125,1.0068359375,0.05908203125,-0.4577636420726776,-0.3051757514476776,0.8239745497703552,86.66667175292969,152104.0,1.0
18:17:58.733996,131610.5625,142761.5,158234.171875,155593.71875,169589.75,167522.75,686108.0,128323.0703125,0.064208984375,1.009033203125,0.056396484375,-0.3356933295726776,-0.0610351525247097,0.8544921278953552,86.66667175292969,152105.0,1.0
18:17:58.740899,131590.53125,142730.015625,158221.21875,155591.484375,169575.890625,167504.703125,685998.125,128326.734375,0.06396484375,1.009033203125,0.05517578125,-0.2441406100988388,0.1220703050494194,0.8850097060203552,86.66667175292969,152106.0,1.0
18:17:58.747727,131568.1875,142708.390625,158196.53125,155568.859375,169547.640625,167476.53125,686079.0625,128301.1640625,0.06494140625,1.009033203125,0.055908203125,-0.1525878757238388,0.0610351525247097,1.0375975370407104,86.66667175292969,152107.0,1.0
18:17:58.747766,131587.3125,142736.734375,158206.015625,155573.515625,169554.4375,167485.109375,686174.625,128300.71875,0.063232421875,1.00927734375,0.055419921875,-0.2746581733226776,0.1831054538488388,0.9765624403953552,86.66667175292969,152108.0,1.0
18:17:58.753992,131603.140625,142754.609375,158223.171875,155585.40625,169574.46875,167506.84375,686154.125,128308.765625,0.06298828125,1.009033203125,0.05517578125,-0.2441406100988388,0.2136230319738388,1.0070799589157104,86.66667175292969,152109.0,1.0
18:17:58.754033,131585.53125,142726.984375,158215.578125,155581.65625,169567.140625,167497.453125,685981.4375,128304.4765625,0.064453125,1.010498046875,0.054931640625,-0.1831054538488388,0.2441406100988388,0.9765624403953552,86.66667175292969,152110.0,1.0
18:17:58.759675,131570.328125,142708.46875,158198.140625,155572.4375,169545.859375,167476.078125,686063.3125,128297.0546875,0.064208984375,1.010498046875,0.055419921875,-0.1220703050494194,0.3356933295726776,1.0375975370407104,86.66667175292969,152111.0,1.0
18:17:58.766513,131587.671875,142739.234375,158203.78125,155571.546875,169548.359375,167486.640625,686135.75,128290.8828125,0.06298828125,1.009765625,0.0546875,-0.03051757626235485,0.5187987685203552,1.1291502714157104,86.66667175292969,152112.0,1.0
18:17:58.766552,131603.59375,142757.828125,158218.703125,155580.046875,169565.171875,167508.546875,686186.8125,128296.6953125,0.06396484375,1.009521484375,0.05517578125,0.03051757626235485,0.5493163466453552,1.0681151151657104,86.66667175292969,152113.0,1.0
18:17:58.775938,131591.703125,142736.8125,158218.078125,155580.578125,169566.875,167505.671875,685988.125,128300.8984375,0.0625,1.009765625,0.0546875,-0.0610351525247097,0.6713866591453552,0.9460448622703552,86.66667175292969,152114.0,1.0
18:17:58.779044,131575.15625,142712.3125,158199.9375,155574.59375,169544.609375,167479.296875,686076.875,128299.015625,0.06201171875,1.008544921875,0.053955078125,0.0,0.6103515028953552,0.9155272841453552,86.66667175292969,152115.0,1.0
18:17:58.779076,131582.84375,142729.484375,158200.203125,155572.265625,169545.046875,167479.21875,686131.625,128295.0859375,0.062255859375,1.0107421875,0.0546875,0.03051757626235485,0.6713866591453552,0.7934569716453552,86.66667175292969,152116.0,1.0
18:17:58.780904,131596.34375,142747.28125,158212.359375,155572.984375,169560.515625,167493.875,686206.25,128294.90625,0.062255859375,1.01220703125,0.05615234375,0.03051757626235485,0.6713866591453552,0.8239745497703552,86.66667175292969,152117.0,1.0
18:17:58.797242,131596.34375,142741.5625,158226.125,155583.609375,169579.390625,167508.890625,685997.9375,128311.8046875,0.062255859375,1.01318359375,0.054931640625,0.0915527269244194,0.7324218153953552,0.7629393935203552,86.66667175292969,152118.0,1.0
18:17:58.800829,131569.4375,142707.484375,158198.5,155566.265625,169546.84375,167478.046875,686054.1875,128294.1875,0.06201171875,1.013427734375,0.05419921875,0.1220703050494194,0.8239745497703552,0.6713866591453552,86.66667175292969,152119.0,1.0
18:17:58.800847,131578.921875,142725.8125,158199.125,155567.609375,169546.390625,167479.75,686085.0625,128290.171875,0.063232421875,1.014404296875,0.0546875,0.0915527269244194,0.9155272841453552,0.6713866591453552,86.66667175292969,152120.0,1.0
18:17:58.800854,131590.453125,142743.703125,158204.40625,155567.515625,169552.296875,167488.15625,686195.375,128287.9296875,0.062255859375,1.015380859375,0.053955078125,0.0,0.8544921278953552,0.6408690810203552,86.66667175292969,152121.0,1.0
18:17:58.808504,131589.640625,142739.234375,158216.296875,155574.234375,169571.078125,167505.5,686007.0,128303.21875,0.058837890625,1.01708984375,0.0546875,-0.03051757626235485,0.8239745497703552,0.6713866591453552,86.66667175292969,152122.0,1.0
18:17:58.810897,131558.984375,142694.96875,158188.9375,155563.765625,169539.59375,167467.234375,686027.5625,128294.3671875,0.05712890625,1.015625,0.0546875,-0.2136230319738388,0.9155272841453552,0.5493163466453552,86.66667175292969,152123.0,1.0
18:17:58.813406,131562.734375,142706.59375,158184.109375,155558.9375,169532.53125,167465.171875,686103.0,128285.34375,0.055908203125,1.013671875,0.053466796875,-0.1831054538488388,0.8850097060203552,0.4882812201976776,86.66667175292969,152124.0,1.0
18:17:58.815965,131576.5,142729.75,158188.046875,155554.109375,169535.578125,167473.046875,686196.625,128276.4921875,0.054931640625,1.01416015625,0.056396484375,-0.2746581733226776,0.8239745497703552,0.3662109076976776,86.66667175292969,152125.0,1.0
18:17:58.818430,131588.84375,142740.21875,158212.0,155571.453125,169564.71875,167500.765625,686057.5,128292.9375,0.056884765625,1.013916015625,0.05615234375,-0.2746581733226776,0.7629393935203552,0.2441406100988388,86.66667175292969,152126.0,1.0
18:17:58.824677,131570.515625,142712.859375,158202.25,155571.09375,169551.046875,167484.578125,686004.0625,128294.8203125,0.056396484375,1.0126953125,0.053466796875,-0.3967284858226776,0.7324218153953552,0.2441406100988388,86.66667175292969,152127.0,1.0
18:17:58.831543,131570.515625,142714.203125,158197.78125,155568.421875,169542.8125,167476.265625,686098.625,128296.6953125,0.056884765625,1.0107421875,0.05322265625,-0.3662109076976776,0.6103515028953552,0.1831054538488388,86.66667175292969,152128.0,1.0
18:17:58.831586,131587.140625,142738.515625,158202.4375,155570.65625,169545.5,167481.265625,686194.9375,128292.3125,0.057861328125,1.010986328125,0.057861328125,-0.3967284858226776,0.5493163466453552,0.2746581733226776,86.66667175292969,152129.0,1.0
18:17:58.837855,131589.28125,142741.734375,158210.84375,155570.390625,169560.4375,167497.0,686101.875,128290.703125,0.06005859375,1.013427734375,0.0537109375,-0.3967284858226776,0.6103515028953552,0.2136230319738388,86.66667175292969,152130.0,1.0
18:17:58.837941,131575.25,142719.46875,158205.5625,155574.5,169556.59375,167489.3125,685998.375,128299.8203125,0.0576171875,1.0126953125,0.053466796875,-0.4577636420726776,0.4577636420726776,0.1831054538488388,86.66667175292969,152131.0,1.0
18:17:58.843468,131561.03125,142704.546875,158185.890625,155559.921875,169533.78125,167466.34375,686102.75,128285.515625,0.055419921875,1.011474609375,0.0556640625,-0.6103515028953552,0.4272460639476776,0.2136230319738388,86.66667175292969,152132.0,1.0
18:17:58.847904,131576.59375,142729.21875,158189.828125,155558.578125,169533.875,167471.4375,686191.4375,128280.15625,0.055419921875,1.011962890625,0.0546875,-0.7019042372703552,0.3662109076976776,0.2441406100988388,86.66667175292969,152133.0,1.0
18:17:58.848096,131585.359375,142737.703125,158202.796875,155565.28125,169552.296875,167488.0625,686157.5625,128288.46875,0.0556640625,1.012451171875,0.05078125,-0.6713866591453552,0.2441406100988388,0.2136230319738388,86.66667175292969,152134.0,1.0
18:17:58.862752,131570.953125,142715.0,158201.359375,155567.609375,169551.671875,167483.234375,685989.3125,128297.40625,0.0556640625,1.012939453125,0.052978515625,-0.7324218153953552,0.1831054538488388,0.2136230319738388,86.66667175292969,152135.0,1.0
18:17:58.862800,131556.65625,142696.046875,158183.03125,155560.015625,169527.34375,167460.265625,686034.8125,128287.125,0.052490234375,1.013671875,0.05419921875,-0.9155272841453552,0.2441406100988388,0.3051757514476776,86.66667175292969,152136.0,1.0
18:17:58.864739,131568.90625,142718.046875,158184.46875,155558.84375,169525.921875,167460.53125,686100.625,128278.1015625,0.0546875,1.014892578125,0.05322265625,-0.8239745497703552,0.1220703050494194,0.3051757514476776,86.66667175292969,152137.0,1.0
18:17:58.870896,131582.3125,142733.6875,158197.421875,155562.96875,169543.265625,167477.609375,686171.875,128279.171875,0.0546875,1.013916015625,0.0517578125,-0.9460448622703552,0.03051757626235485,0.3051757514476776,86.66667175292969,152138.0,1.0
18:17:58.873417,131572.390625,142720.015625,158202.34375,155565.015625,169552.5625,167484.84375,685974.6875,128290.703125,0.0537109375,1.013671875,0.0556640625,-1.0070799589157104,-0.0915527269244194,0.3662109076976776,86.66667175292969,152139.0,1.0
18:17:58.875906,131556.390625,142695.328125,158186.609375,155562.6875,169532.171875,167459.90625,686046.3125,128288.6484375,0.052978515625,1.011962890625,0.054931640625,-0.9765624403953552,-0.1220703050494194,0.3967284858226776,86.66667175292969,152140.0,1.0
18:17:58.886597,131574.796875,142720.71875,158195.46875,155568.328125,169539.234375,167468.21875,686086.3125,128288.3828125,0.05224609375,1.012939453125,0.05419921875,-1.0375975370407104,-0.2136230319738388,0.4577636420726776,86.66667175292969,152141.0,1.0
18:17:58.886640,131589.46875,142738.609375,158204.9375,155572.53125,169551.9375,167480.828125,686185.25,128288.828125,0.05322265625,1.0126953125,0.052490234375,-1.0681151151657104,-0.2746581733226776,0.5493163466453552,86.66667175292969,152142.0,1.0
18:17:58.889139,131587.671875,142734.9375,158214.421875,155576.546875,169564.71875,167497.8125,685988.3125,128296.78125,0.05322265625,1.012939453125,0.05517578125,-1.0986326932907104,-0.4272460639476776,0.4882812201976776,86.66667175292969,152143.0,1.0
18:17:58.889177,131573.28125,142712.765625,158199.484375,155574.671875,169542.90625,167475.734375,686041.5,128296.4296875,0.051513671875,1.014404296875,0.054931640625,-1.2512205839157104,-0.3356933295726776,0.4882812201976776,86.66667175292969,152144.0,1.0
18:17:58.890983,131585.4375,142733.15625,158204.671875,155577.359375,169545.046875,167480.109375,686105.6875,128296.6953125,0.054443359375,1.01318359375,0.054931640625,-1.2817381620407104,-0.4577636420726776,0.6408690810203552,86.66667175292969,152145.0,1.0
18:17:58.907214,131601.359375,142755.765625,158212.984375,155577.8125,169553.8125,167492.625,686211.9375,128293.2109375,0.055419921875,1.010009765625,0.052734375,-1.3122557401657104,-0.5187987685203552,0.6713866591453552,86.66667175292969,152146.0,1.0
18:17:58.910296,131603.328125,142755.328125,158225.0625,155587.109375,169572.046875,167510.421875,686037.8125,128303.578125,0.055908203125,1.01220703125,0.053466796875,-1.4038084745407104,-0.6103515028953552,0.5798339247703552,86.66667175292969,152147.0,1.0
18:17:58.910348,131580.96875,142720.8125,158207.265625,155580.9375,169549.96875,167481.0,686036.125,128304.7421875,0.05615234375,1.013427734375,0.0546875,-1.4343260526657104,-0.7324218153953552,0.6408690810203552,86.66667175292969,152148.0,1.0
18:17:58.916540,131586.15625,142731.546875,158207.984375,155583.4375,169549.078125,167479.390625,686084.875,128308.9453125,0.0576171875,1.01171875,0.052734375,-1.4648436307907104,-0.7324218153953552,0.7019042372703552,86.66667175292969,152149.0,1.0
18:17:58.916597,131611.1875,142765.421875,158224.703125,155593.0,169567.046875,167498.703125,686213.1875,128311.359375,0.057373046875,1.012451171875,0.052001953125,-1.5563963651657104,-0.8239745497703552,0.7324218153953552,86.66667175292969,152150.0,1.0
18:17:58.919006,131612.359375,142766.328125,158236.140625,155594.609375,169585.46875,167516.9375,686071.0,128315.46875,0.05810546875,1.013427734375,0.054443359375,-1.5869139432907104,-0.8850097060203552,0.7019042372703552,86.66667175292969,152151.0,1.0
18:17:58.919056,131589.015625,142732.25,158219.515625,155590.59375,169566.328125,167495.125,686013.5,128313.234375,0.05908203125,1.012939453125,0.053466796875,-1.6174315214157104,-0.8239745497703552,0.7324218153953552,86.66667175292969,152152.0,1.0
18:17:58.944043,131584.1875,142731.8125,158210.21875,155584.515625,169554.171875,167485.03125,686057.6875,128311.8046875,0.05859375,1.011962890625,0.0537109375,-1.6479490995407104,-0.8239745497703552,0.6408690810203552,86.66667175292969,152153.0,1.0
18:17:58.944083,131597.59375,142754.25,158213.078125,155583.96875,169554.4375,167488.421875,686174.8125,128302.953125,0.06005859375,1.013916015625,0.05224609375,-1.8005369901657104,-0.7934569716453552,0.7019042372703552,86.66667175292969,152154.0,1.0
18:17:58.961094,131603.6875,142760.859375,158226.125,155586.921875,169573.578125,167510.15625,686104.0625,128304.203125,0.060302734375,1.012451171875,0.052490234375,-1.8615721464157104,-0.7324218153953552,0.6713866591453552,86.66667175292969,152155.0,1.0
18:17:58.965256,131588.84375,142736.546875,158222.015625,155591.65625,169569.546875,167500.671875,685997.6875,128313.7734375,0.060546875,1.011474609375,0.051025390625,-1.9531248807907104,-0.7629393935203552,0.7019042372703552,86.66667175292969,152156.0,1.0
18:17:58.965316,131573.640625,142719.828125,158202.171875,155578.515625,169546.484375,167477.15625,686090.9375,128301.5234375,0.06201171875,1.0126953125,0.05029296875,-1.9531248807907104,-0.7019042372703552,0.7629393935203552,86.66667175292969,152157.0,1.0
18:17:58.965333,131586.15625,142740.125,158202.609375,155577.71875,169543.890625,167476.625,686182.3125,128297.3203125,0.0634765625,1.01123046875,0.052001953125,-1.9836424589157104,-0.6103515028953552,0.8239745497703552,86.66667175292969,152158.0,1.0
18:17:58.965348,131601.625,142756.84375,158219.609375,155583.796875,169565.609375,167500.046875,686173.9375,128303.578125,0.06396484375,1.009033203125,0.05419921875,-1.8920897245407104,-0.5493163466453552,0.8850097060203552,86.66667175292969,152159.0,1.0
18:17:58.968950,131584.640625,142732.96875,158214.953125,155583.171875,169563.109375,167492.8125,686013.4375,128315.3828125,0.063720703125,1.010498046875,0.0546875,-1.8920897245407104,-0.4882812201976776,0.9460448622703552,86.66667175292969,152160.0,1.0
18:17:58.968989,131559.953125,142703.015625,158188.21875,155568.15625,169532.09375,167460.0,686043.75,128295.9765625,0.064697265625,1.009521484375,0.050048828125,-1.9836424589157104,-0.3051757514476776,0.9765624403953552,86.66667175292969,152161.0,1.0
18:17:58.969007,131573.28125,142727.703125,158191.171875,155566.09375,169531.90625,167466.25,686094.5,128279.796875,0.06689453125,1.009765625,0.053466796875,-2.014159917831421,-0.1831054538488388,0.8239745497703552,86.66667175292969,152162.0,1.0
18:17:58.969055,131590.890625,142750.234375,158208.6875,155574.046875,169552.65625,167492.625,686184.3125,128286.1484375,0.068603515625,1.01123046875,0.052734375,-1.9836424589157104,-0.1525878757238388,0.7934569716453552,86.66667175292969,152163.0,1.0
18:17:59.012205,131582.40625,142737.703125,158212.265625,155576.015625,169562.046875,167500.765625,685995.25,128294.015625,0.068359375,1.011962890625,0.053955078125,-1.9836424589157104,0.0,0.9460448622703552,86.66667175292969,152164.0,1.0
18:17:59.017441,131552.546875,142699.09375,158181.78125,155556.609375,169527.96875,167462.234375,686052.75,128279.4375,0.068603515625,1.011962890625,0.055419921875,-1.8615721464157104,0.1831054538488388,0.9155272841453552,86.66667175292969,152165.0,1.0
18:17:59.019640,131567.015625,142721.171875,158189.65625,155560.453125,169533.15625,167466.25,686117.25,128283.1953125,0.067626953125,1.01025390625,0.0556640625,-1.8920897245407104,0.2441406100988388,0.8544921278953552,86.66667175292969,152166.0,1.0
18:17:59.022160,131585.078125,142742.359375,158202.078125,155565.5625,169545.046875,167480.640625,686207.875,128285.6953125,0.068115234375,1.009765625,0.05224609375,-1.8920897245407104,0.3051757514476776,0.7629393935203552,86.66667175292969,152167.0,1.0
18:17:59.024659,131585.0,142736.375,158211.90625,155573.609375,169557.484375,167493.15625,686010.8125,128292.7578125,0.066650390625,1.00927734375,0.052001953125,-1.9226073026657104,0.5493163466453552,0.7934569716453552,86.66667175292969,152168.0,1.0
18:17:59.030910,131559.953125,142697.921875,158188.84375,155564.65625,169531.015625,167457.9375,686043.8125,128287.484375,0.06640625,1.01025390625,0.0537109375,-1.8310545682907104,0.6103515028953552,0.7019042372703552,86.66667175292969,152169.0,1.0
18:17:59.033413,131564.4375,142708.921875,158187.6875,155561.796875,169527.4375,167454.0,686057.125,128282.5703125,0.065185546875,1.011474609375,0.0537109375,-1.8005369901657104,0.7324218153953552,0.7019042372703552,86.66667175292969,152170.0,1.0
18:17:59.035886,131587.765625,142737.890625,158201.984375,155572.984375,169540.5,167472.78125,686205.0,128289.1875,0.06396484375,1.012939453125,0.052490234375,-1.8005369901657104,0.7629393935203552,0.7019042372703552,86.66667175292969,152171.0,1.0
18:17:59.038456,131598.671875,142750.671875,158223.453125,155584.15625,169567.765625,167505.234375,686037.8125,128302.4140625,0.06396484375,1.01220703125,0.056396484375,-1.7395018339157104,0.7934569716453552,0.6408690810203552,86.66667175292969,152172.0,1.0
18:17:59.040894,131574.625,142714.640625,158205.03125,155578.703125,169547.90625,167476.625,686023.8125,128303.9375,0.063232421875,1.009765625,0.05712890625,-1.7395018339157104,0.8239745497703552,0.4272460639476776,86.66667175292969,152173.0,1.0
18:17:59.043396,131577.03125,142721.609375,158204.140625,155579.421875,169546.84375,167471.265625,686024.9375,128301.078125,0.062744140625,1.0087890625,0.055908203125,-1.8310545682907104,0.8239745497703552,0.3967284858226776,86.66667175292969,152174.0,1.0
18:17:59.045920,131604.03125,142757.203125,158221.390625,155591.9375,169563.296875,167491.46875,686191.5,128304.5625,0.060791015625,1.010498046875,0.053466796875,-1.7700194120407104,0.8544921278953552,0.3662109076976776,86.66667175292969,152175.0,1.0
18:17:59.048527,131621.203125,142775.078125,158247.671875,155608.65625,169594.9375,167524.28125,686076.375,128322.0859375,0.061279296875,1.01171875,0.0546875,-1.7700194120407104,0.9155272841453552,0.3356933295726776,86.66667175292969,152176.0,1.0
18:17:59.050939,131588.21875,142730.5625,158219.328125,155590.765625,169564.640625,167489.859375,686002.3125,128311.625,0.05810546875,1.010986328125,0.05615234375,-1.7395018339157104,0.9155272841453552,0.2441406100988388,86.66667175292969,152177.0,1.0
18:17:59.054135,131575.703125,142721.609375,158202.34375,155576.828125,169544.6875,167470.1875,686050.8125,128297.0546875,0.056884765625,1.01123046875,0.056396484375,-1.7089842557907104,0.7934569716453552,0.1831054538488388,86.66667175292969,152178.0,1.0
18:17:59.054202,131582.484375,142738.15625,158199.125,155571.28125,169539.59375,167467.765625,686162.8125,128286.953125,0.057861328125,1.009765625,0.057861328125,-1.6479490995407104,0.7934569716453552,0.2441406100988388,86.66667175292969,152179.0,1.0
18:17:59.055919,131594.203125,142751.75,158216.65625,155578.703125,169562.671875,167494.953125,686107.9375,128296.515625,0.05712890625,1.0078125,0.056640625,-1.6479490995407104,0.7934569716453552,0.0915527269244194,86.66667175292969,152180.0,1.0
18:17:59.059676,131579.984375,142727.875,158212.0,155580.84375,169557.484375,167487.703125,686000.9375,128301.7890625,0.057373046875,1.00830078125,0.0576171875,-1.6784666776657104,0.8239745497703552,0.1831054538488388,86.66667175292969,152181.0,1.0
18:17:59.059743,131563.984375,142707.765625,158192.421875,155571.1875,169535.390625,167461.421875,686040.6875,128292.40625,0.0556640625,1.009033203125,0.05322265625,-1.7089842557907104,0.7324218153953552,0.2136230319738388,86.66667175292969,152182.0,1.0
18:17:59.059826,131583.109375,142733.421875,158201.0,155579.234375,169540.84375,167467.328125,686149.875,128298.484375,0.0556640625,1.00927734375,0.05615234375,-1.5869139432907104,0.5798339247703552,0.2746581733226776,86.66667175292969,152183.0,1.0
18:17:59.062219,131594.5625,142750.140625,158213.609375,155578.078125,169555.6875,167490.390625,686171.4375,128294.1015625,0.05517578125,1.009765625,0.057373046875,-1.5869139432907104,0.5493163466453552,0.3051757514476776,86.66667175292969,152184.0,1.0
18:17:59.064656,131582.3125,142730.203125,158211.5625,155580.578125,169555.0625,167490.484375,685999.6875,128301.1640625,0.056396484375,1.010009765625,0.05810546875,-1.5869139432907104,0.4272460639476776,0.2136230319738388,86.66667175292969,152185.0,1.0
18:17:59.067840,131560.859375,142700.78125,158188.046875,155571.640625,169527.796875,167457.75,686038.0,128298.484375,0.0537109375,1.010498046875,0.059814453125,-1.5563963651657104,0.4882812201976776,0.3051757514476776,86.66667175292969,152186.0,1.0
18:17:59.067890,131572.75,142722.15625,158189.375,155568.0625,169526.640625,167459.90625,686105.875,128288.3828125,0.052490234375,1.010009765625,0.05908203125,-1.6174315214157104,0.3662109076976776,0.3356933295726776,86.66667175292969,152187.0,1.0
18:17:59.069789,131579.265625,142733.328125,158194.84375,155566.890625,169534.953125,167471.96875,686193.375,128280.78125,0.052734375,1.01025390625,0.058349609375,-1.4953612089157104,0.1831054538488388,0.3967284858226776,86.66667175292969,152188.0,1.0
18:17:59.072290,131562.90625,142713.921875,158193.859375,155561.984375,169537.90625,167473.40625,685983.375,128280.6015625,0.052734375,1.009521484375,0.05908203125,-1.5258787870407104,0.0915527269244194,0.3967284858226776,86.66667175292969,152189.0,1.0
18:17:59.074715,131533.578125,142676.734375,158163.546875,155543.46875,169504.28125,167434.515625,686028.8125,128269.15625,0.052490234375,1.009521484375,0.05712890625,-1.4343260526657104,-0.03051757626235485,0.4272460639476776,86.66667175292969,152190.0,1.0
18:17:59.082867,131551.5625,142704.09375,158171.234375,155548.921875,169508.84375,167443.28125,686086.1875,128269.421875,0.05224609375,1.00927734375,0.057373046875,-1.4648436307907104,-0.1525878757238388,0.4882812201976776,86.66667175292969,152191.0,1.0
18:17:59.082945,131576.140625,142734.9375,158192.15625,155562.15625,169531.640625,167468.046875,686204.6875,128277.6484375,0.052001953125,1.010986328125,0.05419921875,-1.5258787870407104,-0.3051757514476776,0.6103515028953552,86.66667175292969,152192.0,1.0
18:17:59.084729,131578.375,142731.453125,158208.15625,155572.078125,169553.453125,167485.390625,685991.0,128288.5625,0.0546875,1.01171875,0.055419921875,-1.4038084745407104,-0.3051757514476776,0.6408690810203552,86.66667175292969,152193.0,1.0
18:17:59.092270,131552.1875,142695.875,158184.203125,155560.453125,169526.453125,167452.921875,686020.9375,128283.1015625,0.05517578125,1.01171875,0.056884765625,-1.3732908964157104,-0.3967284858226776,0.5798339247703552,86.66667175292969,152194.0,1.0
18:17:59.096613,131565.953125,142716.875,158190.984375,155565.203125,169532.09375,167460.625,686071.625,128284.625,0.0546875,1.010986328125,0.056640625,-1.3732908964157104,-0.4882812201976776,0.5798339247703552,86.66667175292969,152195.0,1.0
18:17:59.096704,131586.0625,142742.984375,158202.609375,155571.8125,169543.078125,167475.640625,686193.125,128285.875,0.053955078125,1.01220703125,0.056640625,-1.3427733182907104,-0.6103515028953552,0.7019042372703552,86.66667175292969,152196.0,1.0
18:17:59.104765,131593.75,142743.96875,158219.15625,155585.578125,169565.078125,167493.515625,686018.6875,128299.734375,0.05615234375,1.009521484375,0.05712890625,-1.2512205839157104,-0.7019042372703552,0.7019042372703552,86.66667175292969,152197.0,1.0
18:17:59.110309,131572.921875,142715.453125,158204.578125,155578.78125,169548.1875,167472.515625,686018.5,128302.328125,0.056640625,1.009765625,0.056884765625,-1.3122557401657104,-0.6408690810203552,0.8239745497703552,86.66667175292969,152198.0,1.0
18:17:59.110348,131578.46875,142726.265625,158207.265625,155585.40625,169549.34375,167472.15625,686039.4375,128308.3203125,0.0576171875,1.008544921875,0.052490234375,-1.1901854276657104,-0.5798339247703552,0.8544921278953552,86.66667175292969,152199.0,1.0
18:17:59.115972,131594.109375,142750.140625,158211.90625,155580.125,169550.953125,167479.65625,686189.3125,128297.140625,0.059326171875,1.01025390625,0.055908203125,-1.0986326932907104,-0.6103515028953552,0.9765624403953552,86.66667175292969,152200.0,1.0
18:17:59.131511,131598.21875,142754.703125,158224.875,155581.921875,169570.0,167500.578125,686067.0,128304.0234375,0.0615234375,1.009521484375,0.056396484375,-1.0681151151657104,-0.6408690810203552,1.0070799589157104,86.66667175292969,152201.0,1.0
18:17:59.131525,131568.453125,142712.40625,158201.90625,155571.640625,169544.6875,167470.453125,685997.25,128291.6875,0.060791015625,1.0078125,0.056396484375,-0.9765624403953552,-0.6408690810203552,1.0681151151657104,86.66667175292969,152202.0,1.0
18:17:59.135872,131555.578125,142702.125,158184.109375,155555.71875,169523.328125,167451.5,686066.4375,128273.5390625,0.060546875,1.009765625,0.056640625,-0.9460448622703552,-0.7324218153953552,1.0986326932907104,86.66667175292969,152203.0,1.0
18:17:59.138396,131577.21875,142733.6875,158194.65625,155563.140625,169531.640625,167464.546875,686189.0,128280.421875,0.059814453125,1.013427734375,0.0576171875,-0.9155272841453552,-0.7019042372703552,1.0070799589157104,86.66667175292969,152204.0,1.0
18:17:59.140868,131583.46875,142738.6875,158208.0625,155569.3125,169550.6875,167479.125,686127.9375,128287.3046875,0.0595703125,1.012939453125,0.057861328125,-0.8544921278953552,-0.7019042372703552,0.9765624403953552,86.66667175292969,152205.0,1.0
18:17:59.143401,131563.265625,142708.828125,158196.625,155566.71875,169539.234375,167466.96875,685993.5,128287.3046875,0.061279296875,1.01123046875,0.0576171875,-0.9155272841453552,-0.5798339247703552,1.0681151151657104,86.66667175292969,152206.0,1.0
18:17:59.145926,131549.328125,142691.3125,158178.65625,155556.796875,169518.234375,167446.5,686038.375,128278.6328125,0.0615234375,1.006103515625,0.058837890625,-1.0986326932907104,-0.5187987685203552,1.0375975370407104,86.66667175292969,152207.0,1.0
18:17:59.150321,131563.625,142718.21875,158184.28125,155556.078125,169521.8125,167455.34375,686141.25,128274.5234375,0.063720703125,1.00537109375,0.05517578125,-1.1291502714157104,-0.5187987685203552,0.9155272841453552,86.66667175292969,152208.0,1.0
18:17:59.150344,131577.3125,142734.84375,158202.171875,155563.140625,169545.046875,167479.03125,686152.375,128283.015625,0.0673828125,1.006591796875,0.0576171875,-1.0375975370407104,-0.4272460639476776,0.9765624403953552,86.66667175292969,152209.0,1.0
18:17:59.159606,131564.25,142716.875,158201.09375,155563.40625,169544.0625,167477.25,685972.625,128284.0859375,0.071533203125,1.007568359375,0.053466796875,-1.0681151151657104,-0.1831054538488388,0.9155272841453552,86.66667175292969,152210.0,1.0
18:17:59.164640,131546.109375,142693.28125,158177.578125,155552.234375,169514.65625,167449.359375,686061.875,128275.5078125,0.074462890625,1.010498046875,0.052734375,-0.9765624403953552,-0.0610351525247097,1.1901854276657104,86.66667175292969,152211.0,1.0
18:17:59.164659,131564.078125,142720.984375,158182.859375,155557.515625,169517.34375,167458.03125,686125.0,128277.921875,0.075439453125,1.009521484375,0.05224609375,-0.9460448622703552,0.1220703050494194,1.3122557401657104,86.66667175292969,152212.0,1.0
18:17:59.164665,131578.640625,142740.578125,158197.15625,155561.4375,169534.953125,167476.171875,686190.375,128280.6875,0.076171875,1.009521484375,0.048583984375,-0.9155272841453552,0.3356933295726776,1.3122557401657104,86.66667175292969,152213.0,1.0
18:17:59.167207,131574.984375,142730.46875,158206.8125,155566.1875,169549.25,167485.46875,685985.875,128283.015625,0.07373046875,1.00830078125,0.048095703125,-0.8850097060203552,0.5798339247703552,1.4038084745407104,86.66667175292969,152214.0,1.0
18:17:59.174707,131554.15625,142701.953125,158187.859375,155555.09375,169527.171875,167460.0,686054.9375,128279.8828125,0.07177734375,1.008544921875,0.052978515625,-0.8239745497703552,0.6713866591453552,1.3122557401657104,86.66667175292969,152215.0,1.0
18:17:59.185293,131572.390625,142727.78125,158197.25,155565.828125,169534.234375,167467.859375,686110.625,128286.5,0.068603515625,1.008056640625,0.054931640625,-0.7934569716453552,0.9460448622703552,1.1596678495407104,86.66667175292969,152216.0,1.0
18:17:59.185318,131591.25,142751.296875,158208.609375,155573.515625,169546.75,167482.875,686209.875,128288.3828125,0.0673828125,1.010498046875,0.056396484375,-0.8850097060203552,1.0681151151657104,1.0681151151657104,86.66667175292969,152217.0,1.0
18:17:59.189610,131593.046875,142748.625,158221.65625,155582.359375,169565.796875,167500.765625,686000.3125,128298.484375,0.065673828125,1.015869140625,0.0546875,-0.7934569716453552,1.1596678495407104,0.9460448622703552,86.66667175292969,152218.0,1.0
18:17:59.192135,131570.0625,142715.359375,158203.78125,155575.03125,169544.25,167473.21875,686032.9375,128294.90625,0.063720703125,1.016845703125,0.056884765625,-0.9765624403953552,1.2207030057907104,0.6713866591453552,86.66667175292969,152219.0,1.0
18:17:59.195889,131576.859375,142728.40625,158205.65625,155573.78125,169545.234375,167470.1875,686101.6875,128292.2265625,0.060546875,1.01416015625,0.05712890625,-1.0681151151657104,1.1596678495407104,0.5187987685203552,86.66667175292969,152220.0,1.0
18:17:59.203394,131600.640625,142758.28125,158220.046875,155585.3125,169558.90625,167486.09375,686215.6875,128300.2734375,0.06103515625,1.013916015625,0.05810546875,-1.0986326932907104,1.2512205839157104,0.3662109076976776,86.66667175292969,152221.0,1.0
18:17:59.208343,131605.640625,142760.515625,158234.0,155593.625,169577.78125,167506.125,686037.0,128309.3046875,0.060302734375,1.013671875,0.060791015625,-1.1901854276657104,1.2512205839157104,0.1525878757238388,86.66667175292969,152222.0,1.0
18:17:59.208364,131576.046875,142720.984375,158208.421875,155582.28125,169549.96875,167474.390625,686020.3125,128302.0625,0.060546875,1.013916015625,0.060546875,-1.2207030057907104,1.2207030057907104,0.0,86.66667175292969,152223.0,1.0
18:17:59.208370,131563.984375,142713.75,158190.8125,155566.265625,169530.75,167456.234375,686091.9375,128289.8984375,0.060302734375,1.012451171875,0.05615234375,-1.2817381620407104,1.1901854276657104,-0.1220703050494194,86.66667175292969,152224.0,1.0
18:17:59.210904,131575.515625,142730.46875,158191.796875,155563.953125,169530.296875,167456.859375,686208.25,128287.7578125,0.06201171875,1.0126953125,0.05712890625,-1.2512205839157104,1.1291502714157104,-0.2136230319738388,86.66667175292969,152225.0,1.0
18:17:59.218404,131581.859375,142735.65625,158207.359375,155572.4375,169551.125,167478.40625,686083.5,128300.1796875,0.062255859375,1.0126953125,0.053466796875,-1.3122557401657104,1.0681151151657104,-0.1220703050494194,86.66667175292969,152226.0,1.0
18:17:59.224658,131552.625,142696.578125,158185.890625,155561.359375,169528.25,167452.03125,686011.0,128286.1484375,0.06103515625,1.012939453125,0.053466796875,-1.2817381620407104,1.0375975370407104,-0.1525878757238388,86.66667175292969,152227.0,1.0
18:17:59.228974,131540.375,142685.3125,158169.796875,155547.9375,169509.640625,167436.125,686036.125,128271.125,0.062255859375,1.0126953125,0.055419921875,-1.2207030057907104,1.0986326932907104,-0.1525878757238388,86.66667175292969,152228.0,1.0
18:17:59.228997,131557.8125,142710.078125,158174.90625,155550.265625,169511.890625,167442.640625,686150.9375,128266.7421875,0.06005859375,1.011474609375,0.05517578125,-1.3122557401657104,1.1596678495407104,-0.1220703050494194,86.66667175292969,152229.0,1.0
18:17:59.238475,131578.734375,142734.046875,158200.640625,155566.1875,169542.28125,167478.59375,686108.8125,128282.5703125,0.0556640625,1.011474609375,0.05419921875,-1.4038084745407104,1.0681151151657104,-0.1220703050494194,86.66667175292969,152230.0,1.0
18:17:59.243378,131565.859375,142711.78125,158198.5,155570.46875,169540.3125,167471.890625,685981.625,128291.7734375,0.05517578125,1.009765625,0.05615234375,-1.3427733182907104,1.0375975370407104,-0.0915527269244194,86.66667175292969,152231.0,1.0
18:17:59.243403,131543.59375,142686.03125,158173.828125,155551.703125,169511.890625,167440.234375,686104.625,128273.984375,0.052734375,1.009521484375,0.057861328125,-1.3427733182907104,0.9460448622703552,0.1220703050494194,86.66667175292969,152232.0,1.0
18:17:59.243409,131567.5625,142718.671875,158185.265625,155561.359375,169519.296875,167453.828125,686191.8125,128276.7578125,0.05322265625,1.0107421875,0.06005859375,-1.3427733182907104,0.8850097060203552,0.1220703050494194,86.66667175292969,152233.0,1.0
18:17:59.245916,131584.375,142739.859375,158202.890625,155569.40625,169539.515625,167479.65625,686177.9375,128283.015625,0.052734375,1.010498046875,0.056640625,-1.3732908964157104,0.7629393935203552,0.1831054538488388,86.66667175292969,152234.0,1.0
18:17:59.255949,131567.296875,142716.4375,158197.25,155564.296875,169534.5,167473.578125,685999.5625,128280.421875,0.05126953125,1.010986328125,0.057373046875,-1.4648436307907104,0.7019042372703552,0.2136230319738388,86.66667175292969,152235.0,1.0
18:17:59.258999,131544.765625,142688.453125,158173.296875,155550.71875,169506.96875,167443.359375,686054.75,128269.421875,0.05224609375,1.01123046875,0.0576171875,-1.4953612089157104,0.5187987685203552,0.3967284858226776,86.66667175292969,152236.0,1.0
18:17:59.259040,131561.84375,142719.03125,158182.046875,155556.703125,169516.625,167455.796875,686104.875,128274.8828125,0.050537109375,1.010009765625,0.057861328125,-1.4953612089157104,0.4577636420726776,0.3356933295726776,86.66667175292969,152237.0,1.0
18:17:59.262186,131574.265625,142737.890625,158194.921875,155558.3125,169535.125,167474.828125,686191.4375,128277.0234375,0.04931640625,1.007568359375,0.057373046875,-1.4953612089157104,0.2441406100988388,0.6103515028953552,86.66667175292969,152238.0,1.0
18:17:59.277218,131571.21875,142728.765625,158205.75,155568.5,169551.40625,167486.015625,685982.875,128297.3203125,0.048583984375,1.009521484375,0.05859375,-1.4953612089157104,0.0915527269244194,0.6408690810203552,86.66667175292969,152239.0,1.0
18:17:59.280247,131550.296875,142695.0625,158182.3125,155559.921875,169521.984375,167450.34375,686080.0625,128282.390625,0.04736328125,1.010009765625,0.059326171875,-1.4343260526657104,-0.1525878757238388,0.6713866591453552,86.66667175292969,152240.0,1.0
18:17:59.280298,131564.25,142714.375,158187.328125,155559.296875,169523.59375,167452.03125,686138.0,128276.578125,0.045654296875,1.009033203125,0.0556640625,-1.4953612089157104,-0.3662109076976776,0.7629393935203552,86.66667175292969,152241.0,1.0
18:17:59.282154,131594.375,142749.515625,158211.734375,155581.46875,169547.203125,167476.359375,686224.1875,128295.7109375,0.045654296875,1.010986328125,0.05810546875,-1.6174315214157104,-0.4577636420726776,0.7324218153953552,86.66667175292969,152242.0,1.0
18:17:59.284685,131591.96875,142746.734375,158224.515625,155585.671875,169565.609375,167491.28125,686019.25,128301.609375,0.04638671875,1.010009765625,0.05615234375,-1.6174315214157104,-0.7019042372703552,0.7629393935203552,86.66667175292969,152243.0,1.0
18:17:59.298451,131569.34375,142717.140625,158205.5625,155578.078125,169543.984375,167465.890625,686050.5,128299.375,0.048828125,1.010009765625,0.0556640625,-1.6174315214157104,-0.9155272841453552,0.6408690810203552,86.66667175292969,152244.0,1.0
18:17:59.301453,131571.5,142726.265625,158200.640625,155573.875,169539.59375,167460.4375,686116.5,128293.7421875,0.048583984375,1.0087890625,0.056640625,-1.6174315214157104,-1.0986326932907104,0.7019042372703552,86.66667175292969,152245.0,1.0
18:17:59.301467,131585.4375,142743.796875,158206.1875,155575.21875,169545.328125,167466.25,686217.625,128292.7578125,0.049072265625,1.009033203125,0.056640625,-1.6784666776657104,-1.1901854276657104,0.7019042372703552,86.66667175292969,152246.0,1.0
18:17:59.303386,131592.421875,142748.34375,158223.890625,155585.40625,169569.90625,167492.625,686046.6875,128307.2421875,0.052978515625,1.009033203125,0.05712890625,-1.6174315214157104,-1.3427733182907104,0.6713866591453552,86.66667175292969,152247.0,1.0
18:17:59.305974,131563.171875,142708.75,158197.96875,155572.0,169540.671875,167462.5,686032.625,128300.8046875,0.05517578125,1.00927734375,0.05859375,-1.5869139432907104,-1.3427733182907104,0.6713866591453552,86.66667175292969,152248.0,1.0
18:17:59.318416,131553.796875,142704.0,158180.984375,155555.0,169519.578125,167445.953125,686082.8125,128279.8828125,0.0576171875,1.010009765625,0.058349609375,-1.5563963651657104,-1.3427733182907104,0.6103515028953552,86.66667175292969,152249.0,1.0
18:17:59.321557,131570.234375,142734.578125,158188.75,155555.359375,169526.1875,167459.359375,686197.6875,128275.1484375,0.059326171875,1.00830078125,0.0576171875,-1.6174315214157104,-1.3732908964157104,0.6103515028953552,86.66667175292969,152250.0,1.0
18:17:59.321590,131580.34375,142746.109375,158210.296875,155566.71875,169555.515625,167485.390625,686079.6875,128289.5390625,0.06494140625,1.00732421875,0.055419921875,-1.4648436307907104,-1.4648436307907104,0.6408690810203552,86.66667175292969,152251.0,1.0
18:17:59.323433,131551.28125,142706.15625,158191.53125,155560.8125,169535.046875,167458.203125,685999.9375,128287.484375,0.065185546875,1.0068359375,0.0546875,-1.3732908964157104,-1.3732908964157104,0.7629393935203552,86.66667175292969,152252.0,1.0
18:17:59.332192,131538.5,142691.75,158170.703125,155547.046875,169509.734375,167434.6875,686064.1875,128266.1171875,0.065185546875,1.00537109375,0.054931640625,-1.2817381620407104,-1.2817381620407104,0.8544921278953552,86.66667175292969,152253.0,1.0
18:17:59.334709,131556.46875,142717.59375,158176.515625,155545.703125,169511.609375,167442.109375,686164.875,128260.21875,0.06591796875,1.006103515625,0.054443359375,-1.2817381620407104,-1.2512205839157104,1.0070799589157104,86.66667175292969,152254.0,1.0
18:17:59.337754,131574.359375,142737.171875,158201.0,155564.484375,169543.0,167473.140625,686126.4375,128282.75,0.0673828125,1.005615234375,0.053466796875,-1.2207030057907104,-1.0681151151657104,1.0070799589157104,86.66667175292969,152255.0,1.0
18:17:59.337781,131553.796875,142705.609375,158191.53125,155565.828125,169533.96875,167458.921875,686000.0,128287.84375,0.070068359375,1.00439453125,0.052490234375,-1.0681151151657104,-1.0070799589157104,1.0986326932907104,86.66667175292969,152256.0,1.0
18:17:59.380959,131536.09375,142685.9375,158167.484375,155546.875,169505.09375,167433.4375,686097.8125,128268.0859375,0.068603515625,1.005859375,0.05078125,-1.0681151151657104,-0.9155272841453552,1.1291502714157104,86.66667175292969,152257.0,1.0
18:17:59.383387,131550.03125,142709.09375,158169.796875,155546.15625,169505.265625,167437.734375,686173.0,128265.7578125,0.06982421875,1.006591796875,0.04931640625,-0.9765624403953552,-0.6713866591453552,1.1291502714157104,86.66667175292969,152258.0,1.0
18:17:59.388431,131564.4375,142726.71875,158186.15625,155552.765625,169527.171875,167461.25,686179.75,128271.2109375,0.0693359375,1.009765625,0.050048828125,-0.8544921278953552,-0.5493163466453552,1.0070799589157104,86.66667175292969,152259.0,1.0
18:17:59.390983,131556.921875,142711.6875,158190.453125,155561.078125,169533.96875,167463.921875,685997.0625,128280.3359375,0.070068359375,1.0087890625,0.0517578125,-0.7324218153953552,-0.4272460639476776,1.0070799589157104,86.66667175292969,152260.0,1.0
18:17:59.393434,131539.125,142689.78125,158171.5,155550.796875,169510.8125,167438.359375,686043.75,128273.4453125,0.069580078125,1.00732421875,0.05224609375,-0.7019042372703552,-0.2746581733226776,1.0375975370407104,86.66667175292969,152261.0,1.0
18:17:59.399753,131562.28125,142722.25,158185.1875,155562.875,169520.828125,167451.140625,686096.5625,128279.6171875,0.06884765625,1.007568359375,0.051025390625,-0.7019042372703552,-0.0915527269244194,0.9765624403953552,86.66667175292969,152262.0,1.0
18:17:59.402191,131578.203125,142738.96875,158199.578125,155569.84375,169538.703125,167465.453125,686195.125,128287.6640625,0.068359375,1.009033203125,0.052490234375,-0.5493163466453552,-0.03051757626235485,0.9155272841453552,86.66667175292969,152263.0,1.0
18:17:59.404718,131574.09375,142732.25,158209.765625,155577.0,169554.796875,167479.296875,685991.875,128301.5234375,0.0673828125,1.007568359375,0.052734375,-0.5798339247703552,0.1525878757238388,0.7934569716453552,86.66667175292969,152264.0,1.0
18:17:59.407175,131551.5625,142701.5,158187.234375,155565.90625,169529.765625,167449.984375,686050.8125,128294.546875,0.0693359375,1.008544921875,0.054443359375,-0.6103515028953552,0.2746581733226776,0.7629393935203552,86.66667175292969,152265.0,1.0
18:17:59.413403,131561.125,142716.703125,158188.046875,155564.84375,169527.96875,167448.09375,686115.0625,128286.953125,0.0693359375,1.00634765625,0.0517578125,-0.6103515028953552,0.4272460639476776,0.7934569716453552,86.66667175292969,152266.0,1.0
18:17:59.416042,131574.09375,142734.40625,158195.28125,155565.90625,169535.21875,167459.8125,686204.9375,128282.296875,0.06884765625,1.00634765625,0.05126953125,-0.4882812201976776,0.6713866591453552,0.8239745497703552,86.66667175292969,152267.0,1.0
18:17:59.418552,131576.59375,142734.578125,158209.328125,155576.46875,169555.25,167481.359375,686013.875,128294.640625,0.06884765625,1.0078125,0.051025390625,-0.4272460639476776,0.7629393935203552,0.7324218153953552,86.66667175292969,152268.0,1.0
18:17:59.421567,131556.65625,142705.609375,158191.34375,155570.5625,169533.25,167458.03125,686042.1875,128291.6875,0.070068359375,1.0087890625,0.048828125,-0.3356933295726776,0.9765624403953552,0.6408690810203552,86.66667175292969,152269.0,1.0
18:17:59.421636,131558.171875,142714.734375,158187.5,155566.453125,169527.96875,167453.375,686067.8125,128287.0390625,0.067626953125,1.008544921875,0.0498046875,-0.3662109076976776,1.0681151151657104,0.6713866591453552,86.66667175292969,152270.0,1.0
18:17:59.424136,131569.4375,142734.484375,158192.0625,155567.078125,169532.265625,167460.0,686200.1875,128287.7578125,0.065673828125,1.007568359375,0.05078125,-0.4577636420726776,1.1596678495407104,0.5493163466453552,86.66667175292969,152271.0,1.0
18:17:59.424193,131580.34375,142746.03125,158212.625,155582.625,169558.640625,167489.234375,686050.0,128302.1484375,0.064208984375,1.009765625,0.04833984375,-0.4272460639476776,1.2207030057907104,0.5493163466453552,86.66667175292969,152272.0,1.0
18:17:59.426472,131556.65625,142714.546875,158192.515625,155568.953125,169532.53125,167464.546875,686028.625,128288.3828125,0.06640625,1.009765625,0.050048828125,-0.3662109076976776,1.3427733182907104,0.4272460639476776,86.66667175292969,152273.0,1.0
