Timestamp,Fz,FC3,FCz,FC4,Cz,C3,C4
18:10:46.093720,137810.765625,144243.6875,163152.625,159888.734375,185488.90625,182688.765625,686090.875,132914.203125,0.01025390625,1.006591796875,-0.109375,-3.051757574081421,-0.3967284858226776,1.2207030057907104,86.66667175292969,43854.0,1.0
18:10:46.104539,137787.25,144208.71875,163140.203125,159883.640625,185476.390625,182670.71875,685947.6875,132911.25,0.00927734375,1.005859375,-0.112548828125,-2.990722417831421,-0.3051757514476776,1.0986326932907104,86.66667175292969,43855.0,1.0
18:10:46.104581,137778.03125,144198.53125,163128.671875,159879.625,185459.140625,182657.390625,685985.5,132910.09375,0.01171875,1.00634765625,-0.11181640625,-3.112792730331421,-0.4272460639476776,1.1596678495407104,86.66667175292969,43856.0,1.0
18:10:46.106807,137796.09375,144227.40625,163135.109375,159881.765625,185463.15625,182665.96875,686082.25,132906.78125,0.011962890625,1.0068359375,-0.110595703125,-3.051757574081421,-0.4577636420726776,1.2817381620407104,86.66667175292969,43857.0,1.0
18:10:46.106819,137802.171875,144237.953125,163141.453125,159878.453125,185475.328125,182682.6875,686126.6875,132901.25,0.012939453125,1.01025390625,-0.108642578125,-3.021239995956421,-0.5187987685203552,1.3427733182907104,86.66667175292969,43858.0,1.0
18:10:46.112514,137794.84375,144221.859375,163146.375,159888.65625,185482.65625,182683.046875,685948.25,132913.765625,0.013671875,1.008544921875,-0.10888671875,-3.082275152206421,-0.5493163466453552,1.3427733182907104,86.66667175292969,43859.0,1.0
18:10:46.128270,137786.984375,144205.234375,163137.25,159891.515625,185468.53125,182665.703125,685987.4375,132921.359375,0.012451171875,1.00830078125,-0.10986328125,-2.990722417831421,-0.5187987685203552,1.2512205839157104,86.66667175292969,43860.0,1.0
18:10:46.128291,137809.328125,144236.0,163150.671875,159900.0,185478.984375,182676.609375,686047.125,132926.359375,0.012451171875,1.007568359375,-0.107666015625,-3.021239995956421,-0.5798339247703552,1.2817381620407104,86.66667175292969,43861.0,1.0
18:10:46.130700,137820.5,144254.40625,163158.171875,159897.40625,185489.171875,182693.15625,686169.0625,132919.84375,0.01611328125,1.008544921875,-0.106689453125,-3.082275152206421,-0.5187987685203552,1.1596678495407104,86.66667175292969,43862.0,1.0
18:10:46.130714,137799.5,144224.734375,163151.65625,159891.515625,185487.84375,182685.546875,685960.25,132915.1875,0.016845703125,1.006103515625,-0.109130859375,-3.051757574081421,-0.5187987685203552,1.2512205839157104,86.66667175292969,43863.0,1.0
18:10:46.140687,137776.96875,144192.546875,163129.390625,159884.453125,185459.3125,182655.6875,685993.0625,132911.171875,0.014892578125,1.0078125,-0.10986328125,-2.960204839706421,-0.5493163466453552,1.1291502714157104,86.66667175292969,43864.0,1.0
18:10:46.140697,137792.4375,144220.25,163136.453125,159883.28125,185463.421875,182665.078125,686004.3125,132910.359375,0.01708984375,1.00732421875,-0.107177734375,-2.899169683456421,-0.4577636420726776,1.0681151151657104,86.66667175292969,43865.0,1.0
18:10:46.143128,137811.203125,144242.875,163146.109375,159888.109375,185472.90625,182674.5625,686170.3125,132910.625,0.0205078125,1.00732421875,-0.10693359375,-2.838134527206421,-0.4272460639476776,0.9155272841453552,86.66667175292969,43866.0,1.0
18:10:46.143138,137806.296875,144233.9375,163152.90625,159890.890625,185485.78125,182686.625,685976.3125,132912.234375,0.021484375,1.00732421875,-0.106201171875,-2.868652105331421,-0.3967284858226776,1.0681151151657104,86.66667175292969,43867.0,1.0
18:10:46.150553,137790.828125,144205.328125,163139.40625,159894.28125,185466.296875,182664.09375,685990.4375,132919.484375,0.021728515625,1.005859375,-0.108642578125,-2.807616949081421,-0.2746581733226776,1.0986326932907104,86.66667175292969,43868.0,1.0
18:10:46.160700,137806.375,144229.109375,163149.0625,159904.203125,185474.421875,182675.265625,686000.1875,132928.328125,0.02099609375,1.00390625,-0.107177734375,-2.685546636581421,-0.0915527269244194,1.0986326932907104,86.66667175292969,43869.0,1.0
18:10:46.160716,137816.21875,144246.1875,163149.0625,159900.0,185473.984375,182678.9375,686177.25,132919.65625,0.023193359375,1.004638671875,-0.105224609375,-2.593993902206421,0.03051757626235485,1.0681151151657104,86.66667175292969,43870.0,1.0
18:10:46.163100,137808.25,144238.3125,163151.296875,159894.28125,185483.546875,182689.125,686018.3125,132915.28125,0.02490234375,1.00439453125,-0.109375,-2.441406011581421,0.1831054538488388,1.0070799589157104,86.66667175292969,43871.0,1.0
18:10:46.163112,137785.015625,144203.71875,163133.671875,159891.609375,185461.90625,182664.8125,685980.375,132915.90625,0.02490234375,1.003662109375,-0.1083984375,-2.349853277206421,0.2746581733226776,0.9460448622703552,86.66667175292969,43872.0,1.0
18:10:46.172599,137789.65625,144212.84375,163134.125,159893.75,185459.9375,182661.6875,685994.3125,132917.875,0.024658203125,1.00341796875,-0.107421875,-2.258300542831421,0.2746581733226776,0.9460448622703552,86.66667175292969,43873.0,1.0
18:10:46.188858,137814.515625,144245.296875,163147.265625,159900.984375,185471.46875,182675.09375,686174.6875,132921.1875,0.021728515625,1.00439453125,-0.104736328125,-2.105712652206421,0.4272460639476776,0.9765624403953552,86.66667175292969,43874.0,1.0
18:10:46.188874,137817.640625,144250.203125,163160.40625,159902.234375,185493.015625,182696.375,686080.9375,132924.046875,0.0205078125,1.00439453125,-0.10693359375,-2.166747808456421,0.4577636420726776,0.8239745497703552,86.66667175292969,43875.0,1.0
18:10:46.188876,137793.59375,144212.03125,163145.484375,159900.0,185477.375,182674.46875,685995.625,132927.171875,0.02197265625,1.003662109375,-0.107421875,-1.9836424589157104,0.5493163466453552,0.7934569716453552,86.66667175292969,43876.0,1.0
18:10:46.195155,137785.453125,144204.703125,163134.484375,159892.140625,185463.421875,182659.53125,686008.0,132922.171875,0.021728515625,1.001953125,-0.103515625,-1.8310545682907104,0.6713866591453552,0.8239745497703552,86.66667175292969,43877.0,1.0
18:10:46.198362,137802.09375,144230.09375,163138.859375,159893.75,185465.3125,182663.109375,686146.375,132915.640625,0.020751953125,0.999755859375,-0.1064453125,-1.6784666776657104,0.7019042372703552,0.7934569716453552,86.66667175292969,43878.0,1.0
18:10:46.198384,137806.5625,144238.859375,163147.71875,159893.125,185481.40625,182680.1875,686128.6875,132913.5,0.02001953125,1.002197265625,-0.107666015625,-1.7089842557907104,0.8850097060203552,0.7324218153953552,86.66667175292969,43879.0,1.0
18:10:46.200882,137792.515625,144216.859375,163142.53125,159894.828125,185477.109375,182676.609375,685981.6875,132918.234375,0.017822265625,1.000732421875,-0.105224609375,-1.5258787870407104,0.9155272841453552,0.7019042372703552,86.66667175292969,43880.0,1.0
18:10:46.200908,137799.21875,144218.109375,163147.265625,159907.34375,185476.75,182674.46875,686033.0,132932.625,0.016845703125,1.002197265625,-0.10498046875,-1.4953612089157104,0.9765624403953552,0.6713866591453552,86.66667175292969,43881.0,1.0
18:10:46.203784,137818.71875,144247.171875,163154.15625,159910.734375,185479.609375,182679.390625,686135.1875,132927.96875,0.01708984375,1.0029296875,-0.105712890625,-1.3427733182907104,1.0070799589157104,0.6103515028953552,86.66667175292969,43882.0,1.0
18:10:46.219631,137812.90625,144248.6875,163150.578125,159895.71875,185480.953125,182685.734375,686177.375,132911.609375,0.01708984375,1.002685546875,-0.10595703125,-1.2207030057907104,0.9460448622703552,0.6713866591453552,86.66667175292969,43883.0,1.0
18:10:46.219703,137794.671875,144223.125,163146.640625,159893.03125,185480.953125,182680.90625,685988.5625,132914.125,0.014404296875,1.00244140625,-0.10498046875,-1.0681151151657104,1.0375975370407104,0.5798339247703552,86.66667175292969,43884.0,1.0
18:10:46.226303,137788.5,144208.1875,163140.921875,159898.671875,185469.78125,182663.46875,686037.8125,132923.6875,0.013427734375,1.002685546875,-0.103759765625,-0.9765624403953552,0.8850097060203552,0.5798339247703552,86.66667175292969,43885.0,1.0
18:10:46.226364,137814.0625,144243.6875,163154.953125,159906.796875,185480.234375,182679.125,686104.8125,132927.53125,0.01318359375,1.004638671875,-0.10302734375,-0.8544921278953552,0.9155272841453552,0.6408690810203552,86.66667175292969,43886.0,1.0
18:10:46.226392,137831.40625,144262.375,163166.765625,159910.921875,185492.9375,182692.53125,686218.8125,132929.859375,0.012451171875,1.00537109375,-0.104736328125,-0.8239745497703552,0.8239745497703552,0.5187987685203552,86.66667175292969,43887.0,1.0
18:10:46.228825,137817.90625,144243.328125,163166.40625,159909.578125,185498.03125,182695.75,686014.0625,132931.46875,0.01220703125,1.00439453125,-0.10498046875,-0.7934569716453552,0.7019042372703552,0.6408690810203552,86.66667175292969,43888.0,1.0
18:10:46.262714,137795.203125,144208.453125,163143.6875,159903.40625,185469.59375,182664.1875,686051.4375,132926.09375,0.010498046875,1.005859375,-0.10400390625,-0.7324218153953552,0.7324218153953552,0.6103515028953552,86.66667175292969,43889.0,1.0
18:10:46.265965,137806.828125,144228.484375,163146.015625,159902.15625,185468.703125,182667.3125,686078.625,132920.203125,0.01171875,1.00634765625,-0.103515625,-0.6408690810203552,0.6103515028953552,0.4577636420726776,86.66667175292969,43890.0,1.0
18:10:46.266036,137820.234375,144247.34375,163151.921875,159901.96875,185475.765625,182675.546875,686238.625,132917.34375,0.012939453125,1.004150390625,-0.105224609375,-0.6713866591453552,0.4882812201976776,0.3967284858226776,86.66667175292969,43891.0,1.0
18:10:46.268506,137809.515625,144238.5,163155.5,159899.46875,185487.21875,182686.8125,686034.8125,132917.875,0.01123046875,1.004638671875,-0.1064453125,-0.5798339247703552,0.4882812201976776,0.5187987685203552,86.66667175292969,43892.0,1.0
18:10:46.268591,137791.625,144208.8125,163140.390625,159901.609375,185467.09375,182662.84375,686047.75,132926.359375,0.01171875,1.0048828125,-0.10693359375,-0.5493163466453552,0.3967284858226776,0.6103515028953552,86.66667175292969,43893.0,1.0
18:10:46.270301,137792.609375,144218.921875,163132.78125,159892.234375,185457.34375,182658.640625,686057.3125,132916.0,0.01318359375,1.005126953125,-0.107666015625,-0.4882812201976776,0.2746581733226776,0.5798339247703552,86.66667175292969,43894.0,1.0
18:10:46.272939,137800.03125,144233.9375,163129.65625,159883.734375,185455.109375,182658.546875,686229.25,132903.75,0.013427734375,1.00537109375,-0.10791015625,-0.4272460639476776,0.1525878757238388,0.6408690810203552,86.66667175292969,43895.0,1.0
18:10:46.275127,137794.390625,144226.34375,163135.828125,159878.375,185469.859375,182672.40625,686062.0625,132900.265625,0.012451171875,1.00537109375,-0.110107421875,-0.3051757514476776,0.0610351525247097,0.6408690810203552,86.66667175292969,43896.0,1.0
18:10:46.305073,137786.890625,144206.578125,163134.03125,159890.265625,185464.140625,182666.59375,686033.4375,132915.8125,0.012451171875,1.00634765625,-0.111083984375,-0.2746581733226776,-0.0915527269244194,0.6408690810203552,86.66667175292969,43897.0,1.0
18:10:46.321473,137786.53125,144210.515625,163127.59375,159885.25,185454.3125,182658.546875,686046.6875,132913.140625,0.012451171875,1.005126953125,-0.113525390625,-0.2441406100988388,-0.1525878757238388,0.5493163466453552,86.66667175292969,43898.0,1.0
18:10:46.324012,137802.4375,144233.046875,163131.53125,159883.734375,185455.828125,182658.546875,686219.3125,132908.9375,0.0126953125,1.006103515625,-0.1142578125,-0.1525878757238388,-0.1525878757238388,0.6103515028953552,86.66667175292969,43899.0,1.0
18:10:46.326456,137803.421875,144236.0,163141.71875,159882.75,185474.421875,182677.421875,686114.0,132905.796875,0.0126953125,1.006591796875,-0.11328125,-0.2136230319738388,-0.1831054538488388,0.6103515028953552,86.66667175292969,43900.0,1.0
18:10:46.329591,137784.921875,144208.453125,163131.890625,159884.546875,185462.984375,182663.65625,686026.5625,132909.921875,0.013671875,1.006591796875,-0.11181640625,-0.1220703050494194,-0.2441406100988388,0.6408690810203552,86.66667175292969,43901.0,1.0
18:10:46.329623,137787.0625,144208.640625,163130.28125,159885.078125,185457.171875,182655.96875,686056.0,132912.515625,0.013916015625,1.005126953125,-0.113037109375,-0.1525878757238388,-0.2746581733226776,0.7324218153953552,86.66667175292969,43902.0,1.0
18:10:46.331427,137804.140625,144234.65625,163135.375,159885.796875,185459.9375,182660.25,686192.9375,132906.78125,0.013916015625,1.0048828125,-0.11181640625,-0.1831054538488388,-0.2746581733226776,0.7629393935203552,86.66667175292969,43903.0,1.0
18:10:46.333915,137817.46875,144249.84375,163152.453125,159891.515625,185484.53125,182686.453125,686167.125,132911.96875,0.014892578125,1.005615234375,-0.113525390625,-0.1220703050494194,-0.3662109076976776,0.7629393935203552,86.66667175292969,43904.0,1.0
18:10:46.336445,137798.875,144217.75,163144.578125,159892.3125,185477.28125,182672.953125,686017.4375,132916.625,0.014404296875,1.008544921875,-0.10986328125,-0.0610351525247097,-0.4577636420726776,0.7324218153953552,86.66667175292969,43905.0,1.0
18:10:46.338859,137787.609375,144201.390625,163132.34375,159890.625,185459.578125,182652.65625,686050.5,132917.421875,0.014892578125,1.010009765625,-0.110595703125,-0.1220703050494194,-0.5187987685203552,0.7934569716453552,86.66667175292969,43906.0,1.0
18:10:46.341288,137806.296875,144234.390625,163140.46875,159894.375,185464.765625,182663.734375,686157.4375,132915.8125,0.0146484375,1.008056640625,-0.11181640625,-0.1220703050494194,-0.5187987685203552,0.7629393935203552,86.66667175292969,43907.0,1.0
18:10:46.343804,137814.96875,144249.5,163148.875,159891.6875,185478.625,182681.0,686207.0625,132911.34375,0.015625,1.0068359375,-0.11279296875,-0.1525878757238388,-0.5187987685203552,0.7324218153953552,86.66667175292969,43908.0,1.0
18:10:46.346392,137803.875,144228.390625,163149.6875,159896.15625,185481.9375,182682.78125,686023.25,132918.671875,0.014892578125,1.0068359375,-0.114013671875,-0.2136230319738388,-0.6408690810203552,0.7629393935203552,86.66667175292969,43909.0,1.0
18:10:46.348861,137798.6875,144214.09375,163142.171875,159902.421875,185468.796875,182667.765625,686062.3125,132930.75,0.014404296875,1.0087890625,-0.11328125,-0.3051757514476776,-0.6713866591453552,0.7019042372703552,86.66667175292969,43910.0,1.0
18:10:46.351344,137812.375,144241.984375,163146.828125,159902.6875,185471.390625,182679.921875,686127.0,132925.03125,0.01416015625,1.008056640625,-0.11376953125,-0.2746581733226776,-0.7629393935203552,0.7629393935203552,86.66667175292969,43911.0,1.0
18:10:46.353847,137810.484375,144243.234375,163142.796875,159889.015625,185469.953125,182678.484375,686233.125,132907.328125,0.01708984375,1.010498046875,-0.1123046875,-0.2136230319738388,-0.7629393935203552,0.7019042372703552,86.66667175292969,43912.0,1.0
18:10:46.356969,137796.0,144222.484375,163142.34375,159885.875,185474.78125,182673.75,686025.9375,132906.703125,0.01513671875,1.011474609375,-0.112548828125,-0.2136230319738388,-0.7934569716453552,0.7019042372703552,86.66667175292969,43913.0,1.0
18:10:46.357034,137772.9375,144185.203125,163120.265625,159879.359375,185448.953125,182640.671875,686044.0,132905.171875,0.014892578125,1.010986328125,-0.1123046875,-0.3662109076976776,-0.7934569716453552,0.6408690810203552,86.66667175292969,43914.0,1.0
18:10:46.360038,137778.84375,144200.59375,163119.546875,159877.03125,185446.0,182639.15625,686065.3125,132900.625,0.014404296875,1.010498046875,-0.1142578125,-0.4272460639476776,-0.8544921278953552,0.5493163466453552,86.66667175292969,43915.0,1.0
18:10:46.360146,137790.734375,144223.125,163123.9375,159873.09375,185450.375,182649.171875,686224.8125,132894.0,0.015625,1.0087890625,-0.115478515625,-0.6408690810203552,-0.8239745497703552,0.5187987685203552,86.66667175292969,43916.0,1.0
18:10:46.360174,137789.84375,144222.3125,163136.09375,159875.421875,185470.21875,182673.03125,686030.4375,132900.265625,0.01708984375,1.009521484375,-0.117431640625,-0.6408690810203552,-0.8239745497703552,0.5187987685203552,86.66667175292969,43917.0,1.0
18:10:46.362603,137769.71875,144183.15625,163119.546875,159878.1875,185449.65625,182641.828125,686019.6875,132906.25,0.01708984375,1.01171875,-0.1162109375,-0.5798339247703552,-0.8850097060203552,0.5493163466453552,86.66667175292969,43918.0,1.0
18:10:46.365950,137772.671875,144187.71875,163114.28125,159874.34375,185442.328125,182633.78125,686012.8125,132901.59375,0.0185546875,1.010009765625,-0.11669921875,-0.6713866591453552,-0.7934569716453552,0.5187987685203552,86.66667175292969,43919.0,1.0
18:10:46.366009,137792.078125,144216.953125,163123.21875,159875.953125,185448.953125,182645.765625,686192.6875,132898.734375,0.0185546875,1.01123046875,-0.11376953125,-0.7629393935203552,-0.7629393935203552,0.3356933295726776,86.66667175292969,43920.0,1.0
18:10:46.368200,137798.328125,144225.359375,163142.34375,159885.34375,185474.515625,182672.953125,686056.9375,132911.609375,0.01904296875,1.008544921875,-0.115966796875,-0.8544921278953552,-0.7324218153953552,0.4577636420726776,86.66667175292969,43921.0,1.0
18:10:46.368224,137781.34375,144193.078125,163130.1875,159888.921875,185460.296875,182652.5625,686032.375,132917.6875,0.018798828125,1.0078125,-0.116943359375,-0.8544921278953552,-0.8544921278953552,0.4577636420726776,86.66667175292969,43922.0,1.0
18:10:46.370117,137784.921875,144198.796875,163128.140625,159890.171875,185455.46875,182648.0,686024.4375,132916.0,0.02001953125,1.0068359375,-0.119140625,-0.8544921278953552,-0.7324218153953552,0.4272460639476776,86.66667175292969,43923.0,1.0
18:10:46.372681,137805.484375,144229.375,163136.71875,159892.140625,185462.359375,182659.453125,686186.8125,132911.34375,0.019775390625,1.0048828125,-0.11865234375,-0.8239745497703552,-0.7324218153953552,0.3662109076976776,86.66667175292969,43924.0,1.0
18:10:46.380756,137803.34375,144230.984375,163142.96875,159885.34375,185477.015625,182676.703125,686093.4375,132908.390625,0.01806640625,1.0029296875,-0.1201171875,-0.7934569716453552,-0.6408690810203552,0.4577636420726776,86.66667175292969,43925.0,1.0
18:10:46.388203,137779.5625,144197.015625,163127.421875,159881.40625,185459.859375,182655.328125,685990.1875,132909.640625,0.017822265625,1.0,-0.119873046875,-0.7019042372703552,-0.6408690810203552,0.5493163466453552,86.66667175292969,43926.0,1.0
18:10:46.388276,137773.828125,144192.265625,163118.84375,159877.75,185448.671875,182644.25,686007.375,132909.203125,0.0166015625,1.000732421875,-0.11962890625,-0.6713866591453552,-0.6103515028953552,0.4882812201976776,86.66667175292969,43927.0,1.0
18:10:46.390607,137797.96875,144226.15625,163130.453125,159885.796875,185457.4375,182657.03125,686145.3125,132911.890625,0.015869140625,1.003173828125,-0.11962890625,-0.7019042372703552,-0.6408690810203552,0.3356933295726776,86.66667175292969,43928.0,1.0
18:10:46.390684,137796.71875,144227.59375,163132.96875,159876.40625,185464.59375,182667.5,686127.4375,132900.53125,0.015869140625,1.003662109375,-0.119873046875,-0.6103515028953552,-0.5798339247703552,0.2746581733226776,86.66667175292969,43929.0,1.0
18:10:46.398885,137781.53125,144204.796875,163128.9375,159876.9375,185460.65625,182663.921875,685971.875,132903.390625,0.013671875,1.00390625,-0.1181640625,-0.6408690810203552,-0.5493163466453552,0.2746581733226776,86.66667175292969,43930.0,1.0
18:10:46.406892,137766.953125,144186.8125,163112.84375,159871.9375,185440.453125,182641.203125,685988.3125,132902.9375,0.013671875,1.003173828125,-0.11669921875,-0.6103515028953552,-0.6103515028953552,0.2441406100988388,86.66667175292969,43931.0,1.0
18:10:46.406959,137776.25,144205.5,163111.234375,159867.375,185436.78125,182637.8125,686075.5,132895.796875,0.0126953125,1.003173828125,-0.11962890625,-0.7019042372703552,-0.6103515028953552,0.0915527269244194,86.66667175292969,43932.0,1.0
18:10:46.411860,137785.90625,144221.78125,163119.8125,159864.25,185448.5,182655.6875,686153.0625,132886.84375,0.01513671875,1.00390625,-0.11767578125,-0.6713866591453552,-0.6103515028953552,0.03051757626235485,86.66667175292969,43933.0,1.0
18:10:46.411918,137779.375,144205.140625,163124.296875,159871.3125,185455.46875,182661.859375,685981.875,132894.890625,0.016845703125,1.00732421875,-0.120849609375,-0.6713866591453552,-0.4882812201976776,0.1525878757238388,86.66667175292969,43934.0,1.0
18:10:46.417594,137763.375,144174.21875,163106.3125,159869.609375,185432.671875,182632.984375,686013.3125,132898.46875,0.020263671875,1.0087890625,-0.122802734375,-0.5798339247703552,-0.5493163466453552,0.2441406100988388,86.66667175292969,43935.0,1.0
18:10:46.428110,137776.96875,144201.296875,163111.0625,159868.890625,185434.28125,182639.328125,686048.9375,132893.46875,0.022705078125,1.0078125,-0.123779296875,-0.6103515028953552,-0.5493163466453552,0.3662109076976776,86.66667175292969,43936.0,1.0
18:10:46.428161,137784.46875,144215.078125,163113.828125,159860.9375,185439.828125,182649.609375,686176.25,132883.453125,0.02392578125,1.010009765625,-0.126220703125,-0.6408690810203552,-0.3662109076976776,0.5493163466453552,86.66667175292969,43937.0,1.0
18:10:46.430613,137769.625,144196.5625,163112.9375,159855.484375,185443.84375,182651.671875,685974.875,132881.84375,0.021484375,1.007568359375,-0.125244140625,-0.6103515028953552,-0.3051757514476776,0.6103515028953552,86.66667175292969,43938.0,1.0
18:10:46.430659,137762.125,144178.765625,163106.140625,159865.40625,185431.25,182633.515625,686005.75,132895.078125,0.019287109375,1.007080078125,-0.1240234375,-0.5798339247703552,-0.1525878757238388,0.6408690810203552,86.66667175292969,43939.0,1.0
18:10:46.444986,137779.375,144203.53125,163115.703125,159869.421875,185439.015625,182642.1875,686023.0625,132896.765625,0.01708984375,1.006591796875,-0.122314453125,-0.4882812201976776,-0.0610351525247097,0.5493163466453552,86.66667175292969,43940.0,1.0
18:10:46.448061,137795.734375,144227.3125,163124.296875,159869.875,185447.78125,182656.046875,686191.25,132893.90625,0.013916015625,1.009033203125,-0.118896484375,-0.4577636420726776,-0.1831054538488388,0.5493163466453552,86.66667175292969,43941.0,1.0
18:10:46.448074,137784.03125,144212.203125,163125.09375,159863.078125,185454.3125,182661.234375,685997.0625,132889.265625,0.012939453125,1.01123046875,-0.118408203125,-0.5798339247703552,0.03051757626235485,0.3967284858226776,86.66667175292969,43942.0,1.0
18:10:46.454648,137766.140625,144180.203125,163108.828125,159866.03125,185434.28125,182636.46875,685997.25,132897.125,0.01318359375,1.010498046875,-0.117919921875,-0.5493163466453552,0.0610351525247097,0.3662109076976776,86.66667175292969,43943.0,1.0
18:10:46.454723,137773.390625,144192.8125,163110.703125,159866.75,185432.140625,182636.375,685979.4375,132896.328125,0.010009765625,1.0107421875,-0.1171875,-0.6103515028953552,-0.0610351525247097,0.1831054538488388,86.66667175292969,43944.0,1.0
18:10:46.469404,137796.453125,144224.640625,163122.859375,159872.296875,185443.578125,182651.3125,686150.3125,132892.84375,0.011962890625,1.009521484375,-0.11767578125,-0.7629393935203552,-0.0610351525247097,0.03051757626235485,86.66667175292969,43945.0,1.0
18:10:46.469417,137796.90625,144224.734375,163135.640625,159875.6875,185464.859375,182667.9375,686000.9375,132897.484375,0.01171875,1.0087890625,-0.120361328125,-0.8239745497703552,-0.1525878757238388,-0.03051757626235485,86.66667175292969,43946.0,1.0
18:10:46.471931,137782.328125,144195.140625,163127.859375,159880.96875,185452.25,182647.734375,685955.5,132906.421875,0.010986328125,1.00830078125,-0.12158203125,-0.8850097060203552,-0.0610351525247097,-0.1525878757238388,86.66667175292969,43947.0,1.0
18:10:46.471998,137787.875,144202.28125,163128.3125,159882.125,185449.21875,182644.515625,686006.75,132906.96875,0.0126953125,1.01318359375,-0.11669921875,-1.0375975370407104,-0.2136230319738388,-0.3662109076976776,86.66667175292969,43948.0,1.0
18:10:46.478114,137811.390625,144235.09375,163139.3125,159887.046875,185458.25,182659.625,686140.125,132905.53125,0.013427734375,1.01416015625,-0.116455078125,-1.1596678495407104,-0.2441406100988388,-0.4272460639476776,86.66667175292969,43949.0,1.0
18:10:46.478177,137814.0625,144238.671875,163149.859375,159884.453125,185476.84375,182680.09375,686058.1875,132904.640625,0.015869140625,1.013427734375,-0.117431640625,-1.2817381620407104,-0.1831054538488388,-0.4272460639476776,86.66667175292969,43950.0,1.0
18:10:46.487441,137789.390625,144203.09375,163135.015625,159883.375,185459.578125,182657.125,685959.625,132907.328125,0.01513671875,1.01171875,-0.117919921875,-1.3122557401657104,-0.2136230319738388,-0.2746581733226776,86.66667175292969,43951.0,1.0
18:10:46.487462,137784.921875,144198.078125,163127.15625,159882.484375,185447.421875,182643.09375,685989.1875,132910.09375,0.01806640625,1.010498046875,-0.115478515625,-1.4648436307907104,-0.1220703050494194,-0.1525878757238388,86.66667175292969,43952.0,1.0
18:10:46.493173,137796.984375,144220.53125,163126.34375,159878.28125,185443.3125,182643.171875,686103.1875,132900.890625,0.017822265625,1.013427734375,-0.115234375,-1.5563963651657104,-0.1220703050494194,-0.0610351525247097,86.66667175292969,43953.0,1.0
18:10:46.493210,137799.578125,144226.34375,163133.140625,159874.53125,185455.203125,182657.65625,686107.9375,132897.3125,0.0185546875,1.014892578125,-0.115234375,-1.6174315214157104,-0.1220703050494194,-0.0915527269244194,86.66667175292969,43954.0,1.0
18:10:46.499393,137788.3125,144206.84375,163134.578125,159882.84375,185459.140625,182658.546875,685959.25,132908.03125,0.01611328125,1.012451171875,-0.115234375,-1.6479490995407104,-0.0610351525247097,0.0,86.66667175292969,43955.0,1.0
18:10:46.499404,137781.4375,144192.71875,163124.5625,159884.1875,185445.640625,182641.828125,685985.1875,132910.09375,0.0146484375,1.0126953125,-0.115478515625,-1.8005369901657104,-0.0915527269244194,0.03051757626235485,86.66667175292969,43956.0,1.0
18:10:46.506900,137793.5,144213.375,163125.0,159881.5,185443.84375,182641.125,686047.125,132901.875,0.015380859375,1.01220703125,-0.1142578125,-2.105712652206421,-0.03051757626235485,0.0610351525247097,86.66667175292969,43957.0,1.0
18:10:46.510706,137803.703125,144228.484375,163134.84375,159881.5,185458.78125,182657.921875,686123.8125,132900.703125,0.013427734375,1.01318359375,-0.113037109375,-2.166747808456421,0.0915527269244194,0.0915527269244194,86.66667175292969,43958.0,1.0
18:10:46.510777,137791.265625,144210.59375,163135.375,159883.640625,185462.71875,182662.578125,685931.1875,132906.515625,0.013916015625,1.011474609375,-0.11279296875,-2.288818120956421,0.1525878757238388,0.1525878757238388,86.66667175292969,43959.0,1.0
18:10:46.518891,137773.390625,144184.3125,163117.3125,159880.421875,185440.0,182635.484375,685995.0,132908.21875,0.01123046875,1.011474609375,-0.111328125,-2.410888433456421,0.1220703050494194,0.1831054538488388,86.66667175292969,43960.0,1.0
18:10:46.529667,137782.234375,144206.125,163117.046875,159875.421875,185438.578125,182638.609375,686025.25,132898.828125,0.010009765625,1.01416015625,-0.11083984375,-2.593993902206421,0.0,0.3356933295726776,86.66667175292969,43961.0,1.0
18:10:46.529731,137790.28125,144217.125,163119.8125,159871.21875,185444.203125,182644.34375,686138.75,132893.375,0.0087890625,1.01416015625,-0.113037109375,-2.807616949081421,0.0,0.3051757514476776,86.66667175292969,43962.0,1.0
18:10:46.532001,137779.640625,144204.34375,163123.3125,159868.984375,185454.21875,182656.046875,685925.875,132895.515625,0.0078125,1.013916015625,-0.110595703125,-2.899169683456421,0.03051757626235485,0.2441406100988388,86.66667175292969,43963.0,1.0
18:10:46.532083,137761.59375,144175.203125,163106.765625,159868.625,185433.296875,182631.28125,685981.6875,132898.296875,0.008056640625,1.013427734375,-0.110595703125,-3.021239995956421,-0.0915527269244194,0.2746581733226776,86.66667175292969,43964.0,1.0
18:10:46.537605,137776.96875,144198.984375,163113.46875,159874.171875,185436.875,182634.0625,686031.5,132901.953125,0.00732421875,1.009521484375,-0.112060546875,-3.173827886581421,-0.1525878757238388,0.2136230319738388,86.66667175292969,43965.0,1.0
18:10:46.548686,137796.984375,144226.34375,163125.8125,159881.59375,185448.953125,182651.21875,686171.5625,132907.40625,0.00732421875,1.01025390625,-0.111572265625,-3.143310308456421,-0.2746581733226776,0.2136230319738388,86.66667175292969,43966.0,1.0
18:10:46.548758,137778.3125,144206.40625,163119.90625,159869.609375,185450.28125,182651.21875,685967.3125,132894.09375,0.0068359375,1.009765625,-0.112060546875,-3.234863042831421,-0.4577636420726776,0.1525878757238388,86.66667175292969,43967.0,1.0
18:10:46.555870,137756.765625,144173.140625,163101.21875,159866.390625,185426.765625,182624.765625,685966.9375,132893.546875,0.0048828125,1.009033203125,-0.1123046875,-3.295898199081421,-0.5187987685203552,0.1525878757238388,86.66667175292969,43968.0,1.0
18:10:46.555942,137758.546875,144180.921875,163097.828125,159862.28125,185420.0625,182620.015625,686014.0625,132887.296875,0.0068359375,1.00634765625,-0.11181640625,-3.295898199081421,-0.4882812201976776,0.1220703050494194,86.66667175292969,43969.0,1.0
18:10:46.556993,137778.21875,144207.65625,163105.25,159863.078125,185426.0625,182628.328125,686157.1875,132883.0,0.0078125,1.006103515625,-0.108642578125,-3.295898199081421,-0.4882812201976776,0.0610351525247097,86.66667175292969,43970.0,1.0
18:10:46.557053,137775.625,144206.9375,163113.109375,159859.765625,185442.421875,182646.03125,686000.0,132881.390625,0.009521484375,1.0029296875,-0.111328125,-3.265380620956421,-0.5187987685203552,0.0610351525247097,86.66667175292969,43971.0,1.0
18:10:46.575054,137761.234375,144182.890625,163105.421875,159866.484375,185432.140625,182634.40625,685957.5625,132892.65625,0.01123046875,1.000244140625,-0.111083984375,-3.265380620956421,-0.6103515028953552,0.0915527269244194,86.66667175292969,43972.0,1.0
18:10:46.580104,137758.640625,144180.734375,163097.203125,159861.734375,185421.859375,182622.078125,685988.375,132889.703125,0.011474609375,1.00146484375,-0.11328125,-3.265380620956421,-0.5187987685203552,0.03051757626235485,86.66667175292969,43973.0,1.0
18:10:46.580146,137775.53125,144206.3125,163103.1875,159862.984375,185424.625,182626.453125,686119.375,132885.0625,0.01220703125,1.001708984375,-0.11181640625,-3.173827886581421,-0.5798339247703552,0.1220703050494194,86.66667175292969,43974.0,1.0
18:10:46.580165,137787.96875,144222.40625,163122.5,159872.640625,185450.828125,182655.609375,686042.1875,132893.109375,0.01220703125,1.001708984375,-0.111328125,-3.112792730331421,-0.5187987685203552,0.1220703050494194,86.66667175292969,43975.0,1.0
18:10:46.583236,137768.46875,144188.25,163111.140625,159873.8125,185439.296875,182638.171875,685930.1875,132900.53125,0.013671875,1.001708984375,-0.109619140625,-2.929687261581421,-0.5798339247703552,0.2441406100988388,86.66667175292969,43976.0,1.0
18:10:46.583271,137767.046875,144184.5,163107.03125,159874.796875,185429.90625,182626.09375,686000.4375,132905.09375,0.01513671875,1.0009765625,-0.111572265625,-2.777099370956421,-0.5798339247703552,0.2746581733226776,86.66667175292969,43977.0,1.0
18:10:46.585087,137786.53125,144216.5,163113.03125,159874.25,185431.953125,182635.484375,686115.0625,132894.8125,0.01513671875,1.0009765625,-0.1103515625,-2.624511480331421,-0.4577636420726776,0.4272460639476776,86.66667175292969,43978.0,1.0
18:10:46.620105,137795.03125,144226.78125,163122.953125,159871.578125,185446.359375,182653.8125,686100.125,132889.890625,0.015625,1.0029296875,-0.10888671875,-2.441406011581421,-0.4577636420726776,0.6713866591453552,86.66667175292969,43979.0,1.0
18:10:46.647073,137773.75,144193.078125,163113.203125,159867.546875,185439.109375,182642.015625,685925.5625,132890.25,0.017333984375,1.002685546875,-0.109619140625,-2.380370855331421,-0.4272460639476776,0.7019042372703552,86.66667175292969,43980.0,1.0
18:10:46.647154,137761.3125,144174.84375,163099.078125,159863.171875,185419.4375,182618.765625,685971.375,132888.546875,0.01611328125,1.001953125,-0.1123046875,-2.197265386581421,-0.3662109076976776,0.8850097060203552,86.66667175292969,43981.0,1.0
18:10:46.648974,137780.546875,144207.734375,163107.484375,159865.3125,185424.265625,182629.234375,686050.375,132884.96875,0.014404296875,1.0029296875,-0.11181640625,-2.197265386581421,-0.3662109076976776,0.7324218153953552,86.66667175292969,43982.0,1.0
18:10:46.651451,137793.59375,144225.4375,163118.5625,159868.53125,185438.75,182646.484375,686122.125,132884.34375,0.012939453125,1.005615234375,-0.113037109375,-2.075195074081421,-0.3051757514476776,0.9460448622703552,86.66667175292969,43983.0,1.0
18:10:46.654025,137783.84375,144207.734375,163122.328125,159874.53125,185446.078125,182649.875,685926.1875,132892.484375,0.0126953125,1.005126953125,-0.111572265625,-1.9836424589157104,-0.3051757514476776,1.0070799589157104,86.66667175292969,43984.0,1.0
18:10:46.659084,137761.9375,144173.40625,163099.703125,159867.375,185417.828125,182615.375,685980.5,132889.53125,0.013671875,1.00732421875,-0.111328125,-1.9226073026657104,-0.3051757514476776,0.9460448622703552,86.66667175292969,43985.0,1.0
18:10:46.661456,137773.75,144193.4375,163102.390625,159863.796875,185417.46875,182616.4375,686017.625,132884.53125,0.012451171875,1.00830078125,-0.111328125,-1.8615721464157104,-0.1525878757238388,1.0681151151657104,86.66667175292969,43986.0,1.0
18:10:46.664127,137794.390625,144224.546875,163118.203125,159869.78125,185434.46875,182639.59375,686156.375,132888.640625,0.014404296875,1.006591796875,-0.110595703125,-1.8005369901657104,-0.1525878757238388,1.0070799589157104,86.66667175292969,43987.0,1.0
18:10:46.666979,137782.6875,144209.890625,163120.890625,159867.8125,185446.078125,182651.140625,685950.125,132890.78125,0.016357421875,1.007080078125,-0.112548828125,-1.6784666776657104,-0.1220703050494194,0.9155272841453552,86.66667175292969,43988.0,1.0
18:10:46.668962,137767.671875,144179.671875,163107.65625,159871.9375,185428.375,182625.203125,685989.625,132895.796875,0.015869140625,1.0078125,-0.110107421875,-1.6784666776657104,0.0,0.7324218153953552,86.66667175292969,43989.0,1.0
18:10:46.671552,137777.234375,144198.890625,163108.828125,159871.03125,185427.84375,182627.265625,685992.125,132892.75,0.01708984375,1.005126953125,-0.11474609375,-1.5869139432907104,0.0,0.6713866591453552,86.66667175292969,43990.0,1.0
18:10:46.674163,137787.421875,144216.40625,163110.171875,159864.953125,185430.4375,182633.34375,686159.3125,132885.234375,0.016357421875,1.005859375,-0.112060546875,-1.5258787870407104,0.1525878757238388,0.5798339247703552,86.66667175292969,43991.0,1.0
18:10:46.676576,137772.578125,144205.0625,163108.5625,159855.921875,185435.359375,182641.65625,685966.0625,132878.09375,0.0166015625,1.00341796875,-0.1123046875,-1.4648436307907104,0.1525878757238388,0.5493163466453552,86.66667175292969,43992.0,1.0
18:10:46.679002,137754.609375,144172.15625,163093.359375,159860.125,185415.6875,182617.875,685975.3125,132886.046875,0.0166015625,1.004150390625,-0.11328125,-1.4343260526657104,0.2441406100988388,0.5493163466453552,86.66667175292969,43993.0,1.0
18:10:46.681440,137756.765625,144177.078125,163088.4375,159856.375,185408.09375,182611.4375,685988.125,132880.765625,0.019287109375,1.00537109375,-0.114501953125,-1.3427733182907104,0.3051757514476776,0.5493163466453552,86.66667175292969,43994.0,1.0
18:10:46.685130,137776.421875,144207.109375,163098.625,159859.421875,185417.109375,182625.203125,686156.0,132878.53125,0.019775390625,1.00439453125,-0.113525390625,-1.3732908964157104,0.3662109076976776,0.5187987685203552,86.66667175292969,43995.0,1.0
18:10:46.685207,137780.265625,144212.390625,163114.640625,159863.4375,185441.53125,182647.375,686024.75,132883.625,0.02197265625,1.005126953125,-0.1142578125,-1.3122557401657104,0.4882812201976776,0.5493163466453552,86.66667175292969,43996.0,1.0
18:10:46.685236,137763.109375,144177.96875,163103.90625,159865.765625,185428.203125,182624.046875,685977.5,132890.421875,0.022216796875,1.005615234375,-0.115234375,-1.1901854276657104,0.6103515028953552,0.5493163466453552,86.66667175292969,43997.0,1.0
18:10:46.688124,137764.890625,144180.828125,163100.0625,159865.765625,185420.78125,182617.515625,685987.3125,132891.765625,0.021484375,1.008056640625,-0.113037109375,-1.0986326932907104,0.7019042372703552,0.5493163466453552,86.66667175292969,43998.0,1.0
18:10:46.688195,137781.4375,144208.359375,163104.171875,159863.625,185421.859375,182623.78125,686141.625,132884.34375,0.021728515625,1.007568359375,-0.111328125,-1.1596678495407104,0.7019042372703552,0.5798339247703552,86.66667175292969,43999.0,1.0
18:10:46.690756,137782.859375,144211.9375,163113.109375,159860.484375,185437.234375,182640.40625,686078.6875,132879.15625,0.01953125,1.0068359375,-0.10986328125,-1.1291502714157104,0.7934569716453552,0.6408690810203552,86.66667175292969,44000.0,1.0
18:10:46.690825,137765.25,144182.96875,163105.515625,159866.125,185428.734375,182627.4375,685962.4375,132887.203125,0.017822265625,1.005126953125,-0.10888671875,-1.2207030057907104,0.9155272841453552,0.4577636420726776,86.66667175292969,44001.0,1.0
18:10:46.692703,137754.609375,144171.265625,163092.015625,159858.078125,185412.015625,182611.890625,685995.25,132883.71875,0.018310546875,1.009033203125,-0.11181640625,-1.2512205839157104,0.9460448622703552,0.4882812201976776,86.66667175292969,44002.0,1.0
18:10:46.696161,137771.515625,144201.65625,163098.546875,159857.09375,185415.953125,182621.890625,686121.9375,132876.75,0.01513671875,1.008544921875,-0.1123046875,-1.2817381620407104,1.0375975370407104,0.5798339247703552,86.66667175292969,44003.0,1.0
18:10:46.696211,137782.59375,144216.140625,163111.78125,159860.484375,185433.828125,182638.53125,686135.1875,132878.171875,0.014892578125,1.009765625,-0.112060546875,-1.3122557401657104,1.0681151151657104,0.6103515028953552,86.66667175292969,44004.0,1.0
18:10:46.697765,137765.078125,144186.109375,163106.234375,159860.84375,185430.703125,182630.03125,685957.1875,132882.5625,0.012451171875,1.0087890625,-0.11083984375,-1.3427733182907104,1.1291502714157104,0.6713866591453552,86.66667175292969,44005.0,1.0
18:10:46.701405,137760.875,144173.046875,163101.484375,159867.90625,185421.859375,182615.734375,686007.8125,132892.125,0.011962890625,1.009033203125,-0.1103515625,-1.3122557401657104,1.0681151151657104,0.5187987685203552,86.66667175292969,44006.0,1.0
18:10:46.712157,137786.265625,144209.703125,163115.53125,159877.828125,185432.859375,182631.734375,686096.8125,132895.4375,0.0078125,1.008056640625,-0.10986328125,-1.4038084745407104,0.9765624403953552,0.2441406100988388,86.66667175292969,44007.0,1.0
18:10:46.712257,137784.828125,144214.71875,163112.40625,159863.34375,185433.5625,182634.5,686164.8125,132880.328125,0.007568359375,1.00830078125,-0.1103515625,-1.3732908964157104,0.9460448622703552,0.3051757514476776,86.66667175292969,44008.0,1.0
18:10:46.714709,137769.71875,144192.265625,163111.234375,159860.125,185436.25,182633.78125,685951.9375,132882.640625,0.005859375,1.006591796875,-0.108154296875,-1.4953612089157104,0.9155272841453552,0.0610351525247097,86.66667175292969,44009.0,1.0
18:10:46.714792,137755.78125,144166.4375,163097.46875,159863.34375,185416.3125,182608.84375,685992.875,132889.53125,0.005859375,1.0078125,-0.10791015625,-1.4648436307907104,0.7629393935203552,0.0915527269244194,86.66667175292969,44010.0,1.0
18:10:46.721459,137770.890625,144192.265625,163103.1875,159864.25,185418.09375,182615.015625,686041.5625,132882.296875,0.00732421875,1.0078125,-0.10888671875,-1.4953612089157104,0.6103515028953552,-0.0610351525247097,86.66667175292969,44011.0,1.0
18:10:46.729679,137787.78125,144215.515625,163114.984375,159865.140625,185431.515625,182631.015625,686189.1875,132878.890625,0.0078125,1.009765625,-0.107666015625,-1.5869139432907104,0.5187987685203552,-0.1220703050494194,86.66667175292969,44012.0,1.0
18:10:46.729762,137782.234375,144205.234375,163123.578125,159870.234375,185447.78125,182642.640625,685983.0,132886.84375,0.01025390625,1.00927734375,-0.111328125,-1.5563963651657104,0.4272460639476776,-0.0915527269244194,86.66667175292969,44013.0,1.0
18:10:46.743995,137759.984375,144171.0,163102.390625,159865.046875,185421.40625,182610.8125,686014.75,132886.21875,0.009765625,1.0068359375,-0.11328125,-1.6784666776657104,0.3051757514476776,0.03051757626235485,86.66667175292969,44014.0,1.0
18:10:46.747585,137772.5,144195.9375,163107.21875,159867.28125,185423.28125,182620.734375,686029.4375,132885.328125,0.00830078125,1.00732421875,-0.1123046875,-1.6479490995407104,0.2746581733226776,0.0,86.66667175292969,44015.0,1.0
18:10:46.747630,137790.828125,144220.25,163116.421875,159868.71875,185432.5,182634.40625,686202.6875,132882.46875,0.0078125,1.00830078125,-0.10888671875,-1.6784666776657104,0.1525878757238388,0.0610351525247097,86.66667175292969,44016.0,1.0
18:10:46.747650,137785.015625,144209.796875,163123.578125,159866.203125,185446.53125,182646.390625,686004.6875,132883.625,0.0068359375,1.0078125,-0.107421875,-1.5563963651657104,0.0915527269244194,0.1525878757238388,86.66667175292969,44017.0,1.0
18:10:46.750183,137771.234375,144184.578125,163112.3125,159871.125,185429.546875,182625.46875,686000.5625,132893.015625,0.00830078125,1.008544921875,-0.108154296875,-1.6784666776657104,-0.0610351525247097,0.2441406100988388,86.66667175292969,44018.0,1.0
18:10:46.752721,137771.6875,144189.40625,163106.3125,159867.734375,185421.859375,182617.515625,686022.125,132889.359375,0.006103515625,1.0078125,-0.107666015625,-1.8005369901657104,-0.1525878757238388,0.4272460639476776,86.66667175292969,44019.0,1.0
18:10:46.762674,137785.8125,144210.953125,163110.609375,159865.5,185425.078125,182621.1875,686204.6875,132886.3125,0.005859375,1.01025390625,-0.109130859375,-1.7395018339157104,-0.1525878757238388,0.5493163466453552,86.66667175292969,44020.0,1.0
18:10:46.765806,137788.765625,144213.375,163123.3125,159868.09375,185445.90625,182641.828125,686070.1875,132889.265625,0.005615234375,1.0107421875,-0.1083984375,-1.8005369901657104,-0.3356933295726776,0.7324218153953552,86.66667175292969,44021.0,1.0
18:10:46.765837,137769.546875,144179.390625,163109.453125,159867.375,185430.625,182623.0625,686020.0625,132890.515625,0.0068359375,1.0107421875,-0.10888671875,-1.8615721464157104,-0.2746581733226776,0.8239745497703552,86.66667175292969,44022.0,1.0
18:10:46.772687,137767.9375,144180.5625,163103.640625,159866.484375,185421.140625,182615.375,686036.5625,132888.1875,0.005126953125,1.00927734375,-0.10888671875,-1.8005369901657104,-0.3662109076976776,0.9460448622703552,86.66667175292969,44023.0,1.0
18:10:46.779570,137791.453125,144215.703125,163116.875,159874.25,185431.328125,182630.390625,686199.3125,132889.890625,0.007080078125,1.0087890625,-0.10986328125,-1.8615721464157104,-0.5187987685203552,1.1291502714157104,86.66667175292969,44024.0,1.0
18:10:46.779582,137793.234375,144216.234375,163125.0,159875.234375,185447.25,182644.421875,686117.6875,132889.984375,0.005859375,1.009765625,-0.108642578125,-1.8005369901657104,-0.5798339247703552,1.0375975370407104,86.66667175292969,44025.0,1.0
18:10:46.782185,137765.96875,144176.71875,163106.3125,159866.921875,185427.671875,182622.25,686005.375,132887.125,0.00732421875,1.010009765625,-0.111328125,-1.8615721464157104,-0.7019042372703552,1.0681151151657104,86.66667175292969,44026.0,1.0
18:10:46.782251,137754.34375,144165.546875,163092.109375,159855.03125,185408.625,182604.734375,686040.625,132879.96875,0.009033203125,1.010009765625,-0.111328125,-1.9226073026657104,-0.7629393935203552,1.1596678495407104,86.66667175292969,44027.0,1.0
18:10:46.791470,137777.40625,144196.75,163104.171875,159862.546875,185417.5625,182613.671875,686168.4375,132880.765625,0.009033203125,1.009765625,-0.10791015625,-1.9531248807907104,-0.7934569716453552,1.0986326932907104,86.66667175292969,44028.0,1.0
18:10:46.794453,137777.671875,144200.59375,163106.859375,159855.484375,185426.0625,182626.375,686165.875,132871.46875,0.00927734375,1.00732421875,-0.108154296875,-1.9531248807907104,-0.7629393935203552,1.1901854276657104,86.66667175292969,44029.0,1.0
18:10:46.797780,137765.515625,144179.046875,163107.03125,159862.28125,185429.90625,182628.15625,686006.625,132883.71875,0.010498046875,1.006591796875,-0.108642578125,-1.9531248807907104,-0.7629393935203552,1.0681151151657104,86.66667175292969,44030.0,1.0
18:10:46.808245,137752.640625,144157.9375,163090.578125,159858.4375,185408.53125,182601.515625,686056.0,132882.640625,0.011474609375,1.007080078125,-0.110595703125,-1.9531248807907104,-0.8544921278953552,1.0070799589157104,86.66667175292969,44031.0,1.0
18:10:46.808273,137768.203125,144184.40625,163094.515625,159858.875,185409.421875,182605.984375,686134.3125,132879.96875,0.01318359375,1.00634765625,-0.110595703125,-1.9531248807907104,-0.8544921278953552,0.8850097060203552,86.66667175292969,44032.0,1.0
18:10:46.810696,137778.9375,144201.21875,163103.453125,159855.484375,185421.3125,182622.609375,686217.0,132873.796875,0.012939453125,1.007568359375,-0.10888671875,-1.9531248807907104,-0.8239745497703552,0.8850097060203552,86.66667175292969,44033.0,1.0
18:10:46.810713,137760.78125,144176.625,163098.71875,159851.015625,185421.234375,182620.5625,686018.25,132871.109375,0.013916015625,1.0087890625,-0.109375,-1.9531248807907104,-0.7629393935203552,0.8850097060203552,86.66667175292969,44034.0,1.0
18:10:46.817855,137746.5625,144150.875,163083.34375,159852.359375,185399.234375,182595.4375,686059.375,132875.140625,0.015869140625,1.0078125,-0.110595703125,-2.014159917831421,-0.6713866591453552,0.9765624403953552,86.66667175292969,44035.0,1.0
18:10:46.823946,137763.640625,144175.546875,163091.296875,159857.71875,185405.40625,182600.078125,686116.0625,132878.09375,0.017333984375,1.00634765625,-0.1083984375,-1.9836424589157104,-0.6713866591453552,0.8544921278953552,86.66667175292969,44036.0,1.0
18:10:46.828179,137779.109375,144197.90625,163101.671875,159857.453125,185417.203125,182615.015625,686253.375,132874.6875,0.019287109375,1.006103515625,-0.110595703125,-1.8615721464157104,-0.5798339247703552,0.7629393935203552,86.66667175292969,44037.0,1.0
18:10:46.828204,137772.40625,144189.6875,163108.640625,159860.84375,185432.046875,182628.515625,686036.875,132879.703125,0.0205078125,1.00732421875,-0.107177734375,-1.8005369901657104,-0.4882812201976776,0.8239745497703552,86.66667175292969,44038.0,1.0
18:10:46.836389,137754.796875,144161.0625,163094.078125,159861.828125,185411.578125,182604.28125,686054.1875,132886.046875,0.02099609375,1.006103515625,-0.107177734375,-1.7089842557907104,-0.3967284858226776,0.7629393935203552,86.66667175292969,44039.0,1.0
18:10:46.839498,137757.65625,144174.296875,163089.78125,159853.96875,185405.765625,182601.78125,686080.125,132878.4375,0.02099609375,1.002197265625,-0.10595703125,-1.6784666776657104,-0.2136230319738388,0.7934569716453552,86.66667175292969,44040.0,1.0
18:10:46.839520,137779.921875,144204.15625,163102.65625,159859.953125,185418.1875,182617.96875,686254.375,132878.53125,0.0234375,1.00341796875,-0.109130859375,-1.6479490995407104,-0.0915527269244194,0.8544921278953552,86.66667175292969,44041.0,1.0
18:10:46.846334,137777.328125,144199.609375,163113.203125,159862.640625,185435.265625,182633.15625,686059.5625,132882.734375,0.0234375,1.004150390625,-0.109619140625,-1.6479490995407104,0.03051757626235485,0.8544921278953552,86.66667175292969,44042.0,1.0
18:10:46.854499,137769.28125,144178.5,163109.1875,159876.21875,185427.578125,182623.0625,686040.0,132900.96875,0.02392578125,1.005126953125,-0.105224609375,-1.6784666776657104,0.0610351525247097,0.7934569716453552,86.66667175292969,44043.0,1.0
18:10:46.854518,137767.390625,144183.421875,163102.828125,159869.421875,185419.171875,182618.40625,686065.1875,132895.515625,0.02294921875,1.00537109375,-0.107421875,-1.5869139432907104,0.3051757514476776,0.8239745497703552,86.66667175292969,44044.0,1.0
18:10:46.857035,137778.65625,144203.0,163102.75,159863.96875,185416.578125,182613.671875,686244.8125,132882.375,0.0224609375,1.005615234375,-0.108642578125,-1.4648436307907104,0.3356933295726776,0.7934569716453552,86.66667175292969,44045.0,1.0
18:10:46.857054,137779.734375,144209.4375,163113.828125,159860.84375,185434.46875,182635.484375,686107.6875,132878.4375,0.021484375,1.006591796875,-0.111328125,-1.5563963651657104,0.4577636420726776,0.7324218153953552,86.66667175292969,44046.0,1.0
18:10:46.867589,137757.296875,144174.484375,163099.34375,159861.03125,185417.03125,182612.6875,686039.375,132882.46875,0.020263671875,1.006103515625,-0.11181640625,-1.4953612089157104,0.5798339247703552,0.6408690810203552,86.66667175292969,44047.0,1.0
18:10:46.874548,137753.546875,144165.453125,163090.765625,159858.4375,185404.6875,182597.3125,686063.3125,132882.109375,0.01953125,1.0068359375,-0.109619140625,-1.5563963651657104,0.7629393935203552,0.5187987685203552,86.66667175292969,44048.0,1.0
18:10:46.874573,137774.90625,144197.8125,163100.15625,159860.84375,185409.875,182608.3125,686219.25,132878.265625,0.01806640625,1.007080078125,-0.110107421875,-1.5869139432907104,0.7019042372703552,0.4577636420726776,86.66667175292969,44049.0,1.0
18:10:46.880761,137782.59375,144209.265625,163114.546875,159863.078125,185432.234375,182632.171875,686151.0,132879.421875,0.017822265625,1.005859375,-0.10986328125,-1.4648436307907104,0.7324218153953552,0.4272460639476776,86.66667175292969,44050.0,1.0
18:10:46.880792,137760.875,144174.296875,163102.125,159861.65625,185421.40625,182613.84375,686033.4375,132881.65625,0.0146484375,1.00634765625,-0.1103515625,-1.4038084745407104,0.7934569716453552,0.3967284858226776,86.66667175292969,44051.0,1.0
18:10:46.886922,137756.765625,144165.546875,163094.078125,159861.921875,185410.234375,182601.59375,686072.625,132884.609375,0.01220703125,1.00537109375,-0.10986328125,-1.4648436307907104,0.7934569716453552,0.3356933295726776,86.66667175292969,44052.0,1.0
18:10:46.886947,137779.921875,144198.984375,163104.890625,159868.265625,185417.921875,182614.296875,686195.125,132886.40625,0.0126953125,1.00341796875,-0.110595703125,-1.3427733182907104,0.7324218153953552,0.1831054538488388,86.66667175292969,44053.0,1.0
18:10:46.888769,137794.3125,144220.4375,163122.0625,159874.4375,185440.0,182640.9375,686204.25,132892.65625,0.01318359375,1.005859375,-0.1103515625,-1.3122557401657104,0.7629393935203552,0.2136230319738388,86.66667175292969,44054.0,1.0
18:10:46.901813,137781.25,144198.796875,163121.96875,159878.546875,185441.96875,182639.0625,686037.75,132902.5,0.01220703125,1.00537109375,-0.10791015625,-1.2817381620407104,0.6713866591453552,0.0915527269244194,86.66667175292969,44055.0,1.0
18:10:46.903790,137770.265625,144179.125,163107.484375,159877.390625,185421.671875,182616.890625,686078.9375,132902.40625,0.01123046875,1.00634765625,-0.107666015625,-1.3122557401657104,0.6103515028953552,0.0915527269244194,86.66667175292969,44056.0,1.0
18:10:46.906275,137779.015625,144196.75,163105.609375,159871.125,185419.0,182618.140625,686151.3125,132892.21875,0.012451171875,1.007080078125,-0.109130859375,-1.2512205839157104,0.7019042372703552,0.03051757626235485,86.66667175292969,44057.0,1.0
18:10:46.908802,137785.90625,144209.265625,163112.125,159866.390625,185429.71875,182627.4375,686230.4375,132886.3125,0.012939453125,1.00537109375,-0.10986328125,-1.1901854276657104,0.6103515028953552,0.0,86.66667175292969,44058.0,1.0
18:10:46.912545,137770.171875,144188.78125,163110.796875,159866.03125,185433.03125,182625.296875,686024.75,132887.75,0.009033203125,1.003662109375,-0.107421875,-1.1291502714157104,0.5187987685203552,0.0610351525247097,86.66667175292969,44059.0,1.0
18:10:46.945788,137754.796875,144163.75,163096.21875,159867.1875,185413.984375,182603.484375,686062.625,132893.015625,0.009521484375,1.003173828125,-0.110107421875,-1.1596678495407104,0.4577636420726776,0.03051757626235485,86.66667175292969,44060.0,1.0
18:10:46.945839,137766.140625,144189.234375,163099.53125,159865.3125,185414.96875,182610.90625,686102.375,132889.078125,0.009765625,1.00390625,-0.112548828125,-1.0070799589157104,0.4272460639476776,0.0915527269244194,86.66667175292969,44061.0,1.0
18:10:46.947559,137790.46875,144218.015625,163116.59375,159873.546875,185433.296875,182629.765625,686251.1875,132893.734375,0.00927734375,1.004638671875,-0.111328125,-0.9155272841453552,0.3967284858226776,0.1525878757238388,86.66667175292969,44062.0,1.0
18:10:46.950114,137776.875,144197.71875,163115.265625,159868.09375,185437.765625,182631.90625,686026.3125,132889.703125,0.008056640625,1.006103515625,-0.108154296875,-0.8544921278953552,0.2746581733226776,0.2136230319738388,86.66667175292969,44063.0,1.0
18:10:46.952557,137764.453125,144174.84375,163104.796875,159875.234375,185422.390625,182615.453125,686041.75,132899.546875,0.009521484375,1.00537109375,-0.1083984375,-0.8544921278953552,0.1220703050494194,0.3356933295726776,86.66667175292969,44064.0,1.0
18:10:46.955235,137775.984375,144197.09375,163107.484375,159874.171875,185421.859375,182620.375,686057.5625,132897.84375,0.009765625,1.00634765625,-0.110595703125,-0.8850097060203552,0.1220703050494194,0.2441406100988388,86.66667175292969,44065.0,1.0
18:10:46.957604,137786.171875,144212.03125,163108.375,159869.703125,185421.046875,182619.03125,686228.25,132889.53125,0.010986328125,1.007568359375,-0.11083984375,-0.8239745497703552,0.03051757626235485,0.3356933295726776,86.66667175292969,44066.0,1.0
18:10:46.960143,137786.4375,144210.875,163120.359375,159872.734375,185441.796875,182639.328125,686051.3125,132891.59375,0.0107421875,1.007568359375,-0.107421875,-0.7934569716453552,0.0,0.3356933295726776,86.66667175292969,44067.0,1.0
18:10:46.962683,137765.25,144178.234375,163104.171875,159869.96875,185422.21875,182618.671875,686018.3125,132893.375,0.010009765625,1.006591796875,-0.1103515625,-0.7019042372703552,-0.1831054538488388,0.4272460639476776,86.66667175292969,44068.0,1.0
18:10:46.992723,137763.375,144181.546875,163098.8125,159866.921875,185413.71875,182610.28125,686014.125,132888.546875,0.008544921875,1.0048828125,-0.11328125,-0.7629393935203552,-0.2136230319738388,0.4272460639476776,86.66667175292969,44069.0,1.0
18:10:47.007604,137782.0625,144206.578125,163106.859375,159870.234375,185419.359375,182616.265625,686187.75,132883.984375,0.009765625,1.00634765625,-0.1103515625,-0.7629393935203552,-0.3967284858226776,0.4577636420726776,86.66667175292969,44070.0,1.0
18:10:47.015167,137774.640625,144198.171875,163109.09375,159861.296875,185429.984375,182623.5,686051.625,132877.640625,0.009521484375,1.00830078125,-0.11279296875,-0.7934569716453552,-0.3662109076976776,0.4272460639476776,86.66667175292969,44071.0,1.0
18:10:47.018291,137761.765625,144172.875,163102.828125,159868.890625,185421.859375,182612.421875,685986.4375,132890.78125,0.008544921875,1.00732421875,-0.11669921875,-0.7629393935203552,-0.3967284858226776,0.5798339247703552,86.66667175292969,44072.0,1.0
18:10:47.018328,137765.25,144179.046875,163101.484375,159871.3125,185417.46875,182615.109375,685996.1875,132895.875,0.009521484375,1.008544921875,-0.115478515625,-0.7629393935203552,-0.4272460639476776,0.6713866591453552,86.66667175292969,44073.0,1.0
18:10:47.020213,137777.765625,144201.921875,163102.03125,159867.1875,185414.4375,182614.125,686134.375,132886.765625,0.010986328125,1.0078125,-0.11328125,-0.5493163466453552,-0.4577636420726776,0.6713866591453552,86.66667175292969,44074.0,1.0
18:10:47.022726,137790.28125,144220.609375,163119.109375,159872.921875,185437.234375,182641.125,686088.4375,132893.375,0.011962890625,1.0078125,-0.1142578125,-0.6408690810203552,-0.5798339247703552,0.7019042372703552,86.66667175292969,44075.0,1.0
18:10:47.025237,137768.203125,144188.15625,163106.40625,159868.890625,185422.75,182622.34375,685964.1875,132893.28125,0.013427734375,1.00537109375,-0.1103515625,-0.5493163466453552,-0.6408690810203552,0.7324218153953552,86.66667175292969,44076.0,1.0
18:10:47.027560,137746.390625,144159.28125,163082.265625,159855.125,185393.609375,182588.546875,685969.875,132881.578125,0.013427734375,1.00927734375,-0.112548828125,-0.7019042372703552,-0.5798339247703552,0.7324218153953552,86.66667175292969,44077.0,1.0
18:10:47.030152,137763.375,144184.140625,163086.375,159854.234375,185393.78125,182591.140625,686064.5625,132870.671875,0.012451171875,1.00927734375,-0.112060546875,-0.6408690810203552,-0.5798339247703552,0.8239745497703552,86.66667175292969,44078.0,1.0
18:10:47.032588,137773.921875,144202.375,163099.703125,159852.53125,185412.109375,182614.125,686115.0,132866.203125,0.0126953125,1.00927734375,-0.11376953125,-0.8239745497703552,-0.5798339247703552,0.7629393935203552,86.66667175292969,44079.0,1.0
18:10:47.035064,137762.65625,144185.125,163101.3125,159857.265625,185416.578125,182618.59375,685937.8125,132875.40625,0.01171875,1.01025390625,-0.115478515625,-0.8544921278953552,-0.6103515028953552,0.7019042372703552,86.66667175292969,44080.0,1.0
18:10:47.037683,137750.953125,144166.96875,163087.359375,159856.640625,185397.984375,182599.09375,685975.0,132879.875,0.01416015625,1.009765625,-0.11279296875,-1.0070799589157104,-0.6408690810203552,0.7324218153953552,86.66667175292969,44081.0,1.0
18:10:47.040064,137767.578125,144191.921875,163094.078125,159857.265625,185403.265625,182604.015625,686037.3125,132876.203125,0.0146484375,1.011962890625,-0.115478515625,-1.0070799589157104,-0.5798339247703552,0.7934569716453552,86.66667175292969,44082.0,1.0
18:10:47.042523,137783.21875,144214.625,163107.65625,159859.5,185420.15625,182623.6875,686143.25,132876.296875,0.0166015625,1.01171875,-0.11279296875,-1.0681151151657104,-0.6103515028953552,0.8239745497703552,86.66667175292969,44083.0,1.0
18:10:47.045756,137771.0625,144196.5625,163108.109375,159858.609375,185426.0625,182627.0,685944.9375,132878.625,0.0185546875,1.011962890625,-0.114013671875,-1.1901854276657104,-0.4882812201976776,0.8239745497703552,86.66667175292969,44084.0,1.0
18:10:47.048278,137758.09375,144174.75,163095.40625,159858.609375,185405.578125,182607.59375,685990.625,132882.296875,0.018798828125,1.01318359375,-0.114990234375,-1.1901854276657104,-0.3662109076976776,0.7019042372703552,86.66667175292969,44085.0,1.0
18:10:47.048588,137771.421875,144199.328125,163101.84375,159861.296875,185410.5,182618.671875,686011.5625,132881.484375,0.019287109375,1.013671875,-0.11474609375,-1.3122557401657104,-0.3662109076976776,0.6408690810203552,86.66667175292969,44086.0,1.0
18:10:47.051881,137773.484375,144206.125,163098.546875,159852.53125,185410.046875,182613.21875,686143.625,132871.203125,0.017822265625,1.012451171875,-0.110595703125,-1.4953612089157104,-0.3051757514476776,0.4272460639476776,86.66667175292969,44087.0,1.0
18:10:47.051946,137760.421875,144187.71875,163098.453125,159847.875,185417.65625,182615.375,685935.8125,132871.65625,0.015869140625,1.014404296875,-0.113037109375,-1.5869139432907104,-0.2441406100988388,0.4272460639476776,86.66667175292969,44088.0,1.0
18:10:47.051970,137746.125,144158.125,163085.125,159853.421875,185398.609375,182592.125,685962.375,132877.015625,0.018310546875,1.012939453125,-0.1142578125,-1.6479490995407104,-0.1831054538488388,0.3051757514476776,86.66667175292969,44089.0,1.0
18:10:47.051992,137754.703125,144171.796875,163086.375,159852.0,185396.640625,182591.3125,685999.9375,132872.71875,0.01611328125,1.012451171875,-0.114501953125,-1.7700194120407104,-0.0915527269244194,0.3662109076976776,86.66667175292969,44090.0,1.0
18:10:47.056323,137762.84375,144190.390625,163085.75,159842.78125,185395.65625,182594.359375,686123.5,132858.859375,0.0166015625,1.011962890625,-0.113037109375,-1.8310545682907104,-0.0915527269244194,0.3662109076976776,86.66667175292969,44091.0,1.0
18:10:47.059474,137759.4375,144189.953125,163096.03125,159844.65625,185415.234375,182614.75,685951.5625,132863.25,0.01708984375,1.0087890625,-0.114013671875,-1.8920897245407104,0.0,0.4577636420726776,86.66667175292969,44092.0,1.0
18:10:47.059490,137740.125,144156.15625,163082.1875,159849.484375,185397.453125,182591.59375,685954.0625,132872.1875,0.016357421875,1.008056640625,-0.112548828125,-1.7700194120407104,0.1220703050494194,0.4577636420726776,86.66667175292969,44093.0,1.0
18:10:47.061218,137743.171875,144161.609375,163078.875,159847.875,185390.296875,182584.4375,686035.125,132869.328125,0.0166015625,1.007080078125,-0.11181640625,-1.8615721464157104,0.1220703050494194,0.4577636420726776,86.66667175292969,44094.0,1.0
18:10:47.063880,137767.484375,144195.9375,163091.828125,159851.90625,185399.5,182598.46875,686151.0,132867.171875,0.01513671875,1.005615234375,-0.11376953125,-1.8005369901657104,0.1831054538488388,0.4272460639476776,86.66667175292969,44095.0,1.0
18:10:47.066881,137775.625,144206.40625,163110.25,159858.609375,185424.984375,182625.03125,686022.125,132874.6875,0.01416015625,1.00244140625,-0.11474609375,-1.7700194120407104,0.1831054538488388,0.4577636420726776,86.66667175292969,44096.0,1.0
18:10:47.066892,137754.25,144169.109375,163096.578125,159859.59375,185410.046875,182601.78125,685958.0,132880.765625,0.0146484375,1.001220703125,-0.114990234375,-1.7089842557907104,0.2746581733226776,0.5798339247703552,86.66667175292969,44097.0,1.0
18:10:47.068846,137745.9375,144160.09375,163084.953125,159854.859375,185396.015625,182588.015625,685996.1875,132880.953125,0.013427734375,1.00146484375,-0.11572265625,-1.6479490995407104,0.2441406100988388,0.4882812201976776,86.66667175292969,44098.0,1.0
18:10:47.080606,137762.125,144186.546875,163090.3125,159853.78125,185399.328125,182592.921875,686114.8125,132876.125,0.0126953125,1.003662109375,-0.113037109375,-1.4953612089157104,0.3356933295726776,0.6408690810203552,86.66667175292969,44099.0,1.0
18:10:47.080618,137766.59375,144190.65625,163099.171875,159850.46875,185414.796875,182605.890625,686074.875,132868.25,0.011474609375,1.006103515625,-0.111572265625,-1.4953612089157104,0.3662109076976776,0.6103515028953552,86.66667175292969,44100.0,1.0
18:10:47.086875,137748.078125,144165.546875,163089.953125,159851.375,185405.578125,182597.9375,685928.75,132870.671875,0.01025390625,1.008544921875,-0.109130859375,-1.4953612089157104,0.2441406100988388,0.7019042372703552,86.66667175292969,44101.0,1.0
18:10:47.086888,137735.21875,144149.265625,163072.53125,159843.40625,185383.859375,182576.296875,685978.9375,132866.015625,0.009033203125,1.007080078125,-0.109375,-1.6174315214157104,0.1831054538488388,0.5798339247703552,86.66667175292969,44102.0,1.0
18:10:47.089447,137755.859375,144179.671875,163082.453125,159847.078125,185390.5625,182584.96875,686070.8125,132865.84375,0.01025390625,1.003662109375,-0.111328125,-1.5869139432907104,0.1525878757238388,0.5493163466453552,86.66667175292969,44103.0,1.0
18:10:47.089466,137762.65625,144192.546875,163092.8125,159844.3125,185405.140625,182601.875,686100.875,132862.171875,0.011962890625,1.001220703125,-0.112548828125,-1.5258787870407104,0.0610351525247097,0.6713866591453552,86.66667175292969,44104.0,1.0
18:10:47.098884,137752.5625,144172.421875,163094.96875,159852.0,185409.875,182601.953125,685918.125,132870.9375,0.013427734375,1.00244140625,-0.11669921875,-1.5258787870407104,0.0610351525247097,0.7324218153953552,86.66667175292969,44105.0,1.0
18:10:47.105678,137733.609375,144146.234375,163074.046875,159844.3125,185385.640625,182574.953125,685972.75,132867.625,0.0166015625,1.002685546875,-0.1162109375,-1.5258787870407104,-0.03051757626235485,0.8239745497703552,86.66667175292969,44106.0,1.0
18:10:47.105704,137749.609375,144171.984375,163080.578125,159846.1875,185390.109375,182580.5,686044.375,132864.234375,0.020751953125,1.005126953125,-0.1171875,-1.4953612089157104,0.0915527269244194,1.0375975370407104,86.66667175292969,44107.0,1.0
18:10:47.115694,137758.90625,144188.703125,163086.203125,159842.34375,185399.6875,182593.734375,686136.0625,132859.140625,0.020751953125,1.00634765625,-0.11572265625,-1.4038084745407104,0.1831054538488388,1.2512205839157104,86.66667175292969,44108.0,1.0
18:10:47.115718,137750.5,144176.53125,163090.765625,159845.203125,185410.5,182604.640625,685929.125,132867.09375,0.021728515625,1.005615234375,-0.117431640625,-1.3427733182907104,0.2441406100988388,1.3122557401657104,86.66667175292969,44109.0,1.0
18:10:47.118288,137736.640625,144155.4375,163076.1875,159846.984375,185390.203125,182586.3125,685984.875,132874.25,0.021240234375,1.00390625,-0.115966796875,-1.3122557401657104,0.3967284858226776,1.4343260526657104,86.66667175292969,44110.0,1.0
18:10:47.118312,137755.59375,144180.65625,163086.296875,159855.296875,185396.90625,182592.578125,686041.875,132878.09375,0.01953125,1.00341796875,-0.1171875,-1.1596678495407104,0.4272460639476776,1.4953612089157104,86.66667175292969,44111.0,1.0
18:10:47.131496,137764.171875,144194.5,163088.34375,159847.4375,185399.765625,182597.84375,686168.125,132866.640625,0.016845703125,1.005126953125,-0.114013671875,-1.0375975370407104,0.4272460639476776,1.3427733182907104,86.66667175292969,44112.0,1.0
18:10:47.143284,137750.59375,144180.65625,163087.359375,159839.65625,185406.390625,182603.84375,685955.3125,132861.71875,0.015869140625,1.0087890625,-0.112060546875,-1.0681151151657104,0.5493163466453552,1.2207030057907104,86.66667175292969,44113.0,1.0
18:10:47.143347,137733.0625,144148.640625,163073.328125,159841.890625,185387.703125,182576.921875,685979.875,132868.875,0.01611328125,1.009521484375,-0.1103515625,-1.1291502714157104,0.5187987685203552,0.9765624403953552,86.66667175292969,44114.0,1.0
18:10:47.143365,137741.015625,144165.359375,163075.921875,159841.171875,185387.875,182579.703125,685990.625,132866.90625,0.013916015625,1.009765625,-0.111328125,-1.2207030057907104,0.4882812201976776,0.8239745497703552,86.66667175292969,44115.0,1.0
18:10:47.143380,137756.765625,144189.5,163082.453125,159839.5625,185392.34375,182588.09375,686152.875,132858.6875,0.013916015625,1.01025390625,-0.114501953125,-1.1901854276657104,0.4272460639476776,0.6103515028953552,86.66667175292969,44116.0,1.0
18:10:47.145844,137754.515625,144188.609375,163091.65625,159840.015625,185409.421875,182606.703125,685978.9375,132860.65625,0.014404296875,1.010009765625,-0.115478515625,-1.1596678495407104,0.3967284858226776,0.3662109076976776,86.66667175292969,44117.0,1.0
18:10:47.145905,137737.359375,144158.03125,163078.0625,159843.859375,185391.453125,182587.296875,685957.875,132867.625,0.014404296875,1.0078125,-0.11572265625,-1.2512205839157104,0.3356933295726776,0.1525878757238388,86.66667175292969,44118.0,1.0
18:10:47.155643,137739.859375,144161.703125,163074.484375,159842.609375,185385.109375,182580.046875,685976.75,132867.359375,0.013427734375,1.008544921875,-0.1142578125,-1.2817381620407104,0.3662109076976776,-0.03051757626235485,86.66667175292969,44119.0,1.0
18:10:47.160992,137762.65625,144193.703125,163085.046875,159847.96875,185393.421875,182593.734375,686133.125,132866.28125,0.01416015625,1.009765625,-0.11376953125,-1.3732908964157104,0.3356933295726776,-0.1831054538488388,86.66667175292969,44120.0,1.0
18:10:47.161076,137759.703125,144190.3125,163092.46875,159843.953125,185406.921875,182606.078125,686018.0625,132863.609375,0.015380859375,1.00927734375,-0.113525390625,-1.3122557401657104,0.2441406100988388,-0.3356933295726776,86.66667175292969,44121.0,1.0
18:10:47.170297,137742.90625,144158.484375,163083.078125,159848.15625,185394.671875,182587.125,685951.3125,132874.15625,0.01611328125,1.010009765625,-0.11279296875,-1.3427733182907104,0.2746581733226776,-0.3662109076976776,86.66667175292969,44122.0,1.0
18:10:47.174545,137738.515625,144158.5625,163074.578125,159841.0,185382.875,182580.140625,685986.6875,132868.515625,0.016845703125,1.0107421875,-0.113525390625,-1.4648436307907104,0.3051757514476776,-0.3967284858226776,86.66667175292969,44123.0,1.0
18:10:47.174556,137758.1875,144184.765625,163081.375,159841.09375,185386.890625,182584.171875,686120.1875,132861.015625,0.015625,1.009521484375,-0.1123046875,-1.3427733182907104,0.2746581733226776,-0.3051757514476776,86.66667175292969,44124.0,1.0
18:10:47.182300,137762.65625,144189.765625,163091.484375,159839.203125,185404.328125,182601.328125,686078.875,132859.84375,0.017333984375,1.008056640625,-0.1123046875,-1.3732908964157104,0.4577636420726776,-0.3662109076976776,86.66667175292969,44125.0,1.0
18:10:47.182314,137748.078125,144168.484375,163087.359375,159843.328125,185401.46875,182601.0625,685947.4375,132868.078125,0.015869140625,1.009765625,-0.112060546875,-1.3732908964157104,0.3662109076976776,-0.3051757514476776,86.66667175292969,44126.0,1.0
18:10:47.184580,137728.140625,144144.0,163065.28125,159830.09375,185375.1875,182568.609375,685978.75,132860.390625,0.0166015625,1.01025390625,-0.1123046875,-1.4648436307907104,0.3356933295726776,-0.2441406100988388,86.66667175292969,44127.0,1.0
18:10:47.184617,137743.53125,144170.375,163069.75,159828.296875,185376.53125,182572.90625,686073.6875,132853.046875,0.016845703125,1.011474609375,-0.110595703125,-1.5563963651657104,0.4272460639476776,-0.1220703050494194,86.66667175292969,44128.0,1.0
18:10:47.200110,137755.15625,144188.25,163082.0,159829.90625,185394.40625,182593.5625,686120.1875,132853.40625,0.0146484375,1.009521484375,-0.1103515625,-1.5563963651657104,0.4577636420726776,-0.0610351525247097,86.66667175292969,44129.0,1.0
18:10:47.204534,137736.90625,144162.59375,163077.359375,159828.65625,185392.34375,182589.703125,685928.375,132854.84375,0.01171875,1.01123046875,-0.109375,-1.6784666776657104,0.4272460639476776,-0.03051757626235485,86.66667175292969,44130.0,1.0
18:10:47.204555,137724.390625,144139.875,163063.046875,159827.9375,185371.78125,182567.453125,685973.3125,132857.34375,0.010009765625,1.0107421875,-0.11083984375,-1.7089842557907104,0.3356933295726776,0.1220703050494194,86.66667175292969,44131.0,1.0
18:10:47.210689,137741.828125,144165.890625,163068.953125,159830.53125,185373.390625,182570.484375,686030.5,132854.125,0.0078125,1.00927734375,-0.111572265625,-1.7395018339157104,0.2746581733226776,0.2136230319738388,86.66667175292969,44132.0,1.0
18:10:47.210706,137760.6875,144194.328125,163083.609375,159836.078125,185390.65625,182595.703125,686154.0,132856.71875,0.005859375,1.00927734375,-0.109619140625,-1.7700194120407104,0.0610351525247097,0.2136230319738388,86.66667175292969,44133.0,1.0
18:10:47.213251,137747.640625,144170.546875,163084.0625,159835.1875,185397.265625,182595.34375,685944.375,132862.984375,0.005615234375,1.008056640625,-0.109130859375,-1.8615721464157104,-0.03051757626235485,0.2441406100988388,86.66667175292969,44134.0,1.0
18:10:47.213262,137727.703125,144137.828125,163064.828125,159831.4375,185372.328125,182566.28125,685994.5,132860.828125,0.002197265625,1.009521484375,-0.108642578125,-1.9226073026657104,-0.2136230319738388,0.3356933295726776,86.66667175292969,44135.0,1.0
18:10:47.228845,137737.09375,144159.28125,163065.453125,159829.734375,185370.984375,182570.125,686005.8125,132854.390625,0.00244140625,1.01123046875,-0.1083984375,-2.105712652206421,-0.2136230319738388,0.3967284858226776,86.66667175292969,44136.0,1.0
18:10:47.233771,137750.5,144182.078125,163071.984375,159828.921875,185378.21875,182581.578125,686172.9375,132849.921875,0.0009765625,1.0107421875,-0.11083984375,-2.166747808456421,-0.3662109076976776,0.2136230319738388,86.66667175292969,44137.0,1.0
18:10:47.233785,137743.078125,144171.796875,163078.609375,159830.53125,185392.171875,182594.1875,685971.5,132855.015625,0.00048828125,1.009765625,-0.1083984375,-2.258300542831421,-0.4577636420726776,0.3356933295726776,86.66667175292969,44138.0,1.0
18:10:47.233788,137729.9375,144145.875,163067.515625,159835.0,185376.53125,182577.640625,685992.3125,132863.328125,0.001953125,1.0107421875,-0.109130859375,-2.258300542831421,-0.6713866591453552,0.3051757514476776,86.66667175292969,44139.0,1.0
18:10:47.236977,137742.546875,144165.265625,163073.328125,159840.640625,185379.03125,182579.703125,686007.0625,132865.84375,0.001953125,1.008544921875,-0.10986328125,-2.288818120956421,-0.8850097060203552,0.1525878757238388,86.66667175292969,44140.0,1.0
18:10:47.236988,137752.828125,144185.390625,163074.578125,159834.46875,185380.734375,182583.71875,686182.75,132856.09375,0.002197265625,1.008056640625,-0.1103515625,-2.258300542831421,-1.0070799589157104,0.1525878757238388,86.66667175292969,44141.0,1.0
18:10:47.243981,137755.859375,144189.59375,163089.59375,159840.375,185404.59375,182608.21875,686023.1875,132864.9375,0.004150390625,1.004638671875,-0.10986328125,-2.349853277206421,-1.1901854276657104,0.0610351525247097,86.66667175292969,44142.0,1.0
18:10:47.254560,137738.078125,144157.5,163076.546875,159843.046875,185388.328125,182585.421875,685996.5,132872.359375,0.005859375,1.004638671875,-0.109619140625,-2.380370855331421,-1.2817381620407104,0.0,86.66667175292969,44143.0,1.0
18:10:47.254595,137729.3125,144151.859375,163063.40625,159832.234375,185372.5,182570.046875,686002.0625,132861.640625,0.009521484375,1.003662109375,-0.10693359375,-2.319335699081421,-1.2512205839157104,0.1831054538488388,86.66667175292969,44144.0,1.0
18:10:47.257059,137754.796875,144188.515625,163077.4375,159840.8125,185383.859375,182586.9375,686177.6875,132864.9375,0.010986328125,1.001708984375,-0.107177734375,-2.319335699081421,-1.3732908964157104,0.2136230319738388,86.66667175292969,44145.0,1.0
18:10:47.257080,137764.53125,144200.59375,163096.75,159846.1875,185410.140625,182614.75,686078.625,132872.90625,0.01171875,1.001708984375,-0.109619140625,-2.258300542831421,-1.3732908964157104,0.2136230319738388,86.66667175292969,44146.0,1.0
18:10:47.266439,137741.375,144160.359375,163081.109375,159844.578125,185393.0625,182590.6875,685977.1875,132872.453125,0.012939453125,1.001220703125,-0.108642578125,-2.166747808456421,-1.4343260526657104,0.3662109076976776,86.66667175292969,44147.0,1.0
18:10:47.270817,137734.3125,144153.828125,163070.734375,159840.28125,185380.734375,182578.4375,686001.625,132868.703125,0.013427734375,1.0029296875,-0.109619140625,-2.105712652206421,-1.3732908964157104,0.5798339247703552,86.66667175292969,44148.0,1.0
18:10:47.270937,137755.0625,144183.6875,163081.375,159844.125,185387.34375,182586.3125,686144.875,132866.640625,0.0166015625,1.003173828125,-0.108154296875,-1.9836424589157104,-1.3732908964157104,0.6713866591453552,86.66667175292969,44149.0,1.0
18:10:47.280212,137759.53125,144190.484375,163091.5625,159842.515625,185404.0625,182602.859375,686114.8125,132865.75,0.017578125,1.001953125,-0.10986328125,-1.8005369901657104,-1.2817381620407104,0.7324218153953552,86.66667175292969,44150.0,1.0
18:10:47.284655,137747.015625,144169.109375,163088.96875,159849.046875,185402.453125,182597.125,685973.625,132877.015625,0.017578125,1.00341796875,-0.112548828125,-1.8310545682907104,-1.1291502714157104,0.8544921278953552,86.66667175292969,44151.0,1.0
18:10:47.284673,137747.453125,144169.109375,163086.296875,159853.875,185393.953125,182591.5,686017.375,132882.109375,0.01904296875,0.999755859375,-0.11181640625,-1.6784666776657104,-1.1291502714157104,0.9460448622703552,86.66667175292969,44152.0,1.0
18:10:47.286396,137764.359375,144194.234375,163091.390625,159851.734375,185395.296875,182597.3125,686119.125,132875.046875,0.01904296875,1.0,-0.10986328125,-1.5869139432907104,-0.9765624403953552,1.0070799589157104,86.66667175292969,44153.0,1.0
18:10:47.296305,137776.0625,144208.90625,163103.09375,159853.25,185410.671875,182612.6875,686167.375,132874.515625,0.01806640625,1.003662109375,-0.11083984375,-1.5258787870407104,-0.8850097060203552,1.0070799589157104,86.66667175292969,44154.0,1.0
18:10:47.300609,137767.671875,144191.921875,163107.921875,159861.203125,185418.546875,182618.40625,685989.8125,132884.53125,0.017822265625,1.00390625,-0.11328125,-1.3122557401657104,-0.6408690810203552,1.0375975370407104,86.66667175292969,44155.0,1.0
18:10:47.300633,137747.453125,144161.703125,163086.46875,159851.015625,185392.078125,182585.15625,686032.375,132880.5,0.020263671875,1.004150390625,-0.11181640625,-1.1291502714157104,-0.5798339247703552,1.0375975370407104,86.66667175292969,44156.0,1.0
18:10:47.306915,137749.421875,144174.65625,163077.703125,159839.296875,185381.625,182576.5625,686085.125,132865.03125,0.020751953125,1.00341796875,-0.112060546875,-1.0070799589157104,-0.3967284858226776,0.9460448622703552,86.66667175292969,44157.0,1.0
18:10:47.306949,137764.0,144197.453125,163090.3125,159841.890625,185396.375,182597.3125,686207.0625,132862.53125,0.018798828125,1.00390625,-0.111572265625,-0.9765624403953552,-0.3356933295726776,1.0375975370407104,86.66667175292969,44158.0,1.0
18:10:47.308860,137746.75,144174.65625,163087.640625,159835.546875,185398.25,182596.859375,685993.6875,132857.96875,0.018310546875,1.005126953125,-0.111572265625,-0.8239745497703552,-0.1831054538488388,0.9765624403953552,86.66667175292969,44159.0,1.0
18:10:47.321482,137734.140625,144151.859375,163076.1875,159839.03125,185382.15625,182578.984375,686033.125,132865.390625,0.0185546875,1.0068359375,-0.111572265625,-0.8239745497703552,-0.1220703050494194,0.8239745497703552,86.66667175292969,44160.0,1.0
18:10:47.324614,137746.46875,144171.703125,163081.28125,159839.5625,185384.75,182579.515625,686075.375,132862.625,0.017822265625,1.0087890625,-0.111328125,-0.7629393935203552,0.0915527269244194,0.7934569716453552,86.66667175292969,44161.0,1.0
18:10:47.324675,137762.03125,144192.359375,163089.78125,159842.078125,185393.15625,182588.1875,686235.3125,132860.828125,0.019287109375,1.008544921875,-0.108642578125,-0.7934569716453552,0.0915527269244194,0.7934569716453552,86.66667175292969,44162.0,1.0
18:10:47.326485,137763.828125,144190.9375,163103.90625,159849.578125,185414.4375,182608.75,686035.625,132871.203125,0.018798828125,1.008056640625,-0.111572265625,-0.6408690810203552,0.2136230319738388,0.6713866591453552,86.66667175292969,44163.0,1.0
18:10:47.378866,137750.953125,144165.1875,163094.96875,159856.46875,185402.09375,182590.15625,686068.25,132882.5625,0.018798828125,1.0068359375,-0.110107421875,-0.6408690810203552,0.2136230319738388,0.7324218153953552,86.66667175292969,44164.0,1.0
18:10:47.382143,137748.796875,144172.78125,163087.28125,159847.34375,185393.515625,182586.3125,686080.75,132871.375,0.019775390625,1.0078125,-0.112548828125,-0.7629393935203552,0.2746581733226776,0.5493163466453552,86.66667175292969,44165.0,1.0
18:10:47.382205,137767.125,144198.171875,163093.171875,159846.625,185396.90625,182594.0,686256.5,132865.84375,0.018798828125,1.007080078125,-0.11328125,-0.7019042372703552,0.3662109076976776,0.4882812201976776,86.66667175292969,44166.0,1.0
18:10:47.383899,137766.5,144193.25,163102.5625,159847.609375,185412.375,182604.546875,686077.4375,132871.375,0.01904296875,1.0078125,-0.111328125,-0.7324218153953552,0.5187987685203552,0.3967284858226776,86.66667175292969,44167.0,1.0
18:10:47.386469,137745.578125,144159.015625,163087.8125,159850.296875,185394.40625,182582.828125,686038.8125,132879.875,0.021240234375,1.00927734375,-0.115234375,-0.7629393935203552,0.5493163466453552,0.3662109076976776,86.66667175292969,44168.0,1.0
18:10:47.388927,137744.953125,144162.671875,163081.375,159847.25,185386.09375,182578.796875,686073.4375,132874.875,0.025390625,1.008544921875,-0.116455078125,-0.7934569716453552,0.7934569716453552,0.3662109076976776,86.66667175292969,44169.0,1.0
18:10:47.391483,137753.453125,144179.125,163078.0625,159837.15625,185380.375,182572.71875,686241.5625,132858.78125,0.023681640625,1.010009765625,-0.11328125,-0.8544921278953552,0.9765624403953552,0.3356933295726776,86.66667175292969,44170.0,1.0
18:10:47.393895,137757.203125,144188.078125,163089.78125,159836.265625,185398.703125,182594.359375,686130.125,132857.4375,0.023193359375,1.009033203125,-0.113525390625,-0.7019042372703552,1.1596678495407104,0.2746581733226776,86.66667175292969,44171.0,1.0
18:10:47.396488,137741.109375,144160.09375,163081.28125,159841.625,185388.15625,182582.375,686037.625,132866.46875,0.021240234375,1.008544921875,-0.115234375,-0.7934569716453552,1.3427733182907104,0.2746581733226776,86.66667175292969,44172.0,1.0
18:10:47.399024,137739.59375,144159.640625,163075.75,159842.15625,185379.65625,182574.78125,686085.0625,132868.703125,0.018310546875,1.008056640625,-0.1162109375,-0.7934569716453552,1.3732908964157104,0.3051757514476776,86.66667175292969,44173.0,1.0
18:10:47.401531,137764.796875,144195.21875,163090.671875,159852.0,185393.515625,182588.375,686248.5625,132875.40625,0.015869140625,1.00732421875,-0.114990234375,-0.8544921278953552,1.3122557401657104,0.3356933295726776,86.66667175292969,44174.0,1.0
18:10:47.403888,137759.984375,144195.140625,163090.9375,159838.40625,185400.046875,182598.828125,686187.25,132861.546875,0.0146484375,1.0068359375,-0.11328125,-0.7324218153953552,1.4648436307907104,0.3662109076976776,86.66667175292969,44175.0,1.0
18:10:47.406577,137740.578125,144165.265625,163081.109375,159836.078125,185390.203125,182586.9375,686041.75,132862.265625,0.0126953125,1.007080078125,-0.113525390625,-0.7934569716453552,1.4038084745407104,0.3356933295726776,86.66667175292969,44176.0,1.0
18:10:47.408935,137729.671875,144149.53125,163068.5,159831.875,185373.125,182569.59375,686090.875,132862.0,0.012939453125,1.0068359375,-0.112060546875,-0.8239745497703552,1.4648436307907104,0.2746581733226776,86.66667175292969,44177.0,1.0
18:10:47.411409,137753.0,144181.8125,163080.21875,159837.6875,185381.71875,182582.828125,686202.5,132863.78125,0.009521484375,1.0048828125,-0.113525390625,-0.9460448622703552,1.4953612089157104,0.2136230319738388,86.66667175292969,44178.0,1.0
18:10:47.413863,137764.359375,144195.578125,163090.046875,159837.875,185394.3125,182592.390625,686227.0,132863.78125,0.006591796875,1.00830078125,-0.115478515625,-0.9155272841453552,1.4953612089157104,0.1525878757238388,86.66667175292969,44179.0,1.0
18:10:47.416976,137755.328125,144179.9375,163093.359375,159843.59375,185400.484375,182597.578125,686020.9375,132870.578125,0.003662109375,1.010498046875,-0.114501953125,-0.9155272841453552,1.3122557401657104,0.0610351525247097,86.66667175292969,44180.0,1.0
18:10:47.417046,137738.875,144153.65625,163075.828125,159839.390625,185378.671875,182573.96875,686063.5,132867.265625,0.002197265625,1.010009765625,-0.114990234375,-1.0375975370407104,1.2207030057907104,0.0610351525247097,86.66667175292969,44181.0,1.0
18:10:47.419527,137755.421875,144176.265625,163083.4375,159843.765625,185384.390625,182575.765625,686146.9375,132866.90625,0.0009765625,1.009521484375,-0.113037109375,-1.0681151151657104,0.9765624403953552,0.03051757626235485,86.66667175292969,44182.0,1.0
18:10:47.419578,137763.203125,144190.3125,163087.28125,159838.765625,185392.171875,182585.515625,686253.0625,132860.203125,0.00048828125,1.012451171875,-0.1123046875,-1.1596678495407104,0.7934569716453552,-0.1220703050494194,86.66667175292969,44183.0,1.0
18:10:47.422012,137750.328125,144174.75,163087.984375,159836.265625,185399.328125,182592.21875,686029.9375,132860.46875,0.002197265625,1.012451171875,-0.111572265625,-1.2512205839157104,0.6408690810203552,-0.2441406100988388,86.66667175292969,44184.0,1.0
18:10:47.422072,137730.296875,144145.609375,163068.765625,159832.0625,185374.921875,182566.015625,686054.9375,132861.375,0.001708984375,1.009521484375,-0.113037109375,-1.3427733182907104,0.4272460639476776,-0.2136230319738388,86.66667175292969,44185.0,1.0
18:10:47.423896,137743.53125,144167.0625,163073.0625,159834.296875,185375.28125,182568.34375,686101.375,132861.28125,0.00341796875,1.011474609375,-0.11328125,-1.4953612089157104,0.2746581733226776,-0.1525878757238388,86.66667175292969,44186.0,1.0
18:10:47.427015,137762.484375,144195.21875,163082.71875,159837.328125,185385.5625,182584.703125,686262.875,132859.140625,0.004150390625,1.01171875,-0.11474609375,-1.5258787870407104,0.0,-0.0915527269244194,86.66667175292969,44187.0,1.0
18:10:47.427078,137761.9375,144190.9375,163095.859375,159844.65625,185407.015625,182603.5625,686055.8125,132871.203125,0.004150390625,1.009765625,-0.11328125,-1.4648436307907104,0.0,-0.0915527269244194,86.66667175292969,44188.0,1.0
18:10:47.436542,137740.21875,144157.5,163078.328125,159843.59375,185385.203125,182577.90625,686060.75,132874.875,0.002685546875,1.010009765625,-0.110595703125,-1.6174315214157104,-0.1525878757238388,0.0915527269244194,86.66667175292969,44189.0,1.0
18:10:47.443787,137742.8125,144171.53125,163074.40625,159836.171875,185379.203125,182577.1875,686064.9375,132867.984375,0.006591796875,1.01025390625,-0.108154296875,-1.6784666776657104,-0.2441406100988388,0.1220703050494194,86.66667175292969,44190.0,1.0
18:10:47.443846,137753.71875,144188.78125,163075.75,159831.609375,185380.734375,182581.03125,686237.9375,132857.796875,0.00537109375,1.011474609375,-0.10888671875,-1.7700194120407104,-0.3662109076976776,0.2746581733226776,86.66667175292969,44191.0,1.0
18:10:47.443875,137749.515625,144183.515625,163082.890625,159830.71875,185395.03125,182592.296875,686067.1875,132855.203125,0.003662109375,1.01220703125,-0.11083984375,-1.8005369901657104,-0.5187987685203552,0.3967284858226776,86.66667175292969,44192.0,1.0
18:10:47.447611,137730.828125,144148.734375,163070.203125,159830.8125,185375.453125,182565.84375,686020.3125,132857.796875,0.00537109375,1.012451171875,-0.1142578125,-1.8615721464157104,-0.7324218153953552,0.4577636420726776,86.66667175292969,44193.0,1.0
18:10:47.451461,137730.03125,144150.703125,163064.296875,159826.25,185364.71875,182557.53125,686013.4375,132852.703125,0.00537109375,1.01025390625,-0.111572265625,-1.9226073026657104,-0.8239745497703552,0.5493163466453552,86.66667175292969,44194.0,1.0
18:10:47.462737,137744.515625,144178.234375,163067.25,159822.671875,185364.71875,182564.3125,686171.875,132845.28125,0.005126953125,1.010009765625,-0.11328125,-2.044677495956421,-0.8850097060203552,0.7934569716453552,86.66667175292969,44195.0,1.0
18:10:47.462815,137744.78125,144181.1875,163075.03125,159819.265625,185380.375,182583.71875,686076.25,132843.484375,0.005126953125,1.0107421875,-0.1123046875,-2.075195074081421,-0.9765624403953552,0.8544921278953552,86.66667175292969,44196.0,1.0
18:10:47.463865,137726.1875,144149.625,163064.828125,159821.78125,185367.578125,182567.8125,685977.0625,132848.84375,0.006103515625,1.010498046875,-0.111328125,-2.258300542831421,-1.1596678495407104,0.9765624403953552,86.66667175292969,44197.0,1.0
18:10:47.477275,137717.0625,144134.78125,163052.3125,159817.125,185351.484375,182546.53125,685988.3125,132846.703125,0.008544921875,1.010986328125,-0.11181640625,-2.288818120956421,-1.2207030057907104,0.8850097060203552,86.66667175292969,44198.0,1.0
18:10:47.477475,137734.046875,144162.234375,163058.125,159817.03125,185353.640625,182551.171875,686109.0,132840.890625,0.00634765625,1.010986328125,-0.109130859375,-2.380370855331421,-1.2512205839157104,0.9765624403953552,86.66667175292969,44199.0,1.0
18:10:47.488029,137740.484375,144173.59375,163069.21875,159816.40625,185370.890625,182570.3125,686089.75,132840.265625,0.00830078125,1.008544921875,-0.11083984375,-2.471923589706421,-1.4038084745407104,1.0070799589157104,86.66667175292969,44200.0,1.0
18:10:47.488122,137728.6875,144151.6875,163067.609375,159821.421875,185370.796875,182564.5,685942.8125,132851.4375,0.009765625,1.00634765625,-0.111328125,-2.471923589706421,-1.3427733182907104,0.9460448622703552,86.66667175292969,44201.0,1.0
18:10:47.488356,137726.890625,144142.734375,163062.421875,159826.421875,185360.875,182553.234375,685975.625,132856.625,0.01123046875,1.006103515625,-0.111328125,-2.471923589706421,-1.4343260526657104,0.8544921278953552,86.66667175292969,44202.0,1.0
18:10:47.490848,137749.6875,144174.484375,163073.59375,159831.78125,185369.546875,182565.65625,686053.1875,132854.84375,0.01318359375,1.0068359375,-0.109130859375,-2.532958745956421,-1.3732908964157104,0.9765624403953552,86.66667175292969,44203.0,1.0
18:10:47.490939,137764.625,144196.921875,163088.890625,159834.65625,185391.09375,182589.796875,686123.6875,132858.859375,0.0146484375,1.008056640625,-0.111328125,-2.532958745956421,-1.4343260526657104,1.0375975370407104,86.66667175292969,44204.0,1.0
18:10:47.493022,137751.9375,144177.515625,163089.421875,159836.609375,185396.375,182590.78125,685937.9375,132864.046875,0.014892578125,1.0068359375,-0.10888671875,-2.563476324081421,-1.3732908964157104,1.0986326932907104,86.66667175292969,44205.0,1.0
18:10:47.503872,137733.15625,144149.796875,163070.640625,159832.953125,185372.765625,182566.640625,685994.625,132862.984375,0.015380859375,1.00732421875,-0.11279296875,-2.532958745956421,-1.3122557401657104,1.0070799589157104,86.66667175292969,44206.0,1.0
18:10:47.510673,137739.5,144166.875,163067.609375,159827.140625,185367.3125,182565.03125,686026.0625,132854.125,0.017333984375,1.00927734375,-0.10986328125,-2.563476324081421,-1.2512205839157104,0.9460448622703552,86.66667175292969,44207.0,1.0
18:10:47.510698,137754.171875,144186.015625,163077.703125,159828.484375,185379.203125,182573.796875,686127.125,132853.671875,0.019775390625,1.008544921875,-0.109375,-2.532958745956421,-1.0681151151657104,0.8850097060203552,86.66667175292969,44208.0,1.0
18:10:47.513131,137743.53125,144170.375,163080.21875,159829.90625,185387.34375,182581.390625,685924.8125,132857.53125,0.021728515625,1.0068359375,-0.111572265625,-2.532958745956421,-1.1291502714157104,0.8544921278953552,86.66667175292969,44209.0,1.0
18:10:47.513155,137724.65625,144141.21875,163062.421875,159825.53125,185363.734375,182557.078125,685981.25,132857.796875,0.0234375,1.00537109375,-0.11181640625,-2.502441167831421,-0.9765624403953552,0.7629393935203552,86.66667175292969,44210.0,1.0
18:10:47.522603,137742.453125,144167.78125,163071.453125,159831.15625,185370.0,182565.125,686024.125,132862.625,0.02294921875,1.004638671875,-0.111572265625,-2.502441167831421,-0.7629393935203552,0.8239745497703552,86.66667175292969,44211.0,1.0
18:10:47.530672,137753.1875,144181.453125,163072.796875,159827.859375,185370.890625,182564.9375,686145.75,132853.140625,0.024169921875,1.00390625,-0.109375,-2.380370855331421,-0.5493163466453552,0.7019042372703552,86.66667175292969,44212.0,1.0
18:10:47.530695,137753.1875,144181.90625,163085.125,159829.546875,185389.484375,182587.5625,685948.0625,132853.859375,0.0244140625,1.00439453125,-0.111083984375,-2.319335699081421,-0.3967284858226776,0.6713866591453552,86.66667175292969,44213.0,1.0
18:10:47.536939,137738.078125,144153.296875,163071.71875,159832.421875,185370.625,182567.625,685965.5,132858.328125,0.0224609375,1.00537109375,-0.111572265625,-2.319335699081421,-0.1525878757238388,0.6103515028953552,86.66667175292969,44214.0,1.0
18:10:47.536953,137733.953125,144155.796875,163061.96875,159822.9375,185359.359375,182557.25,686003.6875,132849.03125,0.021484375,1.004638671875,-0.111328125,-2.288818120956421,0.0610351525247097,0.6713866591453552,86.66667175292969,44215.0,1.0
18:10:47.541313,137743.796875,144174.125,163063.046875,159819.0,185359.8125,182558.953125,686140.125,132840.890625,0.022705078125,1.005615234375,-0.1103515625,-2.044677495956421,0.1220703050494194,0.6103515028953552,86.66667175292969,44216.0,1.0
18:10:47.545077,137751.578125,144184.21875,163082.0,159827.5,185386.0,182588.453125,685990.375,132850.1875,0.0205078125,1.00439453125,-0.108642578125,-1.9836424589157104,0.2136230319738388,0.6408690810203552,86.66667175292969,44217.0,1.0
18:10:47.555644,137733.328125,144153.015625,163068.59375,159829.28125,185368.65625,182569.5,685942.4375,132857.796875,0.019775390625,1.004638671875,-0.10693359375,-2.044677495956421,0.4272460639476776,0.5187987685203552,86.66667175292969,44218.0,1.0
18:10:47.555711,137734.046875,144156.15625,163063.9375,159827.671875,185361.78125,182562.171875,685962.5625,132857.703125,0.017578125,1.003662109375,-0.107177734375,-1.9836424589157104,0.5187987685203552,0.3967284858226776,86.66667175292969,44219.0,1.0
18:10:47.585663,137766.59375,144197.8125,163084.859375,159841.890625,185379.65625,182583.90625,686113.9375,132865.921875,0.015380859375,1.005126953125,-0.107421875,-1.8920897245407104,0.5493163466453552,0.4272460639476776,86.66667175292969,44220.0,1.0
18:10:47.585692,137763.90625,144197.546875,163091.125,159835.640625,185393.78125,182596.6875,686032.375,132860.46875,0.01513671875,1.0068359375,-0.1064453125,-1.8920897245407104,0.6408690810203552,0.3356933295726776,86.66667175292969,44221.0,1.0
18:10:47.591671,137736.734375,144157.046875,163072.875,159828.921875,185374.828125,182567.8125,685921.875,132859.140625,0.015869140625,1.006103515625,-0.102783203125,-1.8005369901657104,0.5798339247703552,0.3051757514476776,86.66667175292969,44222.0,1.0
18:10:47.591687,137736.46875,144155.53125,163070.015625,159830.890625,185367.3125,182562.53125,685990.375,132859.578125,0.01513671875,1.00732421875,-0.104248046875,-1.7395018339157104,0.5798339247703552,0.3356933295726776,86.66667175292969,44223.0,1.0
18:10:47.591691,137765.703125,144195.9375,163086.65625,159842.875,185381.265625,182580.140625,686099.0,132863.78125,0.01611328125,1.0068359375,-0.10546875,-1.7395018339157104,0.6103515028953552,0.2136230319738388,86.66667175292969,44224.0,1.0
18:10:47.591693,137769.71875,144205.234375,163094.15625,159838.21875,185395.21875,182596.421875,686082.625,132859.046875,0.01611328125,1.007080078125,-0.10595703125,-1.8005369901657104,0.7324218153953552,0.0610351525247097,86.66667175292969,44225.0,1.0
18:10:47.591696,137743.96875,144168.671875,163079.765625,159831.78125,185383.234375,182577.46875,685918.8125,132857.53125,0.013916015625,1.00634765625,-0.10302734375,-1.7700194120407104,0.7019042372703552,0.1831054538488388,86.66667175292969,44226.0,1.0
18:10:47.591699,137729.9375,144149.71875,163063.21875,159824.015625,185361.5,182557.25,685981.6875,132854.21875,0.01416015625,1.005615234375,-0.104248046875,-1.8310545682907104,0.7629393935203552,0.0915527269244194,86.66667175292969,44227.0,1.0
18:10:47.594455,137751.65625,144179.578125,163075.109375,159831.4375,185369.828125,182566.640625,686070.4375,132856.890625,0.01416015625,1.00634765625,-0.10546875,-1.6479490995407104,0.7629393935203552,0.0915527269244194,86.66667175292969,44228.0,1.0
18:10:47.594465,137767.390625,144202.203125,163090.671875,159837.328125,185389.765625,182589.0,686123.125,132861.453125,0.011962890625,1.00732421875,-0.105224609375,-1.6784666776657104,0.7934569716453552,0.1220703050494194,86.66667175292969,44229.0,1.0
18:10:47.596284,137758.375,144186.28125,163093.71875,159842.078125,185395.484375,182592.84375,685923.5625,132868.609375,0.01025390625,1.0078125,-0.107421875,-1.7395018339157104,0.8239745497703552,0.03051757626235485,86.66667175292969,44230.0,1.0
18:10:47.598768,137735.390625,144154.71875,163071.890625,159833.390625,185367.578125,182562.625,685981.5,132862.171875,0.010498046875,1.009033203125,-0.107421875,-1.7089842557907104,0.7629393935203552,-0.03051757626235485,86.66667175292969,44231.0,1.0
18:10:47.606450,137743.53125,144171.703125,163070.46875,159828.921875,185363.65625,182561.09375,686014.0625,132853.5,0.006103515625,1.00927734375,-0.105712890625,-1.6479490995407104,0.7019042372703552,0.03051757626235485,86.66667175292969,44232.0,1.0
18:10:47.614547,137755.6875,144188.875,163076.71875,159827.3125,185372.140625,182572.640625,686135.625,132849.65625,0.005615234375,1.008056640625,-0.106689453125,-1.6479490995407104,0.6408690810203552,0.03051757626235485,86.66667175292969,44233.0,1.0
18:10:47.614575,137748.078125,144177.703125,163084.140625,159830.984375,185386.265625,182586.84375,685927.25,132858.0625,0.00537109375,1.00830078125,-0.1064453125,-1.6784666776657104,0.5493163466453552,0.03051757626235485,86.66667175292969,44234.0,1.0
18:10:47.630094,137729.84375,144148.109375,163065.90625,159831.15625,185363.828125,182563.609375,685972.125,132860.390625,0.004150390625,1.007568359375,-0.10546875,-1.7089842557907104,0.4882812201976776,0.03051757626235485,86.66667175292969,44235.0,1.0
18:10:47.630170,137723.5,144149.796875,163051.78125,159814.4375,185345.234375,182543.484375,686020.5625,132840.984375,0.002685546875,1.008056640625,-0.102783203125,-1.7700194120407104,0.3967284858226776,0.0610351525247097,86.66667175292969,44236.0,1.0
18:10:47.630194,137733.421875,144164.46875,163052.765625,159808.359375,185345.0625,182543.3125,686149.5,132828.28125,0.002685546875,1.008056640625,-0.1044921875,-1.7089842557907104,0.2746581733226776,0.1831054538488388,86.66667175292969,44237.0,1.0
18:10:47.632720,137726.625,144156.78125,163058.671875,159806.125,185358.46875,182558.421875,685948.3125,132828.640625,0.0029296875,1.00927734375,-0.10546875,-1.6784666776657104,0.03051757626235485,0.1831054538488388,86.66667175292969,44238.0,1.0
18:10:47.635076,137711.703125,144131.03125,163046.6875,159810.875,185343.171875,182541.4375,685954.625,132838.296875,0.0048828125,1.00830078125,-0.106201171875,-1.7395018339157104,-0.1525878757238388,0.2136230319738388,86.66667175292969,44239.0,1.0
18:10:47.637611,137719.65625,144144.171875,163049.453125,159814.71875,185344.515625,182542.59375,685981.0625,132841.875,0.0068359375,1.009033203125,-0.1044921875,-1.7089842557907104,-0.2136230319738388,0.2441406100988388,86.66667175292969,44240.0,1.0
18:10:47.641967,137742.09375,144174.484375,163062.15625,159821.0625,185357.03125,182557.4375,686152.625,132845.71875,0.00927734375,1.008056640625,-0.10888671875,-1.7395018339157104,-0.3356933295726776,0.3356933295726776,86.66667175292969,44241.0,1.0
18:10:47.642013,137725.203125,144161.15625,163057.40625,159805.140625,185362.484375,182563.421875,685993.375,132831.59375,0.009521484375,1.0087890625,-0.107177734375,-1.6784666776657104,-0.3967284858226776,0.3967284858226776,86.66667175292969,44242.0,1.0
18:10:47.651338,137704.28125,144128.796875,163044.0,159805.5,185347.203125,182542.765625,685935.9375,132836.515625,0.009033203125,1.00732421875,-0.10595703125,-1.7089842557907104,-0.4577636420726776,0.4577636420726776,86.66667175292969,44243.0,1.0
18:10:47.655636,137702.578125,144127.28125,163037.921875,159803.359375,185337.90625,182530.875,685966.9375,132836.78125,0.01025390625,1.00732421875,-0.10693359375,-1.5869139432907104,-0.5798339247703552,0.4272460639476776,86.66667175292969,44244.0,1.0
18:10:47.655663,137728.953125,144161.515625,163051.78125,159810.59375,185348.359375,182544.375,686121.875,132836.78125,0.009765625,1.00732421875,-0.109375,-1.6174315214157104,-0.6103515028953552,0.4272460639476776,86.66667175292969,44245.0,1.0
18:10:47.657536,137735.484375,144169.109375,163065.90625,159812.296875,185370.171875,182565.296875,686045.4375,132839.015625,0.01025390625,1.0068359375,-0.1083984375,-1.6174315214157104,-0.6103515028953552,0.4882812201976776,86.66667175292969,44246.0,1.0
18:10:47.668848,137719.828125,144141.40625,163060.359375,159819.984375,185363.828125,182554.125,685936.0625,132851.265625,0.010009765625,1.005126953125,-0.111328125,-1.5869139432907104,-0.6103515028953552,0.6103515028953552,86.66667175292969,44247.0,1.0
18:10:47.673190,137717.234375,144138.359375,163054.46875,159821.0625,185353.1875,182547.875,685959.3125,132854.390625,0.01123046875,1.0078125,-0.111328125,-1.4953612089157104,-0.5798339247703552,0.6408690810203552,86.66667175292969,44248.0,1.0
18:10:47.673238,137736.015625,144163.84375,163060.0,159822.046875,185355.421875,182550.375,686071.4375,132849.296875,0.010986328125,1.007568359375,-0.107666015625,-1.4343260526657104,-0.7629393935203552,0.6408690810203552,86.66667175292969,44249.0,1.0
18:10:47.679869,137742.453125,144172.328125,163068.953125,159819.984375,185370.359375,182564.5,686081.3125,132844.296875,0.01123046875,1.008056640625,-0.108154296875,-1.3427733182907104,-0.7324218153953552,0.6408690810203552,86.66667175292969,44250.0,1.0
18:10:47.679937,137732.53125,144154.1875,163071.359375,159827.140625,185374.5625,182566.015625,685913.9375,132857.078125,0.011962890625,1.007568359375,-0.10888671875,-1.3427733182907104,-0.8239745497703552,0.6408690810203552,86.66667175292969,44251.0,1.0
18:10:47.685131,137718.3125,144135.765625,163054.28125,159821.6875,185352.828125,182544.65625,685969.625,132855.921875,0.013916015625,1.0068359375,-0.107177734375,-1.3122557401657104,-0.8850097060203552,0.6713866591453552,86.66667175292969,44252.0,1.0
18:10:47.695628,137729.75,144155.609375,163055.359375,159818.375,185351.578125,182545.1875,686051.625,132847.953125,0.013671875,1.0068359375,-0.10888671875,-1.3122557401657104,-0.7324218153953552,0.7019042372703552,86.66667175292969,44253.0,1.0
18:10:47.695644,137744.15625,144176.0,163068.5,159818.28125,185367.859375,182565.390625,686130.125,132844.828125,0.017578125,1.008544921875,-0.109130859375,-1.4648436307907104,-0.8544921278953552,0.6408690810203552,86.66667175292969,44254.0,1.0
18:10:47.698249,137733.515625,144159.453125,163071.09375,159822.84375,185374.109375,182568.703125,685930.8125,132854.21875,0.017578125,1.0068359375,-0.11083984375,-1.4953612089157104,-0.7934569716453552,0.5493163466453552,86.66667175292969,44255.0,1.0
18:10:47.698320,137729.671875,144145.609375,163066.53125,159832.5,185362.578125,182556.359375,685981.625,132866.203125,0.017578125,1.008056640625,-0.110595703125,-1.4343260526657104,-0.7019042372703552,0.6103515028953552,86.66667175292969,44256.0,1.0
18:10:47.731329,137741.296875,144171.0,163068.859375,159828.21875,185361.0625,182560.203125,686023.5,132854.75,0.01611328125,1.007080078125,-0.109375,-1.4953612089157104,-0.5493163466453552,0.4882812201976776,86.66667175292969,44257.0,1.0
18:10:47.745152,137747.015625,144178.765625,163069.03125,159820.875,185363.5625,182560.65625,686160.5,132843.046875,0.01806640625,1.007568359375,-0.10888671875,-1.4648436307907104,-0.5798339247703552,0.4577636420726776,86.66667175292969,44258.0,1.0
18:10:47.747525,137739.40625,144167.0625,163075.65625,159822.9375,185376.609375,182570.40625,685949.9375,132848.5,0.0166015625,1.007568359375,-0.11083984375,-1.4953612089157104,-0.4577636420726776,0.4272460639476776,86.66667175292969,44259.0,1.0
18:10:47.750067,137728.421875,144149.359375,163066.625,159828.75,185363.390625,182558.859375,685990.5625,132860.109375,0.0166015625,1.007080078125,-0.1123046875,-1.4953612089157104,-0.3662109076976776,0.4577636420726776,86.66667175292969,44260.0,1.0
18:10:47.752723,137737.09375,144162.40625,163067.15625,159827.140625,185362.046875,182557.25,686008.4375,132857.609375,0.01708984375,1.00732421875,-0.1103515625,-1.4648436307907104,-0.2136230319738388,0.3356933295726776,86.66667175292969,44261.0,1.0
18:10:47.755027,137753.265625,144187.265625,163076.015625,159827.859375,185369.734375,182565.125,686191.375,132854.125,0.014892578125,1.008056640625,-0.110107421875,-1.4343260526657104,-0.1220703050494194,0.3356933295726776,86.66667175292969,44262.0,1.0
18:10:47.757627,137744.15625,144176.890625,163080.21875,159824.90625,185382.25,182578.09375,685997.5,132853.140625,0.015380859375,1.008544921875,-0.109375,-1.4953612089157104,-0.1831054538488388,0.2136230319738388,86.66667175292969,44263.0,1.0
18:10:47.760026,137714.921875,144131.921875,163053.21875,159817.03125,185351.046875,182541.703125,685993.9375,132850.453125,0.015625,1.010498046875,-0.110107421875,-1.4038084745407104,-0.0610351525247097,0.2441406100988388,86.66667175292969,44264.0,1.0
18:10:47.762594,137717.234375,144139.34375,163048.109375,159813.8125,185343.171875,182537.046875,685998.6875,132845.625,0.01318359375,1.010986328125,-0.1103515625,-1.4953612089157104,0.0,0.1831054538488388,86.66667175292969,44265.0,1.0
18:10:47.765074,137733.953125,144164.46875,163053.75,159813.015625,185347.109375,182542.953125,686175.625,132839.015625,0.011474609375,1.009521484375,-0.10888671875,-1.5258787870407104,-0.03051757626235485,0.0915527269244194,86.66667175292969,44266.0,1.0
18:10:47.767700,137732.4375,144165.625,163062.953125,159810.78125,185363.65625,182561.09375,686016.8125,132840.265625,0.010498046875,1.00927734375,-0.106201171875,-1.5563963651657104,-0.03051757626235485,0.03051757626235485,86.66667175292969,44267.0,1.0
18:10:47.770214,137706.953125,144126.375,163044.625,159808.0,185340.765625,182533.921875,685965.4375,132838.921875,0.0107421875,1.007568359375,-0.10595703125,-1.5869139432907104,-0.03051757626235485,0.0,86.66667175292969,44268.0,1.0
18:10:47.772547,137698.640625,144119.765625,163031.3125,159800.578125,185324.140625,182517.296875,685979.75,132829.546875,0.01171875,1.00830078125,-0.10791015625,-1.5869139432907104,-0.0915527269244194,0.1525878757238388,86.66667175292969,44269.0,1.0
18:10:47.775645,137730.46875,144161.78125,163051.15625,159813.453125,185341.390625,182538.75,686155.75,132836.328125,0.01171875,1.00732421875,-0.108154296875,-1.4648436307907104,-0.03051757626235485,0.0610351525247097,86.66667175292969,44270.0,1.0
18:10:47.775704,137748.078125,144178.328125,163076.375,159827.40625,185372.859375,182569.59375,686109.6875,132851.09375,0.010009765625,1.008056640625,-0.1083984375,-1.4343260526657104,-0.1220703050494194,0.0915527269244194,86.66667175292969,44271.0,1.0
18:10:47.777608,137732.96875,144149.265625,163071.8125,159833.046875,185366.875,182558.59375,686000.625,132859.046875,0.0107421875,1.005126953125,-0.109619140625,-1.3122557401657104,-0.1220703050494194,0.2136230319738388,86.66667175292969,44272.0,1.0
18:10:47.780630,137730.203125,144148.28125,163065.546875,159832.421875,185356.234375,182553.140625,686031.75,132860.296875,0.01123046875,1.001708984375,-0.111328125,-1.2512205839157104,-0.0610351525247097,0.1831054538488388,86.66667175292969,44273.0,1.0
18:10:47.780687,137748.359375,144174.84375,163070.375,159833.3125,185358.828125,182553.953125,686159.9375,132856.453125,0.010009765625,1.000244140625,-0.112060546875,-1.2207030057907104,0.03051757626235485,0.1831054538488388,86.66667175292969,44274.0,1.0
18:10:47.785115,137755.78125,144186.015625,163080.921875,159830.09375,185374.734375,182570.75,686160.125,132853.5,0.01123046875,1.0,-0.110595703125,-0.9765624403953552,0.0,0.2746581733226776,86.66667175292969,44275.0,1.0
18:10:47.788116,137742.90625,144168.21875,163080.921875,159834.828125,185375.90625,182573.796875,685993.5,132860.921875,0.01171875,1.001708984375,-0.110107421875,-1.0070799589157104,-0.0610351525247097,0.3662109076976776,86.66667175292969,44276.0,1.0
18:10:47.788127,137726.1875,144141.75,163063.046875,159831.34375,185353.09375,182544.828125,686041.5,132862.703125,0.0107421875,1.0068359375,-0.108642578125,-0.9155272841453552,0.0610351525247097,0.3662109076976776,86.66667175292969,44277.0,1.0
18:10:47.790016,137735.921875,144164.28125,163062.15625,159826.25,185349.796875,182545.8125,686128.3125,132854.21875,0.007568359375,1.007080078125,-0.106201171875,-0.9155272841453552,0.0,0.3967284858226776,86.66667175292969,44278.0,1.0
18:10:47.800776,137746.125,144176.890625,163069.75,159824.28125,185361.5,182560.5625,686209.875,132846.796875,0.007080078125,1.007080078125,-0.105712890625,-1.0070799589157104,-0.0915527269244194,0.3356933295726776,86.66667175292969,44279.0,1.0
18:10:47.800852,137729.84375,144155.703125,163066.984375,159822.484375,185363.390625,182561.71875,686000.3125,132846.078125,0.00927734375,1.00537109375,-0.107421875,-1.0070799589157104,-0.0610351525247097,0.3662109076976776,86.66667175292969,44280.0,1.0
18:10:47.803165,137707.578125,144125.21875,163045.078125,159814.0,185336.65625,182531.78125,686038.125,132842.40625,0.010009765625,1.00439453125,-0.1123046875,-0.9460448622703552,-0.1831054538488388,0.4577636420726776,86.66667175292969,44281.0,1.0
18:10:47.803175,137716.53125,144143.546875,163044.453125,159811.046875,185333.4375,182529.453125,686091.8125,132836.515625,0.013427734375,1.005859375,-0.109375,-0.9155272841453552,-0.0915527269244194,0.5187987685203552,86.66667175292969,44282.0,1.0
18:10:47.815093,137731.546875,144165.0,163052.59375,159809.265625,185341.75,182542.6875,686225.9375,132831.953125,0.01611328125,1.0087890625,-0.11083984375,-0.8850097060203552,-0.0610351525247097,0.6408690810203552,86.66667175292969,44283.0,1.0
18:10:47.822516,137727.25,144160.4375,163060.984375,159812.65625,185355.96875,182560.390625,686008.5,132837.40625,0.021240234375,1.010498046875,-0.1103515625,-0.7934569716453552,-0.0610351525247097,0.9155272841453552,86.66667175292969,44284.0,1.0
18:10:47.822551,137713.390625,144130.671875,163047.671875,159817.3125,185337.1875,182534.90625,686043.8125,132846.890625,0.02197265625,1.009765625,-0.1142578125,-0.8239745497703552,0.1525878757238388,1.1291502714157104,86.66667175292969,44285.0,1.0
18:10:47.822566,137723.765625,144148.546875,163051.609375,159818.828125,185339.875,182538.921875,686082.0,132847.6875,0.02197265625,1.005615234375,-0.1142578125,-0.7324218153953552,0.1220703050494194,1.2207030057907104,86.66667175292969,44286.0,1.0
18:10:47.825589,137742.1875,144173.859375,163060.984375,159820.703125,185349.25,182549.296875,686260.25,132846.53125,0.017578125,1.008056640625,-0.114501953125,-0.6103515028953552,0.2136230319738388,1.3732908964157104,86.66667175292969,44287.0,1.0
18:10:47.825618,137740.671875,144171.265625,163071.09375,159822.40625,185365.96875,182563.15625,686056.8125,132847.875,0.017822265625,1.010498046875,-0.1142578125,-0.6103515028953552,0.2441406100988388,1.3427733182907104,86.66667175292969,44288.0,1.0
18:10:47.827502,137723.40625,144141.84375,163057.859375,159824.09375,185348.625,182542.59375,686063.375,132852.875,0.013671875,1.010986328125,-0.110107421875,-0.5493163466453552,0.3356933295726776,1.3732908964157104,86.66667175292969,44289.0,1.0
18:10:47.833786,137728.234375,144151.59375,163057.59375,159824.375,185345.0625,182540.984375,686084.4375,132854.390625,0.01318359375,1.0107421875,-0.106689453125,-0.5798339247703552,0.3662109076976776,1.0681151151657104,86.66667175292969,44290.0,1.0
18:10:47.843794,137754.796875,144184.578125,163072.875,159835.640625,185357.84375,182554.125,686270.5625,132858.234375,0.0107421875,1.012939453125,-0.108642578125,-0.5798339247703552,0.4272460639476776,0.7019042372703552,86.66667175292969,44291.0,1.0
18:10:47.848134,137755.15625,144186.375,163083.796875,159834.296875,185377.59375,182574.6875,686112.25,132856.625,0.010498046875,1.01220703125,-0.107177734375,-0.6713866591453552,0.4272460639476776,0.6713866591453552,86.66667175292969,44292.0,1.0
18:10:47.848184,137736.90625,144156.59375,163073.59375,159837.25,185365.0,182557.609375,686054.0,132862.171875,0.010986328125,1.012451171875,-0.111083984375,-0.8544921278953552,0.3967284858226776,0.6713866591453552,86.66667175292969,44293.0,1.0
18:10:47.854492,137744.6875,144164.46875,163076.90625,159841.171875,185364.640625,182558.59375,686084.25,132867.09375,0.0087890625,1.01171875,-0.11279296875,-0.9155272841453552,0.3051757514476776,0.5187987685203552,86.66667175292969,44294.0,1.0
18:10:47.854566,137766.234375,144194.59375,163087.546875,159847.078125,185372.0625,182567.984375,686246.6875,132867.890625,0.00927734375,1.011474609375,-0.111572265625,-1.0681151151657104,0.2136230319738388,0.1831054538488388,86.66667175292969,44295.0,1.0
18:10:47.856386,137748.359375,144178.6875,163076.1875,159827.5,185369.640625,182565.921875,686138.0,132849.484375,0.0107421875,1.009033203125,-0.11572265625,-1.1291502714157104,0.1525878757238388,-0.1220703050494194,86.66667175292969,44296.0,1.0
18:10:47.863829,137729.578125,144149.09375,163065.640625,159828.65625,185359.8125,182553.328125,686026.375,132855.5625,0.010986328125,1.009521484375,-0.11181640625,-1.0375975370407104,0.1525878757238388,-0.2441406100988388,86.66667175292969,44297.0,1.0
18:10:47.871869,137717.234375,144131.296875,163050.078125,159820.34375,185340.5,182530.96875,686058.9375,132849.921875,0.01171875,1.0107421875,-0.113037109375,-1.0681151151657104,0.1220703050494194,-0.2746581733226776,86.66667175292969,44298.0,1.0
18:10:47.871894,137737.0,144161.0625,163059.375,159822.9375,185347.296875,182538.296875,686188.125,132848.40625,0.014404296875,1.01025390625,-0.11376953125,-1.0375975370407104,0.1525878757238388,-0.4577636420726776,86.66667175292969,44299.0,1.0
18:10:47.873814,137741.828125,144172.15625,163066.71875,159819.984375,185360.25,182554.65625,686188.8125,132844.5625,0.015380859375,1.012451171875,-0.1123046875,-1.0681151151657104,0.1525878757238388,-0.4882812201976776,86.66667175292969,44300.0,1.0
18:10:47.886936,137727.171875,144149.796875,163063.046875,159820.96875,185357.75,182552.15625,686022.375,132850.375,0.0166015625,1.010498046875,-0.113037109375,-1.0986326932907104,0.2441406100988388,-0.5493163466453552,86.66667175292969,44301.0,1.0
18:10:47.886944,137716.4375,144134.15625,163050.984375,159818.203125,185340.046875,182535.171875,686069.75,132848.84375,0.017578125,1.01123046875,-0.10986328125,-1.1291502714157104,0.3051757514476776,-0.4577636420726776,86.66667175292969,44302.0,1.0
18:10:47.907105,137733.78125,144160.53125,163056.96875,159820.796875,185341.5625,182535.53125,686155.875,132843.671875,0.018798828125,1.011474609375,-0.111328125,-1.2207030057907104,0.3967284858226776,-0.5493163466453552,86.66667175292969,44303.0,1.0
18:10:47.907205,137752.375,144182.4375,163073.0625,159827.5,185359.09375,182557.25,686230.625,132846.265625,0.016357421875,1.01123046875,-0.113525390625,-1.2817381620407104,0.3662109076976776,-0.3662109076976776,86.66667175292969,44304.0,1.0
18:10:47.910780,137742.625,144163.75,163076.375,159829.546875,185367.859375,182561.015625,686022.75,132852.15625,0.013427734375,1.009765625,-0.111328125,-1.3732908964157104,0.4272460639476776,-0.1831054538488388,86.66667175292969,44305.0,1.0
18:10:47.910865,137726.890625,144138.625,163061.078125,159825.53125,185347.203125,182537.59375,686051.625,132853.5,0.013427734375,1.010986328125,-0.11279296875,-1.5563963651657104,0.4882812201976776,-0.1220703050494194,86.66667175292969,44306.0,1.0
18:10:47.910891,137742.984375,144166.171875,163067.609375,159830.453125,185349.875,182545.625,686099.4375,132854.84375,0.0107421875,1.01220703125,-0.110107421875,-1.5869139432907104,0.4882812201976776,-0.1525878757238388,86.66667175292969,44307.0,1.0
18:10:47.913299,137753.625,144178.421875,163071.09375,159829.375,185355.515625,182549.03125,686231.3125,132847.515625,0.007568359375,1.01171875,-0.109130859375,-1.7089842557907104,0.4577636420726776,0.0,86.66667175292969,44308.0,1.0
18:10:47.913390,137756.484375,144179.578125,163087.546875,159838.9375,185379.828125,182572.71875,686024.3125,132859.765625,0.00390625,1.011474609375,-0.109130859375,-1.7700194120407104,0.3356933295726776,0.0915527269244194,86.66667175292969,44309.0,1.0
18:10:47.915158,137738.25,144151.59375,163072.796875,159841.265625,185360.171875,182551.890625,686045.0625,132866.734375,0.00244140625,1.01220703125,-0.11083984375,-1.8615721464157104,0.3662109076976776,0.2746581733226776,86.66667175292969,44310.0,1.0
18:10:47.926968,137747.8125,144170.09375,163075.75,159843.59375,185361.6875,182555.015625,686063.75,132867.359375,-0.0009765625,1.012939453125,-0.109130859375,-1.9836424589157104,0.1831054538488388,0.3967284858226776,86.66667175292969,44311.0,1.0
18:10:47.927042,137753.09375,144183.328125,163072.4375,159831.34375,185357.75,182551.625,686228.25,132852.515625,0.000732421875,1.011962890625,-0.108154296875,-2.166747808456421,0.1525878757238388,0.3967284858226776,86.66667175292969,44312.0,1.0
18:10:47.936872,137748.265625,144180.203125,163080.84375,159829.546875,185373.390625,182570.21875,686033.75,132855.640625,-0.001220703125,1.0146484375,-0.10693359375,-2.288818120956421,-0.03051757626235485,0.3662109076976776,86.66667175292969,44313.0,1.0
18:10:47.936889,137724.84375,144143.359375,163062.15625,159827.9375,185351.140625,182545.453125,686010.625,132856.1875,-0.000732421875,1.013916015625,-0.10400390625,-2.349853277206421,-0.1525878757238388,0.3662109076976776,86.66667175292969,44314.0,1.0
18:10:47.939419,137725.46875,144143.71875,163056.4375,159825.984375,185343.625,182533.5625,686014.3125,132851.53125,0.000244140625,1.01318359375,-0.106689453125,-2.471923589706421,-0.3356933295726776,0.2746581733226776,86.66667175292969,44315.0,1.0
18:10:47.939431,137749.875,144180.109375,163068.5,159830.984375,185354.359375,182549.5625,686194.75,132851.0,0.00146484375,1.01220703125,-0.107421875,-2.624511480331421,-0.4272460639476776,0.1831054538488388,86.66667175292969,44316.0,1.0
18:10:47.948892,137745.578125,144175.109375,163074.21875,159825.703125,185368.921875,182565.296875,686060.1875,132847.78125,-0.00048828125,1.01123046875,-0.1064453125,-2.777099370956421,-0.6103515028953552,0.1831054538488388,86.66667175292969,44317.0,1.0
18:10:47.960109,137732.265625,144146.765625,163069.21875,159835.453125,185360.609375,182547.875,685997.875,132861.453125,-0.002197265625,1.012451171875,-0.107177734375,-2.868652105331421,-0.6713866591453552,0.2441406100988388,86.66667175292969,44318.0,1.0
18:10:47.960145,137730.921875,144146.046875,163064.828125,159834.5625,185353.28125,182539.109375,686004.375,132862.171875,-0.001220703125,1.012451171875,-0.106689453125,-2.899169683456421,-0.8239745497703552,0.2136230319738388,86.66667175292969,44319.0,1.0
18:10:47.960157,137752.46875,144178.421875,163072.796875,159837.59375,185357.75,182549.203125,686148.3125,132857.34375,0.003662109375,1.009765625,-0.10546875,-2.899169683456421,-0.8544921278953552,0.1220703050494194,86.66667175292969,44320.0,1.0
18:10:47.963388,137759.703125,144190.484375,163086.734375,159839.125,185378.3125,182572.28125,686093.1875,132860.390625,0.004638671875,1.008056640625,-0.105224609375,-2.960204839706421,-0.9460448622703552,0.2441406100988388,86.66667175292969,44321.0,1.0
18:10:47.963404,137742.453125,144163.9375,163079.59375,159841.71875,185370.796875,182563.78125,685971.0625,132869.421875,0.0078125,1.007080078125,-0.104736328125,-2.990722417831421,-0.9765624403953552,0.3662109076976776,86.66667175292969,44322.0,1.0
18:10:47.965113,137732.078125,144150.609375,163065.734375,159837.328125,185352.65625,182544.375,685985.625,132865.390625,0.009521484375,1.004638671875,-0.106689453125,-2.868652105331421,-1.1291502714157104,0.4272460639476776,86.66667175292969,44323.0,1.0
18:10:47.971354,137745.40625,144171.4375,163067.78125,159839.75,185352.75,182541.703125,686077.8125,132864.234375,0.012451171875,1.003662109375,-0.105712890625,-2.777099370956421,-1.1291502714157104,0.4272460639476776,86.66667175292969,44324.0,1.0
18:10:47.979596,137751.21875,144182.4375,163075.5625,159836.34375,185366.421875,182559.40625,686110.8125,132859.21875,0.013671875,1.003173828125,-0.10986328125,-2.716064214706421,-1.1596678495407104,0.5798339247703552,86.66667175292969,44325.0,1.0
18:10:47.979608,137734.671875,144158.125,163072.34375,159837.25,185366.15625,182555.46875,685935.625,132860.828125,0.01513671875,1.0009765625,-0.112548828125,-2.593993902206421,-0.9765624403953552,0.7324218153953552,86.66667175292969,44326.0,1.0
18:10:47.985056,137705.265625,144120.125,163041.59375,159819.09375,185330.03125,182517.015625,685980.375,132845.453125,0.013916015625,0.9990234375,-0.1123046875,-2.532958745956421,-0.9460448622703552,0.7629393935203552,86.66667175292969,44327.0,1.0
18:10:47.989631,137736.015625,144165.71875,163062.234375,159834.734375,185348.1875,182544.296875,686049.625,132856.453125,0.0126953125,1.00244140625,-0.110595703125,-2.380370855331421,-0.9155272841453552,0.8850097060203552,86.66667175292969,44328.0,1.0
18:10:47.989655,137748.359375,144187.71875,163072.4375,159832.5,185361.953125,182560.828125,686124.625,132852.875,0.013671875,1.000732421875,-0.108154296875,-2.166747808456421,-0.7324218153953552,1.0681151151657104,86.66667175292969,44329.0,1.0
18:10:47.998924,137729.3125,144156.15625,163066.4375,159825.890625,185360.875,182548.3125,685919.875,132849.828125,0.014404296875,0.99951171875,-0.1103515625,-2.014159917831421,-0.6103515028953552,1.1291502714157104,86.66667175292969,44330.0,1.0
18:10:48.004646,137707.5,144122.984375,163044.1875,159819.984375,185331.828125,182515.5,685981.125,132847.515625,0.01416015625,0.99951171875,-0.111083984375,-1.8615721464157104,-0.4577636420726776,1.1291502714157104,86.66667175292969,44331.0,1.0
18:10:48.004685,137726.71875,144150.96875,163052.59375,159824.546875,185337.1875,182524.53125,686035.125,132846.96875,0.01416015625,1.002197265625,-0.111328125,-1.7395018339157104,-0.3356933295726776,1.2207030057907104,86.66667175292969,44332.0,1.0
18:10:48.010463,137748.0,144176.265625,163066.796875,159830.625,185352.390625,182543.484375,686154.25,132847.234375,0.01416015625,1.002197265625,-0.1103515625,-1.5869139432907104,-0.3662109076976776,1.1901854276657104,86.66667175292969,44333.0,1.0
18:10:48.014819,137741.203125,144167.953125,163075.03125,159832.328125,185366.421875,182556.625,685950.375,132851.984375,0.015380859375,1.00244140625,-0.109619140625,-1.4343260526657104,-0.2746581733226776,1.2512205839157104,86.66667175292969,44334.0,1.0
