Timestamp,Fz,FC3,FCz,FC4,Cz,C3,C4
18:17:15.026193,132118.578125,142810.3125,158500.609375,155849.953125,170867.734375,168795.109375,686174.6875,128728.53125,0.061767578125,1.01025390625,-0.106201171875,-1.1596678495407104,-0.2441406100988388,-0.3662109076976776,86.66667175292969,141169.0,1.0
18:17:15.026260,132135.5625,142836.765625,158502.84375,155851.03125,170864.96875,168794.84375,686229.0625,128727.1875,0.0625,1.0107421875,-0.1025390625,-1.2512205839157104,-0.2136230319738388,-0.2746581733226776,86.66667175292969,141170.0,1.0
18:17:15.041210,132138.953125,142837.21875,158511.0625,155853.359375,170878.46875,168807.4375,686190.875,128724.59375,0.0615234375,1.01025390625,-0.102294921875,-1.3427733182907104,-0.0915527269244194,-0.2136230319738388,86.66667175292969,141171.0,1.0
18:17:15.041265,132108.734375,142794.484375,158493.359375,155841.640625,170861.578125,168788.765625,686142.625,128720.21875,0.058349609375,1.00830078125,-0.10498046875,-1.3732908964157104,-0.1831054538488388,-0.1220703050494194,86.66667175292969,141172.0,1.0
18:17:15.046269,132109.015625,142799.765625,158494.890625,155846.03125,170861.125,168788.21875,686162.625,128726.0234375,0.05859375,1.00927734375,-0.104248046875,-1.4343260526657104,-0.0915527269244194,-0.1525878757238388,86.66667175292969,141173.0,1.0
18:17:15.046318,132133.328125,142833.640625,158504.359375,155854.4375,170865.953125,168793.765625,686228.8125,128731.125,0.054931640625,1.010009765625,-0.099365234375,-1.5563963651657104,-0.03051757626235485,0.03051757626235485,86.66667175292969,141174.0,1.0
18:17:15.048326,132146.109375,142844.109375,158516.875,155856.390625,170881.859375,168811.015625,686203.125,128729.421875,0.0537109375,1.00927734375,-0.1005859375,-1.6479490995407104,-0.0610351525247097,0.1220703050494194,86.66667175292969,141175.0,1.0
18:17:15.050625,132121.609375,142803.875,158504.71875,155852.109375,170871.859375,168796.625,686140.375,128731.65625,0.051513671875,1.01123046875,-0.100341796875,-1.8310545682907104,-0.03051757626235485,0.1831054538488388,86.66667175292969,141176.0,1.0
18:17:15.056775,132099.984375,142784.203125,158486.65625,155838.0625,170853.078125,168777.5,686142.6875,128717.265625,0.052001953125,1.011474609375,-0.099853515625,-1.9226073026657104,-0.1525878757238388,0.1525878757238388,86.66667175292969,141177.0,1.0
18:17:15.061154,132121.53125,142817.109375,158494.265625,155845.21875,170855.21875,168781.703125,686223.625,128717.0859375,0.050048828125,1.010498046875,-0.09912109375,-1.9531248807907104,-0.2136230319738388,0.2746581733226776,86.66667175292969,141178.0,1.0
18:17:15.061206,132141.1875,142839.8125,158510.984375,155853.265625,170875.421875,168802.53125,686218.0,128724.6875,0.049072265625,1.00927734375,-0.1005859375,-2.044677495956421,-0.3051757514476776,0.2746581733226776,86.66667175292969,141179.0,1.0
18:17:15.078661,132118.3125,142805.21875,158502.21875,155850.859375,170870.421875,168793.859375,686157.125,128729.421875,0.048095703125,1.010009765625,-0.09912109375,-2.136230230331421,-0.3356933295726776,0.4272460639476776,86.66667175292969,141180.0,1.0
18:17:15.078689,132098.09375,142785.28125,158487.46875,155839.234375,170854.78125,168781.25,686129.5625,128720.9296875,0.04931640625,1.0078125,-0.096435546875,-2.166747808456421,-0.4272460639476776,0.3662109076976776,86.66667175292969,141181.0,1.0
18:17:15.080565,132121.078125,142818.53125,158498.109375,155846.46875,170859.421875,168786.875,686223.0,128721.375,0.04833984375,1.009521484375,-0.09521484375,-2.288818120956421,-0.4882812201976776,0.3051757514476776,86.66667175292969,141182.0,1.0
18:17:15.083659,132146.296875,142847.59375,158514.640625,155857.296875,170877.390625,168806.015625,686242.3125,128728.265625,0.0498046875,1.008544921875,-0.098876953125,-2.258300542831421,-0.5493163466453552,0.2746581733226776,86.66667175292969,141183.0,1.0
18:17:15.083672,132127.25,142818.359375,158508.65625,155853.890625,170876.234375,168802.265625,686163.5625,128732.734375,0.050048828125,1.007568359375,-0.099853515625,-2.410888433456421,-0.6408690810203552,0.2746581733226776,86.66667175292969,141184.0,1.0
18:17:15.085623,132104.0,142787.421875,158493.546875,155846.296875,170861.03125,168783.84375,686127.625,128733.359375,0.05126953125,1.0078125,-0.101806640625,-2.441406011581421,-0.6103515028953552,0.2136230319738388,86.66667175292969,141185.0,1.0
18:17:15.096275,132117.59375,142812.28125,158496.140625,155843.078125,170860.671875,168785.546875,686196.1875,128722.8984375,0.053466796875,1.0048828125,-0.10205078125,-2.471923589706421,-0.6408690810203552,0.1831054538488388,86.66667175292969,141186.0,1.0
18:17:15.096474,132136.015625,142836.421875,158504.625,155844.953125,170865.59375,168794.390625,686223.6875,128717.3515625,0.05419921875,1.00390625,-0.10107421875,-2.563476324081421,-0.6713866591453552,0.0915527269244194,86.66667175292969,141187.0,1.0
18:17:15.098601,132133.0625,142824.796875,158511.875,155853.625,170878.109375,168805.921875,686173.4375,128726.5625,0.055419921875,1.005615234375,-0.095458984375,-2.441406011581421,-0.6408690810203552,0.2136230319738388,86.66667175292969,141188.0,1.0
18:17:15.102682,132102.65625,142783.484375,158491.125,155845.125,170858.796875,168782.765625,686141.1875,128723.7890625,0.0537109375,1.001708984375,-0.0986328125,-2.349853277206421,-0.6408690810203552,0.1831054538488388,86.66667175292969,141189.0,1.0
18:17:15.108775,132107.671875,142798.78125,158488.984375,155842.09375,170854.59375,168780.171875,686190.375,128718.875,0.054443359375,1.00048828125,-0.102294921875,-2.227782964706421,-0.7019042372703552,0.1831054538488388,86.66667175292969,141190.0,1.0
18:17:15.108853,132121.34375,142820.40625,158488.890625,155840.125,170851.640625,168780.53125,686225.0625,128712.171875,0.0556640625,1.000732421875,-0.10107421875,-2.166747808456421,-0.5798339247703552,0.1525878757238388,86.66667175292969,141191.0,1.0
18:17:15.115629,132119.203125,142814.59375,158494.4375,155840.125,170862.28125,168791.171875,686189.125,128714.40625,0.056640625,1.001220703125,-0.1005859375,-2.044677495956421,-0.6408690810203552,0.2136230319738388,86.66667175292969,141192.0,1.0
18:17:15.119941,132087.46875,142769.8125,158474.859375,155831.09375,170842.265625,168768.734375,686119.3125,128711.9921875,0.056640625,0.99951171875,-0.100830078125,-2.044677495956421,-0.5187987685203552,0.3051757514476776,86.66667175292969,141193.0,1.0
18:17:15.119974,132087.109375,142779.46875,158473.78125,155828.140625,170838.234375,168764.703125,686167.125,128707.4296875,0.056640625,1.000732421875,-0.099609375,-1.9531248807907104,-0.5798339247703552,0.3051757514476776,86.66667175292969,141194.0,1.0
18:17:15.125604,132107.9375,142809.765625,158479.859375,155830.921875,170840.296875,168768.015625,686231.5,128706.71875,0.058837890625,1.0009765625,-0.1025390625,-1.8005369901657104,-0.4577636420726776,0.2746581733226776,86.66667175292969,141195.0,1.0
18:17:15.136181,132119.296875,142818.71875,158494.796875,155840.65625,170860.671875,168788.578125,686202.25,128718.4296875,0.05859375,0.999267578125,-0.1025390625,-1.7395018339157104,-0.3356933295726776,0.3967284858226776,86.66667175292969,141196.0,1.0
18:17:15.136208,132086.390625,142770.96875,158474.6875,155831.09375,170843.59375,168766.046875,686147.0625,128715.4765625,0.060546875,0.99951171875,-0.1005859375,-1.5869139432907104,-0.3356933295726776,0.5493163466453552,86.66667175292969,141197.0,1.0
18:17:15.138112,132081.203125,142773.03125,158470.75,155825.28125,170838.859375,168762.921875,686156.8125,128710.0234375,0.059326171875,0.999755859375,-0.1015625,-1.3732908964157104,-0.2441406100988388,0.6408690810203552,86.66667175292969,141198.0,1.0
18:17:15.140703,132105.875,142803.875,158479.15625,155833.859375,170842.96875,168766.3125,686216.5625,128709.7578125,0.0595703125,1.00048828125,-0.1025390625,-1.3732908964157104,-0.1220703050494194,0.6103515028953552,86.66667175292969,141199.0,1.0
18:17:15.150676,132118.671875,142819.078125,158491.671875,155837.984375,170859.6875,168786.4375,686210.375,128717.0,0.06005859375,1.000732421875,-0.104248046875,-1.1291502714157104,-0.1831054538488388,0.7019042372703552,86.66667175292969,141200.0,1.0
18:17:15.156243,132087.109375,142775.53125,158473.515625,155827.875,170843.515625,168767.296875,686145.1875,128708.859375,0.058837890625,1.002685546875,-0.1015625,-1.1291502714157104,-0.0610351525247097,0.6713866591453552,86.66667175292969,141201.0,1.0
18:17:15.156266,132076.375,142766.40625,158464.578125,155820.8125,170834.390625,168758.265625,686139.375,128702.3359375,0.0576171875,1.00146484375,-0.1044921875,-0.9460448622703552,0.0915527269244194,0.7629393935203552,86.66667175292969,141202.0,1.0
18:17:15.158146,132092.734375,142794.03125,158467.265625,155820.359375,170830.640625,168755.671875,686205.5625,128695.625,0.056640625,1.00341796875,-0.10546875,-0.8239745497703552,0.2441406100988388,0.7324218153953552,86.66667175292969,141203.0,1.0
18:17:15.160760,132107.046875,142811.203125,158480.40625,155824.390625,170845.921875,168772.125,686216.9375,128698.7578125,0.05517578125,1.004638671875,-0.103271484375,-0.7019042372703552,0.3356933295726776,0.8239745497703552,86.66667175292969,141204.0,1.0
18:17:15.168144,132090.953125,142782.765625,158478.171875,155830.296875,170847.890625,168770.78125,686158.875,128709.7578125,0.0546875,1.007080078125,-0.102294921875,-0.5798339247703552,0.3051757514476776,0.7324218153953552,86.66667175292969,141205.0,1.0
18:17:15.172606,132067.96875,142755.6875,158461.8125,155818.40625,170831.171875,168749.6875,686125.4375,128702.15625,0.054443359375,1.007568359375,-0.104736328125,-0.5493163466453552,0.3051757514476776,0.6713866591453552,86.66667175292969,141206.0,1.0
18:17:15.172636,132090.40625,142790.90625,158472.71875,155824.296875,170838.234375,168758.453125,686211.0,128703.3203125,0.052490234375,1.00537109375,-0.101806640625,-0.5493163466453552,0.3356933295726776,0.5798339247703552,86.66667175292969,141207.0,1.0
18:17:15.180595,132121.078125,142826.40625,158496.3125,155839.859375,170861.921875,168785.0,686236.3125,128715.4765625,0.05224609375,1.005859375,-0.102783203125,-0.4882812201976776,0.3051757514476776,0.4577636420726776,86.66667175292969,141208.0,1.0
18:17:15.183169,132108.5625,142803.515625,158496.671875,155842.71875,170865.953125,168785.359375,686166.5625,128723.078125,0.0517578125,1.005126953125,-0.100341796875,-0.4882812201976776,0.2136230319738388,0.5493163466453552,86.66667175292969,141209.0,1.0
18:17:15.191305,132076.28125,142763.109375,158471.546875,155827.703125,170841.453125,168757.90625,686125.1875,128715.296875,0.05322265625,1.00439453125,-0.10009765625,-0.4577636420726776,0.2746581733226776,0.4577636420726776,86.66667175292969,141210.0,1.0
18:17:15.191319,132084.15625,142781.25,158470.5625,155824.203125,170836.265625,168755.140625,686185.4375,128702.8671875,0.0546875,1.00439453125,-0.100830078125,-0.4882812201976776,0.2441406100988388,0.4272460639476776,86.66667175292969,141211.0,1.0
18:17:15.193160,132107.578125,142811.65625,158482.375,155829.484375,170845.5625,168768.109375,686222.375,128701.2578125,0.05615234375,1.005615234375,-0.1025390625,-0.4577636420726776,0.3051757514476776,0.3967284858226776,86.66667175292969,141212.0,1.0
18:17:15.201798,132116.78125,142812.546875,158502.125,155845.3125,170869.53125,168788.3125,686167.9375,128722.6328125,0.058837890625,1.00634765625,-0.103271484375,-0.4577636420726776,0.3662109076976776,0.4882812201976776,86.66667175292969,141213.0,1.0
18:17:15.209914,132083.4375,142769.359375,158478.4375,155830.921875,170846.28125,168763.1875,686125.875,128714.9375,0.057373046875,1.006103515625,-0.10205078125,-0.3967284858226776,0.3662109076976776,0.5187987685203552,86.66667175292969,141214.0,1.0
18:17:15.209929,132088.0,142782.859375,158476.375,155825.734375,170842.796875,168761.21875,686196.1875,128705.1953125,0.05615234375,1.00732421875,-0.10595703125,-0.4577636420726776,0.3356933295726776,0.4577636420726776,86.66667175292969,141215.0,1.0
18:17:15.212385,132110.53125,142813.96875,158485.140625,155829.671875,170847.625,168770.25,686247.875,128709.0390625,0.05322265625,1.00634765625,-0.108154296875,-0.3662109076976776,0.4272460639476776,0.5187987685203552,86.66667175292969,141216.0,1.0
18:17:15.212407,132111.15625,142806.90625,158492.5625,155836.015625,170859.515625,168779.734375,686167.375,128714.046875,0.053466796875,1.0048828125,-0.107666015625,-0.4882812201976776,0.4882812201976776,0.6408690810203552,86.66667175292969,141217.0,1.0
18:17:15.221818,132082.546875,142762.296875,158474.6875,155828.140625,170842.265625,168757.46875,686115.8125,128711.453125,0.05419921875,1.006591796875,-0.10693359375,-0.4272460639476776,0.3662109076976776,0.5493163466453552,86.66667175292969,141218.0,1.0
18:17:15.228613,132076.375,142766.859375,158466.546875,155818.75,170833.859375,168752.28125,686162.3125,128701.890625,0.054443359375,1.00634765625,-0.106201171875,-0.4272460639476776,0.3967284858226776,0.5493163466453552,86.66667175292969,141219.0,1.0
18:17:15.228634,132098.28125,142798.953125,158473.34375,155822.328125,170835.640625,168757.734375,686222.8125,128698.3125,0.055419921875,1.006591796875,-0.1044921875,-0.3662109076976776,0.3356933295726776,0.5493163466453552,86.66667175292969,141220.0,1.0
18:17:15.238624,132118.125,142816.75,158496.9375,155837.703125,170861.75,168785.0,686181.75,128716.1953125,0.053955078125,1.006591796875,-0.104736328125,-0.3967284858226776,0.3967284858226776,0.5493163466453552,86.66667175292969,141221.0,1.0
18:17:15.238648,132090.40625,142773.734375,158481.921875,155835.296875,170847.265625,168766.3125,686123.75,128719.5859375,0.05322265625,1.007080078125,-0.104248046875,-0.4272460639476776,0.4577636420726776,0.5493163466453552,86.66667175292969,141222.0,1.0
18:17:15.266209,132077.265625,142766.140625,158468.15625,155821.265625,170832.875,168754.609375,686162.3125,128704.125,0.049560546875,1.00634765625,-0.10400390625,-0.4882812201976776,0.4882812201976776,0.5798339247703552,86.66667175292969,141223.0,1.0
18:17:15.266241,132094.703125,142793.59375,158470.5625,155819.921875,170831.171875,168752.546875,686242.5,128694.46875,0.050048828125,1.006103515625,-0.10302734375,-0.4272460639476776,0.4577636420726776,0.4577636420726776,86.66667175292969,141224.0,1.0
18:17:15.292698,132112.140625,142812.8125,158487.828125,155830.828125,170852.09375,168775.078125,686207.0,128704.390625,0.04833984375,1.00537109375,-0.104248046875,-0.5187987685203552,0.4272460639476776,0.4882812201976776,86.66667175292969,141225.0,1.0
18:17:15.292781,132088.09375,142774.8125,158478.609375,155830.203125,170844.765625,168763.1875,686159.0625,128710.9140625,0.047607421875,1.0048828125,-0.10498046875,-0.5798339247703552,0.3051757514476776,0.4272460639476776,86.66667175292969,141226.0,1.0
18:17:15.296571,132075.125,142762.46875,158469.3125,155823.40625,170835.109375,168752.28125,686157.9375,128706.984375,0.050048828125,1.006591796875,-0.103515625,-0.5493163466453552,0.1525878757238388,0.2441406100988388,86.66667175292969,141227.0,1.0
18:17:15.296661,132091.75,142791.796875,158470.5625,155820.640625,170832.421875,168752.1875,686234.25,128697.1484375,0.050537109375,1.007080078125,-0.103515625,-0.5798339247703552,0.1525878757238388,0.1220703050494194,86.66667175292969,141228.0,1.0
18:17:15.296688,132111.953125,142814.421875,158484.34375,155830.5625,170846.28125,168770.875,686221.375,128702.6015625,0.0517578125,1.00537109375,-0.10595703125,-0.7019042372703552,0.0610351525247097,0.2441406100988388,86.66667175292969,141229.0,1.0
18:17:15.296713,132098.28125,142788.140625,158484.6875,155835.125,170850.578125,168771.59375,686135.4375,128712.796875,0.052001953125,1.00634765625,-0.106689453125,-0.7934569716453552,-0.03051757626235485,0.1220703050494194,86.66667175292969,141230.0,1.0
18:17:15.300048,132069.671875,142755.765625,158463.953125,155820.640625,170829.296875,168748.34375,686130.75,128702.78125,0.052001953125,1.007568359375,-0.107177734375,-0.8239745497703552,-0.0915527269244194,0.2746581733226776,86.66667175292969,141231.0,1.0
18:17:15.300104,132091.21875,142791.09375,158473.078125,155825.015625,170834.03125,168758.359375,686221.9375,128707.875,0.052001953125,1.008056640625,-0.10498046875,-0.9155272841453552,-0.1831054538488388,0.3356933295726776,86.66667175292969,141232.0,1.0
18:17:15.300118,132116.34375,142820.59375,158488.890625,155835.296875,170850.84375,168776.0625,686247.375,128716.546875,0.052001953125,1.007568359375,-0.106201171875,-0.9460448622703552,-0.2136230319738388,0.4577636420726776,86.66667175292969,141233.0,1.0
18:17:15.301952,132104.265625,142800.921875,158488.625,155833.859375,170854.421875,168779.015625,686147.0,128713.328125,0.05029296875,1.0078125,-0.10693359375,-0.9765624403953552,-0.1525878757238388,0.3356933295726776,86.66667175292969,141234.0,1.0
18:17:15.304548,132075.390625,142761.765625,158467.890625,155823.9375,170833.40625,168754.6875,686127.4375,128705.015625,0.0517578125,1.00634765625,-0.106201171875,-0.9765624403953552,-0.1525878757238388,0.4577636420726776,86.66667175292969,141235.0,1.0
18:17:15.307015,132088.171875,142784.734375,158471.28125,155826.0,170832.0625,168753.53125,686199.5625,128699.4765625,0.051513671875,1.00537109375,-0.1025390625,-0.9765624403953552,-0.2441406100988388,0.5493163466453552,86.66667175292969,141236.0,1.0
18:17:15.309361,132106.328125,142810.9375,158477.09375,155824.03125,170834.65625,168762.828125,686232.5,128691.78125,0.05126953125,1.007080078125,-0.1064453125,-1.0681151151657104,-0.2441406100988388,0.4577636420726776,86.66667175292969,141237.0,1.0
18:17:15.311909,132106.0625,142802.703125,158487.640625,155834.21875,170850.21875,168776.953125,686145.6875,128706.625,0.0517578125,1.0068359375,-0.10546875,-1.0986326932907104,-0.3051757514476776,0.5493163466453552,86.66667175292969,141238.0,1.0
18:17:15.315041,132069.84375,142755.140625,158462.15625,155815.625,170825.09375,168748.703125,686109.5625,128695.71875,0.052001953125,1.006103515625,-0.104736328125,-1.1291502714157104,-0.2746581733226776,0.7934569716453552,86.66667175292969,141239.0,1.0
18:17:15.316882,132070.296875,142766.5,158458.859375,155810.171875,170819.109375,168743.25,686176.25,128688.4765625,0.0517578125,1.00634765625,-0.10400390625,-1.2207030057907104,-0.2746581733226776,0.8544921278953552,86.66667175292969,141240.0,1.0
18:17:15.319420,132099.359375,142806.109375,158473.515625,155821.890625,170831.0,168759.4375,686233.4375,128695.71875,0.052978515625,1.005859375,-0.104248046875,-1.3122557401657104,-0.3662109076976776,0.8239745497703552,86.66667175292969,141241.0,1.0
18:17:15.321880,132097.828125,142800.65625,158478.25,155821.703125,170841.359375,168768.640625,686182.3125,128697.4140625,0.05322265625,1.007568359375,-0.10595703125,-1.3427733182907104,-0.3051757514476776,0.9460448622703552,86.66667175292969,141242.0,1.0
18:17:15.326920,132064.84375,142753.796875,158456.4375,155810.53125,170820.359375,168743.703125,686123.0625,128692.3203125,0.0546875,1.008056640625,-0.106689453125,-1.4648436307907104,-0.3051757514476776,0.8850097060203552,86.66667175292969,141243.0,1.0
18:17:15.330459,132064.75,142760.515625,158453.84375,155809.28125,170815.890625,168739.140625,686174.4375,128690.0859375,0.052490234375,1.0087890625,-0.103759765625,-1.4648436307907104,-0.3051757514476776,1.0070799589157104,86.66667175292969,141244.0,1.0
18:17:15.330560,132087.546875,142792.421875,158461.53125,155815.71875,170818.5625,168743.515625,686242.3125,128692.234375,0.05224609375,1.009765625,-0.103515625,-1.5869139432907104,-0.2441406100988388,0.9155272841453552,86.66667175292969,141245.0,1.0
18:17:15.332214,132096.9375,142800.5625,158475.125,155822.25,170836.171875,168762.03125,686188.375,128698.578125,0.053955078125,1.012451171875,-0.103271484375,-1.6784666776657104,-0.3051757514476776,0.8544921278953552,86.66667175292969,141246.0,1.0
18:17:15.342768,132067.34375,142756.84375,158457.96875,155813.84375,170820.625,168743.703125,686122.6875,128694.375,0.054443359375,1.011962890625,-0.10400390625,-1.7700194120407104,-0.3356933295726776,0.8544921278953552,86.66667175292969,141247.0,1.0
18:17:15.342810,132059.75,142752.8125,158451.171875,155807.40625,170812.390625,168735.5625,686157.4375,128688.3828125,0.054931640625,1.010498046875,-0.1044921875,-1.8005369901657104,-0.2746581733226776,0.9155272841453552,86.66667175292969,141248.0,1.0
18:17:15.344938,132082.1875,142788.84375,158458.140625,155812.3125,170815.53125,168743.4375,686242.5,128691.6953125,0.056396484375,1.009033203125,-0.107421875,-1.9531248807907104,-0.2746581733226776,0.8544921278953552,86.66667175292969,141249.0,1.0
18:17:15.345036,132103.640625,142811.203125,158479.15625,155825.90625,170839.75,168768.28125,686209.5625,128703.671875,0.056640625,1.010009765625,-0.10498046875,-1.9836424589157104,-0.1220703050494194,0.8850097060203552,86.66667175292969,141250.0,1.0
18:17:15.350659,132079.140625,142774.015625,158468.421875,155819.296875,170830.640625,168756.84375,686138.25,128699.203125,0.056640625,1.008544921875,-0.10498046875,-1.9531248807907104,-0.1220703050494194,0.8544921278953552,86.66667175292969,141251.0,1.0
18:17:15.361222,132067.703125,142763.453125,158460.90625,155814.203125,170822.59375,168748.609375,686143.9375,128695.625,0.0595703125,1.007568359375,-0.107177734375,-1.9531248807907104,0.03051757626235485,0.8544921278953552,86.66667175292969,141252.0,1.0
18:17:15.361245,132087.8125,142795.28125,158469.21875,155819.46875,170826.4375,168753.359375,686204.3125,128694.015625,0.060791015625,1.0078125,-0.10546875,-2.014159917831421,0.1525878757238388,0.9155272841453552,86.66667175292969,141253.0,1.0
18:17:15.363651,132108.109375,142815.9375,158485.3125,155825.734375,170843.421875,168769.265625,686217.375,128697.953125,0.0615234375,1.0068359375,-0.106689453125,-2.044677495956421,0.0915527269244194,0.8239745497703552,86.66667175292969,141254.0,1.0
18:17:15.363676,132100.96875,142795.28125,158490.140625,155834.578125,170851.28125,168773.203125,686159.625,128711.3671875,0.060546875,1.008544921875,-0.104736328125,-2.105712652206421,0.2746581733226776,0.9460448622703552,86.66667175292969,141255.0,1.0
18:17:15.373197,132077.453125,142767.390625,158473.34375,155825.109375,170835.109375,168754.15625,686134.6875,128706.1796875,0.0595703125,1.0068359375,-0.105712890625,-2.105712652206421,0.3662109076976776,0.9765624403953552,86.66667175292969,141256.0,1.0
18:17:15.376143,132093.625,142794.9375,158477.984375,155826.796875,170836.265625,168758.0,686208.25,128703.671875,0.058349609375,1.00341796875,-0.1044921875,-2.075195074081421,0.4272460639476776,0.9460448622703552,86.66667175292969,141257.0,1.0
18:17:15.376156,132116.34375,142821.9375,158492.296875,155836.453125,170850.3125,168773.109375,686230.25,128712.171875,0.058349609375,1.004150390625,-0.10546875,-2.014159917831421,0.4272460639476776,0.9155272841453552,86.66667175292969,141258.0,1.0
18:17:15.381759,132121.4375,142818.53125,158509.546875,155852.1875,170871.671875,168791.984375,686159.625,128728.265625,0.06103515625,1.003662109375,-0.105224609375,-2.014159917831421,0.5187987685203552,0.8850097060203552,86.66667175292969,141259.0,1.0
18:17:15.384377,132095.328125,142782.0625,158491.671875,155842.09375,170853.609375,168769.453125,686129.125,128722.5390625,0.060546875,1.005615234375,-0.105224609375,-2.105712652206421,0.6408690810203552,0.7019042372703552,86.66667175292969,141260.0,1.0
18:17:15.394411,132095.953125,142791.53125,158483.171875,155829.75,170842.53125,168759.875,686194.5625,128707.34375,0.060302734375,1.00634765625,-0.10498046875,-2.075195074081421,0.7019042372703552,0.7934569716453552,86.66667175292969,141261.0,1.0
18:17:15.397693,132118.125,142822.296875,158492.828125,155833.6875,170849.765625,168774.28125,686234.0625,128705.8203125,0.060302734375,1.005126953125,-0.10400390625,-2.044677495956421,0.8544921278953552,0.7629393935203552,86.66667175292969,141262.0,1.0
18:17:15.397715,132119.015625,142816.75,158504.09375,155841.640625,170866.125,168788.671875,686176.5,128717.3515625,0.059326171875,1.004638671875,-0.105224609375,-2.014159917831421,0.7934569716453552,0.7934569716453552,86.66667175292969,141263.0,1.0
18:17:15.424484,132084.875,142772.765625,158480.671875,155827.078125,170844.21875,168761.84375,686120.875,128709.6640625,0.05810546875,1.0048828125,-0.1064453125,-1.9836424589157104,0.9460448622703552,0.7324218153953552,86.66667175292969,141264.0,1.0
18:17:15.426871,132087.1875,142789.75,158479.234375,155822.421875,170841.359375,168762.46875,686187.0625,128703.671875,0.0546875,1.004638671875,-0.103271484375,-1.9531248807907104,1.0375975370407104,0.6103515028953552,86.66667175292969,141265.0,1.0
18:17:15.429291,132111.59375,142820.765625,158489.4375,155830.296875,170847.890625,168771.140625,686240.5,128704.65625,0.05322265625,1.004638671875,-0.105712890625,-1.8920897245407104,0.9460448622703552,0.6713866591453552,86.66667175292969,141266.0,1.0
18:17:15.432856,132116.34375,142819.078125,158500.25,155837.265625,170863.984375,168784.640625,686191.8125,128717.0859375,0.054931640625,1.004638671875,-0.104248046875,-1.9836424589157104,0.9155272841453552,0.6713866591453552,86.66667175292969,141267.0,1.0
18:17:15.434378,132080.390625,142770.078125,158476.46875,155824.65625,170839.9375,168755.953125,686128.875,128708.4140625,0.05517578125,1.004150390625,-0.101806640625,-1.9531248807907104,0.8544921278953552,0.4882812201976776,86.66667175292969,141268.0,1.0
18:17:15.436778,132084.59375,142782.328125,158478.171875,155824.5625,170839.21875,168757.5625,686159.875,128703.671875,0.053466796875,1.004150390625,-0.0986328125,-1.9531248807907104,0.8239745497703552,0.6103515028953552,86.66667175292969,141269.0,1.0
18:17:15.439329,132109.1875,142816.203125,158487.109375,155831.625,170843.15625,168764.703125,686228.375,128707.25,0.0517578125,1.001953125,-0.101318359375,-1.8310545682907104,0.7629393935203552,0.6103515028953552,86.66667175292969,141270.0,1.0
18:17:15.441779,132123.765625,142829.265625,158505.34375,155843.34375,170865.765625,168788.9375,686200.0,128718.78125,0.052490234375,1.003173828125,-0.101806640625,-1.8310545682907104,0.7629393935203552,0.5187987685203552,86.66667175292969,141271.0,1.0
18:17:15.444879,132103.015625,142793.234375,158497.03125,155841.90625,170859.328125,168778.828125,686149.5625,128719.140625,0.051025390625,1.00244140625,-0.101806640625,-1.8005369901657104,0.7324218153953552,0.3662109076976776,86.66667175292969,141272.0,1.0
18:17:15.444906,132086.828125,142778.84375,158480.40625,155828.234375,170841.1875,168759.703125,686156.0,128705.109375,0.050048828125,1.00390625,-0.101806640625,-1.8005369901657104,0.6713866591453552,0.4882812201976776,86.66667175292969,141273.0,1.0
18:17:15.446777,132106.234375,142812.984375,158483.796875,155828.765625,170837.96875,168763.546875,686227.9375,128703.046875,0.047607421875,1.003173828125,-0.101318359375,-1.6784666776657104,0.6103515028953552,0.4882812201976776,86.66667175292969,141274.0,1.0
18:17:15.449888,132123.9375,142833.375,158499.53125,155838.609375,170856.65625,168785.265625,686208.5,128711.1875,0.048583984375,1.003173828125,-0.099853515625,-1.6479490995407104,0.4577636420726776,0.3967284858226776,86.66667175292969,141275.0,1.0
18:17:15.449916,132098.734375,142794.03125,158487.203125,155834.40625,170846.375,168772.671875,686156.5,128710.109375,0.048583984375,1.00390625,-0.102294921875,-1.6479490995407104,0.3662109076976776,0.4272460639476776,86.66667175292969,141276.0,1.0
18:17:15.458112,132091.484375,142787.6875,158483.4375,155835.125,170842.96875,168769.984375,686142.8125,128714.2265625,0.048828125,1.00146484375,-0.10302734375,-1.6174315214157104,0.2136230319738388,0.4577636420726776,86.66667175292969,141277.0,1.0
18:17:15.462408,132110.078125,142819.703125,158488.53125,155837.984375,170843.59375,168773.828125,686206.125,128709.84375,0.048583984375,1.00341796875,-0.103271484375,-1.5563963651657104,0.1831054538488388,0.4272460639476776,86.66667175292969,141278.0,1.0
18:17:15.462433,132125.015625,142835.796875,158498.28125,155841.015625,170854.59375,168785.09375,686215.1875,128711.71875,0.0498046875,1.005615234375,-0.103515625,-1.5563963651657104,0.03051757626235485,0.4882812201976776,86.66667175292969,141279.0,1.0
18:17:15.468120,132103.109375,142799.84375,158489.96875,155836.734375,170850.03125,168774.546875,686162.9375,128712.6171875,0.05029296875,1.0068359375,-0.100341796875,-1.5258787870407104,-0.03051757626235485,0.4577636420726776,86.66667175292969,141280.0,1.0
18:17:15.470657,132083.796875,142777.3125,158477.71875,155831.71875,170836.71875,168760.0625,686135.625,128712.796875,0.05029296875,1.006103515625,-0.099365234375,-1.5563963651657104,-0.0915527269244194,0.4577636420726776,86.66667175292969,141281.0,1.0
18:17:15.479286,132094.171875,142799.40625,158476.828125,155826.796875,170831.34375,168756.390625,686209.3125,128703.40625,0.051513671875,1.0068359375,-0.101318359375,-1.4953612089157104,-0.1831054538488388,0.5187987685203552,86.66667175292969,141282.0,1.0
18:17:15.486197,132114.8125,142823.265625,158487.734375,155831.71875,170840.296875,168766.046875,686234.375,128705.1953125,0.0517578125,1.005126953125,-0.103515625,-1.4953612089157104,-0.2441406100988388,0.5798339247703552,86.66667175292969,141283.0,1.0
18:17:15.486224,132104.09375,142803.875,158489.4375,155833.953125,170846.109375,168770.15625,686174.875,128711.8984375,0.05078125,1.005615234375,-0.105224609375,-1.4343260526657104,-0.3051757514476776,0.5493163466453552,86.66667175292969,141284.0,1.0
18:17:15.488280,132074.046875,142765.6875,158468.25,155820.8125,170825.890625,168747.625,686125.125,128699.4765625,0.051513671875,1.005615234375,-0.107421875,-1.4648436307907104,-0.3662109076976776,0.6408690810203552,86.66667175292969,141285.0,1.0
18:17:15.490596,132085.21875,142787.6875,158471.90625,155821.890625,170826.25,168750.765625,686193.9375,128698.671875,0.050537109375,1.0048828125,-0.104248046875,-1.3427733182907104,-0.4272460639476776,0.5187987685203552,86.66667175292969,141286.0,1.0
18:17:15.494401,132112.5,142819.875,158487.109375,155833.421875,170839.671875,168764.265625,686235.75,128705.28125,0.0517578125,1.00439453125,-0.104248046875,-1.4343260526657104,-0.4882812201976776,0.6103515028953552,86.66667175292969,141287.0,1.0
18:17:15.504891,132112.234375,142813.4375,158496.40625,155837.625,170855.140625,168776.953125,686174.8125,128711.546875,0.05517578125,1.0048828125,-0.10107421875,-1.4038084745407104,-0.5493163466453552,0.5493163466453552,86.66667175292969,141288.0,1.0
18:17:15.504910,132082.8125,142773.734375,158478.171875,155828.140625,170837.609375,168756.65625,686128.0625,128708.859375,0.055419921875,1.005859375,-0.102294921875,-1.3732908964157104,-0.4272460639476776,0.6408690810203552,86.66667175292969,141289.0,1.0
18:17:15.507362,132078.078125,142779.1875,158468.875,155814.375,170826.4375,168748.53125,686169.4375,128692.5859375,0.0556640625,1.0048828125,-0.104736328125,-1.3122557401657104,-0.4577636420726776,0.6408690810203552,86.66667175292969,141290.0,1.0
18:17:15.507375,132092.734375,142802.171875,158469.3125,155811.421875,170823.03125,168748.078125,686210.8125,128683.2890625,0.05615234375,1.005615234375,-0.10498046875,-1.2512205839157104,-0.4882812201976776,0.5493163466453552,86.66667175292969,141291.0,1.0
18:17:15.516798,132098.28125,142804.59375,158481.203125,155819.03125,170840.734375,168765.15625,686187.3125,128692.0546875,0.05517578125,1.00439453125,-0.10400390625,-1.2817381620407104,-0.4882812201976776,0.6408690810203552,86.66667175292969,141292.0,1.0
18:17:15.519387,132070.390625,142757.921875,158465.46875,155816.15625,170826.171875,168741.28125,686134.375,128697.5078125,0.053466796875,1.00439453125,-0.1025390625,-1.1291502714157104,-0.5187987685203552,0.5187987685203552,86.66667175292969,141293.0,1.0
18:17:15.523657,132071.09375,142765.421875,158465.109375,155815.453125,170824.46875,168742.265625,686162.3125,128698.578125,0.05517578125,1.0068359375,-0.101318359375,-1.1901854276657104,-0.5187987685203552,0.6713866591453552,86.66667175292969,141294.0,1.0
18:17:15.523670,132087.28125,142793.140625,158465.5625,155811.25,170821.515625,168741.46875,686227.4375,128686.953125,0.054931640625,1.0068359375,-0.101318359375,-1.2817381620407104,-0.5187987685203552,0.6408690810203552,86.66667175292969,141295.0,1.0
18:17:15.533120,132093.09375,142798.859375,158474.859375,155812.140625,170835.28125,168755.5,686187.3125,128686.328125,0.054931640625,1.0078125,-0.104736328125,-1.2817381620407104,-0.5493163466453552,0.5187987685203552,86.66667175292969,141296.0,1.0
18:17:15.539907,132065.375,142757.109375,158460.546875,155806.78125,170821.34375,168738.421875,686132.25,128686.6015625,0.05712890625,1.008056640625,-0.10107421875,-1.2207030057907104,-0.4577636420726776,0.5493163466453552,86.66667175292969,141297.0,1.0
18:17:15.539937,132052.40625,142747.09375,158449.828125,155798.734375,170809.625,168726.0,686133.875,128679.1796875,0.05859375,1.006591796875,-0.1025390625,-1.3122557401657104,-0.3662109076976776,0.5187987685203552,86.66667175292969,141298.0,1.0
18:17:15.541761,132077.0,142781.34375,158457.875,155804.0,170812.484375,168732.34375,686201.625,128679.5390625,0.05712890625,1.00830078125,-0.101318359375,-1.4038084745407104,-0.3967284858226776,0.5187987685203552,86.66667175292969,141299.0,1.0
18:17:15.545615,132103.375,142809.6875,158483.078125,155821.96875,170839.046875,168761.578125,686193.5625,128699.7421875,0.06103515625,1.007568359375,-0.101806640625,-1.4648436307907104,-0.3051757514476776,0.4882812201976776,86.66667175292969,141300.0,1.0
18:17:15.561221,132084.25,142776.953125,158476.828125,155822.953125,170835.28125,168754.34375,686134.9375,128700.7265625,0.059814453125,1.00927734375,-0.10009765625,-1.4648436307907104,-0.3051757514476776,0.5493163466453552,86.66667175292969,141301.0,1.0
18:17:15.561241,132061.171875,142752.46875,158457.875,155808.03125,170815.4375,168733.5,686139.6875,128688.1171875,0.05712890625,1.00830078125,-0.1015625,-1.5258787870407104,-0.1831054538488388,0.5187987685203552,86.66667175292969,141302.0,1.0
18:17:15.564275,132076.546875,142780.453125,158460.109375,155804.71875,170813.734375,168732.609375,686201.375,128679.984375,0.05859375,1.00927734375,-0.103759765625,-1.5869139432907104,-0.1220703050494194,0.4577636420726776,86.66667175292969,141303.0,1.0
18:17:15.564293,132098.1875,142807.359375,158476.828125,155819.65625,170832.25,168753.796875,686211.4375,128694.2890625,0.058349609375,1.009765625,-0.100341796875,-1.5563963651657104,0.03051757626235485,0.3356933295726776,86.66667175292969,141304.0,1.0
18:17:15.564297,132075.921875,142773.296875,158467.796875,155812.046875,170827.78125,168747.0,686158.6875,128691.15625,0.05908203125,1.008544921875,-0.1015625,-1.6784666776657104,0.03051757626235485,0.2441406100988388,86.66667175292969,141305.0,1.0
18:17:15.566910,132048.21875,142738.6875,158446.875,155796.9375,170806.859375,168724.296875,686122.4375,128683.3828125,0.057373046875,1.008544921875,-0.10400390625,-1.7089842557907104,0.0,0.2746581733226776,86.66667175292969,141306.0,1.0
18:17:15.573179,132048.484375,142753.265625,158435.703125,155781.46875,170792.90625,168714.109375,686195.8125,128662.0078125,0.054931640625,1.0078125,-0.10546875,-1.7700194120407104,0.0915527269244194,0.3356933295726776,86.66667175292969,141307.0,1.0
18:17:15.576933,132067.875,142779.28125,158445.4375,155786.125,170800.78125,168726.890625,686216.625,128661.8359375,0.0556640625,1.010009765625,-0.102783203125,-1.8310545682907104,0.1831054538488388,0.3051757514476776,86.66667175292969,141308.0,1.0
18:17:15.587473,132065.921875,142767.296875,158453.40625,155796.3125,170812.84375,168737.34375,686165.25,128674.9765625,0.057861328125,1.010986328125,-0.10107421875,-1.8310545682907104,0.2441406100988388,0.1220703050494194,86.66667175292969,141309.0,1.0
18:17:15.587488,132039.265625,142732.25,158435.515625,155788.453125,170795.765625,168717.859375,686120.875,128672.5625,0.055908203125,1.008056640625,-0.10400390625,-1.8920897245407104,0.2746581733226776,0.2746581733226776,86.66667175292969,141310.0,1.0
18:17:15.589345,132045.703125,142749.953125,158434.359375,155782.546875,170790.765625,168713.203125,686179.875,128662.9921875,0.0556640625,1.00634765625,-0.102783203125,-1.9836424589157104,0.2441406100988388,0.1220703050494194,86.66667175292969,141311.0,1.0
18:17:15.598092,132070.03125,142782.859375,158445.53125,155788.625,170797.28125,168724.921875,686218.625,128662.8125,0.05419921875,1.0078125,-0.102294921875,-1.9836424589157104,0.3051757514476776,0.2136230319738388,86.66667175292969,141312.0,1.0
18:17:15.604944,132072.796875,142778.296875,158456.078125,155795.328125,170813.203125,168739.140625,686172.8125,128671.1328125,0.0537109375,1.007080078125,-0.102294921875,-2.014159917831421,0.2441406100988388,0.2441406100988388,86.66667175292969,141313.0,1.0
18:17:15.604967,132047.3125,142737.625,158442.21875,155795.328125,170799.875,168721.078125,686119.8125,128678.28125,0.054931640625,1.007568359375,-0.10302734375,-1.9226073026657104,0.2441406100988388,0.1831054538488388,86.66667175292969,141314.0,1.0
18:17:15.629915,132055.453125,142755.765625,158446.25,155795.328125,170803.09375,168725.734375,686179.875,128677.125,0.0537109375,1.006591796875,-0.102783203125,-1.8920897245407104,0.2136230319738388,0.3051757514476776,86.66667175292969,141315.0,1.0
18:17:15.629937,132076.546875,142784.203125,158452.5,155797.5625,170806.671875,168732.25,686234.6875,128675.2421875,0.053466796875,1.00537109375,-0.103759765625,-1.8005369901657104,0.2136230319738388,0.2746581733226776,86.66667175292969,141316.0,1.0
18:17:15.651846,132081.203125,142785.71875,158464.484375,155804.09375,170823.578125,168748.796875,686178.1875,128688.03125,0.0517578125,1.006103515625,-0.103271484375,-1.7395018339157104,0.2136230319738388,0.5187987685203552,86.66667175292969,141317.0,1.0
18:17:15.651875,132059.828125,142749.15625,158455.90625,155807.40625,170815.171875,168734.046875,686117.9375,128697.234375,0.05078125,1.001708984375,-0.101806640625,-1.7089842557907104,0.2746581733226776,0.4882812201976776,86.66667175292969,141318.0,1.0
18:17:15.651882,132060.453125,142756.21875,158455.09375,155804.1875,170812.390625,168731.453125,686176.75,128685.34375,0.05126953125,1.00048828125,-0.103271484375,-1.6174315214157104,0.2441406100988388,0.5798339247703552,86.66667175292969,141319.0,1.0
18:17:15.655606,132063.328125,142770.609375,158441.875,155785.234375,170794.34375,168718.84375,686233.8125,128660.4921875,0.0498046875,0.998291015625,-0.10205078125,-1.5563963651657104,0.2441406100988388,0.6408690810203552,86.66667175292969,141320.0,1.0
18:17:15.655638,132073.609375,142780.0,158454.921875,155794.609375,170810.875,168735.921875,686192.125,128668.5390625,0.04833984375,0.9990234375,-0.10546875,-1.4953612089157104,0.0915527269244194,0.5493163466453552,86.66667175292969,141321.0,1.0
18:17:15.655645,132050.53125,142741.203125,158445.53125,155795.328125,170803.28125,168722.6875,686145.5,128675.6875,0.04931640625,1.003662109375,-0.10107421875,-1.4343260526657104,0.03051757626235485,0.7019042372703552,86.66667175292969,141322.0,1.0
18:17:15.659307,132049.109375,142740.03125,158445.4375,155796.046875,170803.09375,168719.5625,686148.0,128679.8046875,0.050537109375,1.002197265625,-0.101318359375,-1.3732908964157104,0.0610351525247097,0.7019042372703552,86.66667175292969,141323.0,1.0
18:17:15.659320,132075.84375,142778.75,158458.671875,155805.34375,170811.59375,168730.46875,686209.375,128683.109375,0.051025390625,0.999755859375,-0.10302734375,-1.4648436307907104,0.03051757626235485,0.7019042372703552,86.66667175292969,141324.0,1.0
18:17:15.659324,132090.140625,142796.1875,158471.015625,155806.328125,170825.453125,168746.203125,686206.1875,128679.5390625,0.05078125,1.000244140625,-0.1064453125,-1.3732908964157104,-0.03051757626235485,0.6103515028953552,86.66667175292969,141325.0,1.0
18:17:15.662523,132073.421875,142764.0,158467.078125,155808.109375,170823.03125,168738.609375,686152.5625,128686.421875,0.051025390625,0.99951171875,-0.1025390625,-1.3427733182907104,-0.0915527269244194,0.5493163466453552,86.66667175292969,141326.0,1.0
18:17:15.662545,132063.859375,142753.796875,158461.265625,155807.140625,170815.890625,168732.703125,686151.9375,128688.65625,0.05078125,1.0009765625,-0.103759765625,-1.2207030057907104,-0.0915527269244194,0.6408690810203552,86.66667175292969,141327.0,1.0
18:17:15.664315,132090.140625,142794.75,158474.046875,155816.34375,170822.953125,168746.203125,686223.875,128691.875,0.053955078125,1.001220703125,-0.10205078125,-1.0986326932907104,-0.1525878757238388,0.6408690810203552,86.66667175292969,141328.0,1.0
18:17:15.666855,132105.25,142811.828125,158483.359375,155821.890625,170833.140625,168756.03125,686231.125,128696.4296875,0.058349609375,1.003662109375,-0.107421875,-1.0375975370407104,-0.1831054538488388,0.7019042372703552,86.66667175292969,141329.0,1.0
18:17:15.669366,132088.265625,142783.390625,158479.234375,155820.984375,170833.671875,168752.375,686150.3125,128700.28125,0.061767578125,1.003662109375,-0.108154296875,-0.9460448622703552,-0.1525878757238388,0.8239745497703552,86.66667175292969,141330.0,1.0
18:17:15.674809,132064.390625,142753.453125,158462.703125,155813.03125,170816.78125,168732.078125,686142.375,128694.2890625,0.06005859375,1.0029296875,-0.10595703125,-0.8850097060203552,-0.0610351525247097,1.0070799589157104,86.66667175292969,141331.0,1.0
18:17:15.676812,132081.46875,142783.671875,158468.78125,155816.15625,170820.0,168739.671875,686206.25,128693.125,0.058349609375,1.005126953125,-0.107177734375,-0.8239745497703552,0.0915527269244194,1.0375975370407104,86.66667175292969,141332.0,1.0
18:17:15.679424,132088.890625,142795.375,158466.359375,155806.6875,170815.890625,168738.15625,686231.0625,128682.0390625,0.0576171875,1.00537109375,-0.10693359375,-0.6408690810203552,0.0915527269244194,1.1291502714157104,86.66667175292969,141333.0,1.0
18:17:15.686137,132078.078125,142776.515625,158467.265625,155808.296875,170820.890625,168741.28125,686148.3125,128694.109375,0.055908203125,1.00439453125,-0.106689453125,-0.5798339247703552,0.1525878757238388,1.0070799589157104,86.66667175292969,141334.0,1.0
18:17:15.686157,132051.515625,142742.71875,158450.453125,155798.734375,170803.1875,168721.609375,686109.6875,128683.2890625,0.05517578125,1.005859375,-0.107177734375,-0.5187987685203552,0.1831054538488388,0.8850097060203552,86.66667175292969,141335.0,1.0
18:17:15.688023,132062.421875,142762.46875,158454.109375,155799.0,170803.546875,168722.328125,686175.875,128677.75,0.054443359375,1.0078125,-0.105224609375,-0.5798339247703552,0.2136230319738388,0.8239745497703552,86.66667175292969,141336.0,1.0
18:17:15.696971,132084.421875,142790.375,158461.625,155804.359375,170809.625,168732.609375,686219.4375,128679.0859375,0.0546875,1.00927734375,-0.104736328125,-0.5493163466453552,0.1220703050494194,0.7934569716453552,86.66667175292969,141337.0,1.0
18:17:15.707396,132085.765625,142788.84375,158472.0,155808.921875,170824.734375,168748.96875,686165.4375,128685.9765625,0.054443359375,1.012939453125,-0.106201171875,-0.5187987685203552,0.1220703050494194,0.7324218153953552,86.66667175292969,141338.0,1.0
18:17:15.707417,132052.40625,142744.6875,158449.828125,155797.125,170803.28125,168724.296875,686120.0,128682.3984375,0.052734375,1.0146484375,-0.10400390625,-0.6103515028953552,0.0915527269244194,0.4272460639476776,86.66667175292969,141339.0,1.0
18:17:15.709883,132057.875,142760.421875,158450.0,155797.828125,170802.109375,168727.609375,686172.0625,128679.359375,0.053466796875,1.0126953125,-0.103271484375,-0.7324218153953552,0.0915527269244194,0.2136230319738388,86.66667175292969,141340.0,1.0
18:17:15.709904,132078.96875,142791.265625,158456.625,155799.890625,170804.890625,168733.328125,686225.0625,128676.671875,0.052734375,1.011962890625,-0.10107421875,-0.9155272841453552,0.0,0.0610351525247097,86.66667175292969,141341.0,1.0
18:17:15.711863,132082.984375,142791.71875,158467.796875,155804.265625,170821.515625,168745.671875,686175.625,128687.1328125,0.055419921875,1.010009765625,-0.101806640625,-0.9460448622703552,0.0,0.03051757626235485,86.66667175292969,141342.0,1.0
18:17:15.724355,132055.28125,142750.234375,158451.34375,155800.078125,170807.484375,168726.984375,686108.8125,128689.1015625,0.05712890625,1.009033203125,-0.103271484375,-1.0986326932907104,-0.0610351525247097,-0.0610351525247097,86.66667175292969,141343.0,1.0
18:17:15.727449,132057.515625,142759.078125,158452.328125,155800.078125,170807.65625,168730.28125,686164.1875,128685.078125,0.056884765625,1.007080078125,-0.102783203125,-1.1291502714157104,-0.0915527269244194,-0.0915527269244194,86.66667175292969,141344.0,1.0
18:17:15.727470,132070.390625,142780.984375,158450.265625,155797.296875,170801.671875,168725.640625,686223.875,128676.3203125,0.061279296875,1.006591796875,-0.103271484375,-1.1596678495407104,-0.03051757626235485,-0.0610351525247097,86.66667175292969,141345.0,1.0
18:17:15.730046,132078.15625,142788.84375,158460.109375,155800.15625,170816.515625,168740.125,686204.9375,128680.34375,0.060546875,1.00927734375,-0.102783203125,-1.3122557401657104,0.0,0.03051757626235485,86.66667175292969,141346.0,1.0
18:17:15.730060,132051.25,142746.921875,158446.875,155795.953125,170804.265625,168723.578125,686131.4375,128682.125,0.0625,1.010009765625,-0.101318359375,-1.2817381620407104,0.0915527269244194,0.0610351525247097,86.66667175292969,141347.0,1.0
18:17:15.739318,132044.640625,142743.078125,158443.65625,155794.890625,170799.25,168720.0,686144.3125,128681.7734375,0.0595703125,1.0087890625,-0.10302734375,-1.3427733182907104,0.2746581733226776,0.1220703050494194,86.66667175292969,141348.0,1.0
18:17:15.746386,132064.3125,142774.09375,158449.28125,155797.390625,170800.78125,168724.03125,686222.75,128678.4609375,0.05859375,1.00830078125,-0.10302734375,-1.4343260526657104,0.1831054538488388,0.3662109076976776,86.66667175292969,141349.0,1.0
18:17:15.746422,132073.6875,142785.71875,158455.453125,155796.5,170810.078125,168734.484375,686211.8125,128676.40625,0.055908203125,1.009765625,-0.101318359375,-1.4648436307907104,0.2746581733226776,0.3967284858226776,86.66667175292969,141350.0,1.0
18:17:15.752462,132049.734375,142747.640625,158445.0,155791.390625,170800.859375,168722.328125,686145.5,128675.515625,0.052734375,1.01025390625,-0.101806640625,-1.5258787870407104,0.2136230319738388,0.4577636420726776,86.66667175292969,141351.0,1.0
18:17:15.752497,132030.59375,142726.984375,158430.609375,155781.734375,170784.6875,168706.59375,686134.0625,128671.0390625,0.052490234375,1.00927734375,-0.102783203125,-1.6784666776657104,0.1831054538488388,0.4882812201976776,86.66667175292969,141352.0,1.0
18:17:15.754328,132050.625,142761.671875,158436.5,155784.515625,170786.828125,168713.484375,686189.0,128672.1171875,0.050537109375,1.00927734375,-0.100830078125,-1.6784666776657104,0.2746581733226776,0.4272460639476776,86.66667175292969,141353.0,1.0
18:17:15.764364,132062.96875,142776.515625,158443.203125,155783.078125,170792.640625,168720.1875,686195.875,128664.6015625,0.051025390625,1.01025390625,-0.09912109375,-1.8310545682907104,0.1220703050494194,0.3356933295726776,86.66667175292969,141354.0,1.0
18:17:15.768630,132052.140625,142751.84375,158445.359375,155788.890625,170798.453125,168720.71875,686120.0625,128670.328125,0.05078125,1.009521484375,-0.099609375,-1.9531248807907104,0.1525878757238388,0.3967284858226776,86.66667175292969,141355.0,1.0
18:17:15.768655,132032.46875,142727.15625,158432.65625,155783.4375,170786.734375,168706.859375,686107.5,128666.390625,0.050537109375,1.009521484375,-0.099609375,-2.014159917831421,0.2136230319738388,0.4577636420726776,86.66667175292969,141356.0,1.0
18:17:15.775726,132048.75,142755.859375,158439.453125,155783.078125,170789.0625,168709.640625,686184.125,128664.3359375,0.048583984375,1.0107421875,-0.101318359375,-2.227782964706421,0.0610351525247097,0.4577636420726776,86.66667175292969,141357.0,1.0
18:17:15.778056,132073.609375,142785.28125,158454.5625,155799.09375,170801.578125,168723.578125,686222.125,128677.03125,0.048583984375,1.009765625,-0.099853515625,-2.288818120956421,0.03051757626235485,0.4272460639476776,86.66667175292969,141358.0,1.0
18:17:15.784321,132068.859375,142770.515625,158459.65625,155802.125,170811.953125,168731.890625,686166.0625,128683.203125,0.049072265625,1.00732421875,-0.10009765625,-2.380370855331421,-0.1220703050494194,0.4577636420726776,86.66667175292969,141359.0,1.0
18:17:15.792503,132048.5625,142740.484375,158448.9375,155800.421875,170801.84375,168718.03125,686117.9375,128686.6875,0.04833984375,1.007080078125,-0.097900390625,-2.471923589706421,-0.2441406100988388,0.3662109076976776,86.66667175292969,141360.0,1.0
18:17:15.792528,132049.28125,142754.25,158443.125,155792.203125,170793.0,168712.578125,686175.5,128674.171875,0.04833984375,1.006103515625,-0.09912109375,-2.471923589706421,-0.2441406100988388,0.3967284858226776,86.66667175292969,141361.0,1.0
18:17:15.794325,132072.265625,142785.71875,158453.765625,155798.46875,170801.578125,168723.21875,686222.1875,128675.78125,0.050537109375,1.006591796875,-0.09765625,-2.410888433456421,-0.2441406100988388,0.3356933295726776,86.66667175292969,141362.0,1.0
18:17:15.798042,132073.875,142781.4375,158463.953125,155804.71875,170816.59375,168737.625,686148.0,128685.171875,0.05126953125,1.00341796875,-0.099365234375,-2.410888433456421,-0.3051757514476776,0.2746581733226776,86.66667175292969,141363.0,1.0
18:17:15.804913,132039.625,142733.15625,158439.359375,155793.09375,170792.8125,168710.796875,686097.5625,128680.875,0.05029296875,1.005126953125,-0.101318359375,-2.441406011581421,-0.3662109076976776,0.3356933295726776,86.66667175292969,141364.0,1.0
18:17:15.804937,132039.8125,142742.8125,158435.875,155786.84375,170787.984375,168706.59375,686167.375,128670.7734375,0.050537109375,1.002685546875,-0.10302734375,-2.441406011581421,-0.3967284858226776,0.2136230319738388,86.66667175292969,141365.0,1.0
18:17:15.806820,132067.4375,142783.21875,158448.84375,155794.4375,170796.75,168721.4375,686223.625,128675.6015625,0.053466796875,1.002685546875,-0.102294921875,-2.349853277206421,-0.4577636420726776,0.2136230319738388,86.66667175292969,141366.0,1.0
18:17:15.818183,132075.03125,142785.28125,158461.890625,155802.75,170814.1875,168737.34375,686181.6875,128685.34375,0.053466796875,1.00146484375,-0.099609375,-2.288818120956421,-0.3662109076976776,0.2746581733226776,86.66667175292969,141367.0,1.0
18:17:15.821185,132040.171875,142736.8125,158438.921875,155789.875,170791.5625,168711.0625,686118.8125,128675.2421875,0.052734375,1.00146484375,-0.09716796875,-2.319335699081421,-0.4882812201976776,0.2441406100988388,86.66667175292969,141368.0,1.0
18:17:15.821197,132033.90625,142736.09375,158431.9375,155782.640625,170783.515625,168702.84375,686153.6875,128665.6796875,0.052490234375,0.999755859375,-0.1025390625,-2.105712652206421,-0.4272460639476776,0.3662109076976776,86.66667175292969,141369.0,1.0
18:17:15.830599,132061.984375,142774.375,158444.453125,155793.0,170791.203125,168712.859375,686230.25,128673.2734375,0.052734375,0.99951171875,-0.101318359375,-2.014159917831421,-0.4577636420726776,0.3967284858226776,86.66667175292969,141370.0,1.0
18:17:15.834929,132072.53125,142783.84375,158455.375,155796.765625,170804.96875,168727.15625,686208.6875,128673.2734375,0.056396484375,0.99853515625,-0.1025390625,-1.8615721464157104,-0.5187987685203552,0.4882812201976776,86.66667175292969,141371.0,1.0
18:17:15.834949,132045.703125,142742.8125,158441.15625,155790.421875,170792.28125,168711.59375,686144.5625,128670.59375,0.05712890625,1.000244140625,-0.102294921875,-1.8005369901657104,-0.3967284858226776,0.4882812201976776,86.66667175292969,141372.0,1.0
18:17:15.840620,132036.859375,142735.125,158433.015625,155784.15625,170782.453125,168702.75,686143.9375,128667.46875,0.05810546875,0.999755859375,-0.103515625,-1.6479490995407104,-0.3967284858226776,0.6103515028953552,86.66667175292969,141373.0,1.0
18:17:15.847362,132057.15625,142765.515625,158438.65625,155787.46875,170784.40625,168705.4375,686234.5,128666.3046875,0.0576171875,1.00146484375,-0.103759765625,-1.6174315214157104,-0.2746581733226776,0.6103515028953552,86.66667175292969,141374.0,1.0
18:17:15.847377,132074.5,142782.953125,158452.6875,155790.5,170801.125,168723.40625,686217.0,128668.8046875,0.05712890625,1.002685546875,-0.103759765625,-1.4038084745407104,-0.2746581733226776,0.7019042372703552,86.66667175292969,141375.0,1.0
18:17:15.856087,132057.15625,142751.296875,158449.28125,155795.0625,170799.4375,168717.6875,686154.25,128680.25,0.057861328125,1.002197265625,-0.103515625,-1.4038084745407104,-0.1831054538488388,0.9460448622703552,86.66667175292969,141376.0,1.0
18:17:15.856703,132034.53125,142726.4375,158432.484375,155784.609375,170782.53125,168699.359375,686138.9375,128674.8828125,0.056396484375,1.0029296875,-0.101806640625,-1.2207030057907104,-0.1525878757238388,0.8850097060203552,86.66667175292969,141377.0,1.0
18:17:15.856824,132056.609375,142761.046875,158441.0625,155789.96875,170787.28125,168707.046875,686197.3125,128669.8828125,0.057861328125,1.00537109375,-0.100830078125,-1.1291502714157104,-0.03051757626235485,0.8544921278953552,86.66667175292969,141378.0,1.0
18:17:15.868400,132087.375,142795.109375,158464.3125,155805.25,170809.625,168732.515625,686219.9375,128679.0,0.05810546875,1.00732421875,-0.1005859375,-1.0375975370407104,0.0,0.8544921278953552,86.66667175292969,141379.0,1.0
18:17:15.871259,132083.96875,142779.28125,158472.796875,155817.234375,170822.140625,168740.125,686163.0625,128697.0625,0.05712890625,1.008544921875,-0.101318359375,-0.9765624403953552,0.2136230319738388,0.6713866591453552,86.66667175292969,141380.0,1.0
18:17:15.871554,132051.4375,142737.984375,158447.140625,155804.1875,170796.484375,168709.8125,686141.75,128687.1328125,0.055419921875,1.009521484375,-0.10302734375,-0.9765624403953552,0.1525878757238388,0.8544921278953552,86.66667175292969,141381.0,1.0
18:17:15.882266,132063.046875,142762.828125,158448.84375,155800.078125,170793.078125,168709.90625,686191.1875,128678.375,0.0546875,1.00927734375,-0.10400390625,-0.9765624403953552,0.2136230319738388,0.8544921278953552,86.66667175292969,141382.0,1.0
18:17:15.882380,132087.375,142791.890625,158461.890625,155805.875,170804.4375,168723.40625,686228.5625,128679.1796875,0.05517578125,1.009033203125,-0.104736328125,-1.0681151151657104,0.1831054538488388,0.8544921278953552,86.66667175292969,141383.0,1.0
18:17:15.886214,132078.609375,142775.53125,158463.859375,155807.84375,170810.96875,168727.34375,686164.6875,128685.171875,0.05615234375,1.0078125,-0.100830078125,-1.1291502714157104,0.3356933295726776,0.8239745497703552,86.66667175292969,141384.0,1.0
18:17:15.886258,132047.140625,142735.203125,158441.421875,155794.96875,170788.96875,168703.28125,686109.375,128676.9453125,0.05419921875,1.006591796875,-0.10302734375,-1.1596678495407104,0.2746581733226776,0.6103515028953552,86.66667175292969,141385.0,1.0
18:17:15.891965,132062.0625,142761.578125,158449.828125,155799.359375,170794.6875,168711.25,686188.9375,128678.734375,0.054931640625,1.006591796875,-0.100341796875,-1.1901854276657104,0.2746581733226776,0.5798339247703552,86.66667175292969,141386.0,1.0
18:17:15.902920,132085.671875,142792.875,158459.84375,155807.140625,170801.75,168722.328125,686240.25,128686.2421875,0.0546875,1.004150390625,-0.1015625,-1.1291502714157104,0.3051757514476776,0.5798339247703552,86.66667175292969,141387.0,1.0
18:17:15.903024,132084.59375,142785.453125,158466.546875,155809.90625,170814.09375,168735.828125,686184.5625,128687.8515625,0.056884765625,1.004150390625,-0.103271484375,-1.0986326932907104,0.2441406100988388,0.6713866591453552,86.66667175292969,141388.0,1.0
18:17:15.905015,132053.84375,142742.53125,158447.328125,155802.03125,170794.875,168714.28125,686129.8125,128681.6796875,0.05712890625,1.007080078125,-0.10400390625,-1.1596678495407104,0.3967284858226776,0.7324218153953552,86.66667175292969,141389.0,1.0
18:17:15.905106,132063.046875,142759.609375,158454.03125,155808.109375,170799.25,168718.03125,686174.8125,128688.4765625,0.0595703125,1.00634765625,-0.1064453125,-0.9765624403953552,0.3967284858226776,0.7324218153953552,86.66667175292969,141390.0,1.0
18:17:15.910897,132088.4375,142796.265625,158465.03125,155814.546875,170807.21875,168728.859375,686236.75,128688.921875,0.0595703125,1.006103515625,-0.103759765625,-1.0375975370407104,0.5493163466453552,0.5798339247703552,86.66667175292969,141391.0,1.0
18:17:15.922868,132095.953125,142801.8125,158476.296875,155820.015625,170824.5625,168747.28125,686186.0,128694.1953125,0.05810546875,1.00341796875,-0.1044921875,-0.9460448622703552,0.6103515028953552,0.6408690810203552,86.66667175292969,141392.0,1.0
18:17:15.922950,132064.75,142756.21875,158456.796875,155810.359375,170805.0625,168726.265625,686115.0625,128690.7109375,0.05908203125,1.0048828125,-0.10302734375,-0.9155272841453552,0.5798339247703552,0.6103515028953552,86.66667175292969,141393.0,1.0
18:17:15.928214,132056.34375,142755.234375,158449.109375,155801.6875,170795.671875,168719.46875,686154.6875,128683.734375,0.057861328125,1.005859375,-0.1025390625,-0.9460448622703552,0.6408690810203552,0.6408690810203552,86.66667175292969,141394.0,1.0
18:17:15.928294,132076.203125,142785.359375,158453.84375,155806.78125,170796.484375,168722.6875,686221.0,128681.59375,0.056396484375,1.004150390625,-0.104736328125,-0.9155272841453552,0.6408690810203552,0.5798339247703552,86.66667175292969,141395.0,1.0
18:17:15.930237,132082.453125,142795.375,158461.625,155805.609375,170809.359375,168739.234375,686190.8125,128682.6640625,0.057373046875,1.006103515625,-0.1044921875,-0.9155272841453552,0.6103515028953552,0.7019042372703552,86.66667175292969,141396.0,1.0
18:17:15.930320,132051.609375,142749.0625,158444.734375,155798.015625,170794.96875,168719.828125,686136.0,128680.515625,0.05517578125,1.0087890625,-0.102783203125,-0.9460448622703552,0.7019042372703552,0.6103515028953552,86.66667175292969,141397.0,1.0
18:17:15.939337,132036.765625,142732.703125,158432.390625,155793.1875,170782.71875,168703.90625,686149.5,128676.40625,0.054931640625,1.009033203125,-0.10302734375,-0.9155272841453552,0.6408690810203552,0.5798339247703552,86.66667175292969,141398.0,1.0
18:17:15.946732,132055.71875,142764.796875,158436.859375,155792.46875,170781.28125,168708.109375,686222.4375,128670.328125,0.05322265625,1.0078125,-0.10546875,-1.0070799589157104,0.7019042372703552,0.5187987685203552,86.66667175292969,141399.0,1.0
18:17:15.946761,132073.515625,142783.9375,158450.8125,155798.375,170796.65625,168723.9375,686210.8125,128672.5625,0.050537109375,1.007080078125,-0.1064453125,-1.0070799589157104,0.7629393935203552,0.4272460639476776,86.66667175292969,141400.0,1.0
18:17:15.956270,132052.765625,142749.78125,158443.484375,155795.515625,170791.921875,168714.375,686144.875,128677.296875,0.048095703125,1.005615234375,-0.107421875,-1.0681151151657104,0.5798339247703552,0.3967284858226776,86.66667175292969,141401.0,1.0
18:17:15.956375,132033.1875,142728.765625,158428.546875,155785.046875,170776.640625,168698.8125,686118.375,128672.5625,0.047119140625,1.005126953125,-0.103271484375,-0.9460448622703552,0.4577636420726776,0.2441406100988388,86.66667175292969,141402.0,1.0
18:17:15.958632,132051.515625,142758.0,158434.359375,155790.6875,170777.96875,168702.921875,686183.3125,128671.84375,0.0458984375,1.008056640625,-0.105224609375,-1.0375975370407104,0.3967284858226776,0.1831054538488388,86.66667175292969,141403.0,1.0
18:17:15.958652,132068.234375,142775.703125,158443.125,155792.109375,170787.71875,168712.40625,686210.3125,128669.703125,0.04638671875,1.01025390625,-0.102783203125,-1.1291502714157104,0.2136230319738388,0.1220703050494194,86.66667175292969,141404.0,1.0
18:17:15.968110,132060.015625,142755.59375,158446.875,155798.46875,170796.484375,168714.8125,686163.625,128682.6640625,0.0498046875,1.0107421875,-0.10400390625,-1.2207030057907104,0.1831054538488388,0.1220703050494194,86.66667175292969,141405.0,1.0
18:17:15.993669,132034.53125,142724.03125,158430.78125,155789.078125,170780.84375,168696.484375,686117.375,128675.15625,0.04931640625,1.011474609375,-0.10400390625,-1.3427733182907104,0.1525878757238388,0.0610351525247097,86.66667175292969,141406.0,1.0
18:17:15.993694,132049.734375,142752.8125,158436.953125,155791.3125,170782.453125,168701.5,686185.6875,128667.734375,0.05224609375,1.010009765625,-0.103759765625,-1.4343260526657104,0.0610351525247097,0.0610351525247097,86.66667175292969,141407.0,1.0
18:17:16.032426,132076.46875,142784.203125,158452.0625,155801.765625,170794.96875,168716.78125,686222.8125,128672.5625,0.0498046875,1.01025390625,-0.103271484375,-1.4648436307907104,0.0,0.1525878757238388,86.66667175292969,141408.0,1.0
18:17:16.032453,132074.40625,142773.65625,158461.1875,155808.46875,170808.1875,168726.890625,686158.625,128682.578125,0.04833984375,1.01025390625,-0.103515625,-1.6174315214157104,-0.1831054538488388,0.2441406100988388,86.66667175292969,141409.0,1.0
18:17:16.035647,132043.828125,142733.328125,158441.59375,155797.484375,170788.4375,168703.203125,686116.0,128675.515625,0.048828125,1.010498046875,-0.101318359375,-1.6784666776657104,-0.2441406100988388,0.1831054538488388,86.66667175292969,141410.0,1.0
18:17:16.035669,132061.171875,142763.1875,158452.953125,155803.640625,170797.734375,168715.71875,686166.0625,128679.984375,0.048583984375,1.01025390625,-0.102783203125,-1.6784666776657104,-0.1831054538488388,0.3356933295726776,86.66667175292969,141411.0,1.0
18:17:16.035677,132075.84375,142786.609375,158454.5625,155795.328125,170796.921875,168716.25,686206.75,128669.4296875,0.048095703125,1.009521484375,-0.103515625,-1.8310545682907104,-0.2746581733226776,0.3356933295726776,86.66667175292969,141412.0,1.0
18:17:16.038667,132072.703125,142777.671875,158459.84375,155797.828125,170808.109375,168724.390625,686167.3125,128674.3515625,0.049072265625,1.007568359375,-0.10400390625,-1.8920897245407104,-0.4272460639476776,0.4882812201976776,86.66667175292969,141413.0,1.0
18:17:16.038695,132040.515625,142733.59375,158439.1875,155789.609375,170787.09375,168701.234375,686123.8125,128675.15625,0.048095703125,1.009521484375,-0.104736328125,-1.9226073026657104,-0.4577636420726776,0.5798339247703552,86.66667175292969,141414.0,1.0
18:17:16.065593,132040.171875,142740.484375,158434.890625,155782.640625,170780.203125,168695.421875,686159.8125,128665.0546875,0.04931640625,1.00927734375,-0.10546875,-1.9836424589157104,-0.4577636420726776,0.7324218153953552,86.66667175292969,141415.0,1.0
18:17:16.068113,132063.671875,142771.234375,158442.5,155790.234375,170784.5,168702.296875,686211.4375,128663.6171875,0.050048828125,1.0107421875,-0.102294921875,-1.9836424589157104,-0.4882812201976776,0.7629393935203552,86.66667175292969,141416.0,1.0
18:17:16.070571,132072.078125,142776.609375,158455.375,155795.515625,170801.484375,168719.296875,686174.0625,128669.703125,0.0498046875,1.008056640625,-0.102783203125,-2.136230230331421,-0.5493163466453552,0.7019042372703552,86.66667175292969,141417.0,1.0
18:17:16.073151,132044.09375,142732.53125,158439.359375,155791.578125,170786.46875,168699.625,686111.4375,128673.546875,0.049072265625,1.008056640625,-0.10498046875,-2.105712652206421,-0.5798339247703552,0.7019042372703552,86.66667175292969,141418.0,1.0
18:17:16.075602,132030.953125,142723.40625,158427.03125,155782.375,170773.5,168687.28125,686136.0625,128665.2265625,0.050537109375,1.009033203125,-0.10205078125,-2.136230230331421,-0.6713866591453552,0.7324218153953552,86.66667175292969,141419.0,1.0
18:17:16.078081,132049.28125,142755.234375,158431.046875,155785.046875,170773.234375,168689.421875,686206.0,128662.28125,0.050048828125,1.009765625,-0.10498046875,-2.258300542831421,-0.7019042372703552,0.8850097060203552,86.66667175292969,141420.0,1.0
18:17:16.080699,132061.984375,142768.46875,158442.40625,155786.65625,170787.90625,168706.859375,686176.0625,128660.9375,0.0498046875,1.009521484375,-0.099609375,-2.319335699081421,-0.7324218153953552,0.8850097060203552,86.66667175292969,141421.0,1.0
18:17:16.083074,132038.734375,142730.828125,158430.25,155782.71875,170777.703125,168694.53125,686122.4375,128662.1015625,0.049072265625,1.010009765625,-0.1015625,-2.441406011581421,-0.8544921278953552,0.9460448622703552,86.66667175292969,141422.0,1.0
18:17:16.085611,132026.84375,142719.03125,158421.65625,155777.1875,170766.890625,168683.890625,686126.0,128659.59375,0.052490234375,1.009765625,-0.1025390625,-2.441406011581421,-0.8239745497703552,0.9155272841453552,86.66667175292969,141423.0,1.0
18:17:16.088090,132054.828125,142758.625,158437.390625,155788.984375,170778.59375,168696.40625,686216.125,128667.640625,0.052734375,1.0087890625,-0.10107421875,-2.563476324081421,-0.8239745497703552,0.8239745497703552,86.66667175292969,141424.0,1.0
18:17:16.093269,132075.5625,142782.5,158455.015625,155799.625,170799.25,168718.03125,686218.375,128678.640625,0.055419921875,1.0087890625,-0.0986328125,-2.624511480331421,-0.8850097060203552,0.7934569716453552,86.66667175292969,141425.0,1.0
18:17:16.095581,132050.453125,142744.6875,158441.15625,155792.296875,170789.59375,168705.515625,686146.8125,128677.390625,0.055908203125,1.0087890625,-0.099609375,-2.655029058456421,-0.7934569716453552,0.8239745497703552,86.66667175292969,141426.0,1.0
18:17:16.098161,132034.171875,142725.375,158430.15625,155787.734375,170779.140625,168693.890625,686134.5,128671.9375,0.058349609375,1.010498046875,-0.098876953125,-2.746581792831421,-0.7019042372703552,0.8544921278953552,86.66667175292969,141427.0,1.0
18:17:16.100565,132043.46875,142746.390625,158428.375,155783.0,170772.96875,168690.40625,686206.75,128663.6171875,0.05908203125,1.009521484375,-0.10107421875,-2.746581792831421,-0.7019042372703552,0.7934569716453552,86.66667175292969,141428.0,1.0
18:17:16.103045,132056.796875,142765.515625,158434.0,155780.84375,170777.53125,168701.5,686220.125,128658.078125,0.05859375,1.009521484375,-0.100341796875,-2.807616949081421,-0.6103515028953552,0.6408690810203552,86.66667175292969,141429.0,1.0
18:17:16.105594,132047.3125,142746.734375,158437.046875,155781.828125,170784.234375,168706.140625,686159.3125,128662.8125,0.059326171875,1.008056640625,-0.0986328125,-2.746581792831421,-0.5187987685203552,0.7324218153953552,86.66667175292969,141430.0,1.0
18:17:16.108100,132021.84375,142710.4375,158418.984375,155777.71875,170765.640625,168681.65625,686132.0625,128663.171875,0.06103515625,1.00830078125,-0.100830078125,-2.655029058456421,-0.4272460639476776,0.7934569716453552,86.66667175292969,141431.0,1.0
18:17:16.111151,132034.171875,142734.21875,158422.734375,155778.171875,170765.90625,168681.734375,686190.875,128659.8671875,0.061279296875,1.006103515625,-0.1005859375,-2.685546636581421,-0.3051757514476776,0.8239745497703552,86.66667175292969,141432.0,1.0
18:17:16.111163,132058.84375,142767.484375,158436.0625,155783.703125,170776.359375,168697.75,686230.6875,128660.1328125,0.060546875,1.0048828125,-0.10009765625,-2.685546636581421,-0.2746581733226776,0.7629393935203552,86.66667175292969,141433.0,1.0
18:17:16.114249,132061.984375,142764.890625,158450.453125,155792.921875,170794.875,168713.921875,686168.1875,128672.5625,0.061279296875,1.00390625,-0.09716796875,-2.655029058456421,-0.1220703050494194,0.7324218153953552,86.66667175292969,141434.0,1.0
18:17:16.114263,132033.109375,142725.015625,158431.5,155783.4375,170775.03125,168690.6875,686120.625,128668.359375,0.0625,1.00341796875,-0.100341796875,-2.624511480331421,-0.0915527269244194,0.8239745497703552,86.66667175292969,141435.0,1.0
18:17:16.114266,132043.03125,142744.78125,158434.09375,155783.0,170774.84375,168694.25,686185.0,128664.15625,0.062255859375,1.0048828125,-0.099609375,-2.593993902206421,0.0610351525247097,0.7629393935203552,86.66667175292969,141436.0,1.0
18:17:16.117352,132057.78125,142766.765625,158434.453125,155779.234375,170771.890625,168694.53125,686230.3125,128655.75,0.061279296875,1.005126953125,-0.100341796875,-2.593993902206421,0.1831054538488388,0.8239745497703552,86.66667175292969,141437.0,1.0
18:17:16.117363,132066.546875,142771.78125,158450.09375,155792.203125,170793.984375,168715.890625,686162.625,128670.4140625,0.063232421875,1.004638671875,-0.0986328125,-2.502441167831421,0.3662109076976776,0.7324218153953552,86.66667175292969,141438.0,1.0
18:17:16.119881,132038.5625,142732.34375,158434.8125,155790.6875,170779.046875,168699.0,686107.3125,128676.3203125,0.060546875,1.004638671875,-0.09912109375,-2.471923589706421,0.4882812201976776,0.7019042372703552,86.66667175292969,141439.0,1.0
18:17:16.119894,132035.15625,142737.53125,158430.15625,155783.078125,170773.0625,168693.359375,686160.9375,128669.703125,0.060546875,1.003662109375,-0.099365234375,-2.410888433456421,0.5493163466453552,0.7324218153953552,86.66667175292969,141440.0,1.0
18:17:16.121822,132056.96875,142769.546875,158436.6875,155785.5,170776.8125,168701.40625,686218.1875,128664.15625,0.06005859375,1.003662109375,-0.099609375,-2.349853277206421,0.4882812201976776,0.6408690810203552,86.66667175292969,141441.0,1.0
18:17:16.124912,132069.578125,142779.734375,158453.3125,155794.171875,170798.890625,168722.59375,686180.8125,128673.2734375,0.0595703125,1.004150390625,-0.10107421875,-2.349853277206421,0.6408690810203552,0.5493163466453552,86.66667175292969,141442.0,1.0
18:17:16.124928,132041.953125,142738.0625,158438.828125,155788.53125,170785.3125,168705.609375,686120.4375,128675.2421875,0.058837890625,1.002197265625,-0.098388671875,-2.258300542831421,0.7324218153953552,0.4882812201976776,86.66667175292969,141443.0,1.0
18:17:16.126814,132030.6875,142730.375,158428.640625,155783.703125,170774.75,168692.828125,686148.625,128674.7109375,0.056640625,1.003662109375,-0.096923828125,-2.166747808456421,0.8544921278953552,0.4272460639476776,86.66667175292969,141444.0,1.0
18:17:16.129864,132055.71875,142764.265625,158439.8125,155791.484375,170780.5625,168697.75,686211.625,128672.1171875,0.05419921875,1.00439453125,-0.09716796875,-2.166747808456421,0.7934569716453552,0.4577636420726776,86.66667175292969,141445.0,1.0
18:17:16.129876,132078.34375,142789.484375,158463.328125,155804.625,170806.671875,168727.15625,686193.9375,128681.3203125,0.05517578125,1.003173828125,-0.09423828125,-2.044677495956421,0.7019042372703552,0.4272460639476776,86.66667175292969,141446.0,1.0
18:17:16.139482,132059.203125,142756.03125,158456.703125,155804.984375,170802.5625,168718.390625,686135.5625,128687.7578125,0.055419921875,1.004150390625,-0.097900390625,-2.075195074081421,0.7629393935203552,0.4882812201976776,86.66667175292969,141447.0,1.0
18:17:16.142907,132041.0625,142737.53125,158441.234375,155792.65625,170786.46875,168702.578125,686145.3125,128676.5859375,0.05322265625,1.0048828125,-0.09814453125,-2.105712652206421,0.7324218153953552,0.3662109076976776,86.66667175292969,141448.0,1.0
18:17:16.142930,132057.328125,142766.140625,158445.0,155795.59375,170785.125,168704.09375,686214.75,128672.3828125,0.053955078125,1.00439453125,-0.0986328125,-2.014159917831421,0.6408690810203552,0.2441406100988388,86.66667175292969,141449.0,1.0
18:17:16.144361,132077.890625,142789.203125,158460.828125,155800.96875,170801.125,168722.859375,686216.4375,128675.2421875,0.052490234375,1.003662109375,-0.0966796875,-1.9226073026657104,0.6408690810203552,0.1525878757238388,86.66667175292969,141450.0,1.0
18:17:16.156422,132066.359375,142765.34375,158460.375,155805.25,170802.390625,168721.875,686163.4375,128684.5390625,0.050537109375,1.00390625,-0.097412109375,-1.8005369901657104,0.6713866591453552,0.1220703050494194,86.66667175292969,141451.0,1.0
18:17:16.156449,132039.453125,142733.859375,158439.09375,155792.65625,170778.953125,168698.640625,686126.5,128676.140625,0.050048828125,1.004638671875,-0.09912109375,-1.8005369901657104,0.6103515028953552,0.1831054538488388,86.66667175292969,141452.0,1.0
18:17:16.158774,132053.578125,142761.140625,158440.890625,155789.703125,170778.15625,168700.78125,686198.75,128669.34375,0.048583984375,1.006103515625,-0.09521484375,-1.8615721464157104,0.6103515028953552,0.1831054538488388,86.66667175292969,141453.0,1.0
18:17:16.158791,132071.28125,142783.671875,158450.890625,155793.09375,170789.59375,168713.921875,686220.125,128671.3984375,0.04833984375,1.005126953125,-0.09521484375,-1.7395018339157104,0.4577636420726776,0.1831054538488388,86.66667175292969,141454.0,1.0
18:17:16.168058,132063.59375,142765.15625,158454.46875,155798.375,170798.0,168718.671875,686153.4375,128677.75,0.048828125,1.006591796875,-0.096923828125,-1.7089842557907104,0.2746581733226776,0.2746581733226776,86.66667175292969,141455.0,1.0
18:17:16.170568,132035.15625,142728.59375,158435.25,155786.21875,170777.4375,168695.328125,686114.4375,128669.5234375,0.048828125,1.004638671875,-0.09619140625,-1.6174315214157104,0.2136230319738388,0.3356933295726776,86.66667175292969,141456.0,1.0
18:17:16.174888,132047.859375,142754.703125,158439.1875,155787.46875,170777.890625,168699.796875,686180.375,128665.2265625,0.04931640625,1.004638671875,-0.096923828125,-1.5563963651657104,0.0915527269244194,0.3967284858226776,86.66667175292969,141457.0,1.0
18:17:16.174910,132064.125,142778.75,158444.453125,155788.453125,170781.90625,168708.109375,686221.5625,128663.7109375,0.04736328125,1.0029296875,-0.095947265625,-1.4343260526657104,0.0,0.4577636420726776,86.66667175292969,141458.0,1.0
18:17:16.184336,132057.15625,142760.421875,158446.875,155789.078125,170790.9375,168711.15625,686171.4375,128669.96875,0.047119140625,1.004638671875,-0.097412109375,-1.3732908964157104,-0.03051757626235485,0.4272460639476776,86.66667175292969,141459.0,1.0
18:17:16.188692,132030.0625,142723.140625,158429.625,155779.5,170773.421875,168690.765625,686103.625,128663.265625,0.04736328125,1.006103515625,-0.098876953125,-1.3732908964157104,-0.0915527269244194,0.3967284858226776,86.66667175292969,141460.0,1.0
18:17:16.188717,132033.015625,142739.59375,158428.8125,155776.734375,170770.46875,168691.578125,686168.5625,128661.1171875,0.049072265625,1.005859375,-0.100830078125,-1.3732908964157104,-0.2136230319738388,0.3662109076976776,86.66667175292969,141461.0,1.0
18:17:16.196063,132060.1875,142773.921875,158442.3125,155789.078125,170781.734375,168703.015625,686229.25,128670.234375,0.05126953125,1.006103515625,-0.099365234375,-1.2207030057907104,-0.2746581733226776,0.5187987685203552,86.66667175292969,141462.0,1.0
18:17:16.203656,132071.8125,142780.53125,158460.375,155801.234375,170804.265625,168725.015625,686182.375,128678.1015625,0.05224609375,1.005615234375,-0.097412109375,-1.2817381620407104,-0.1831054538488388,0.5798339247703552,86.66667175292969,141463.0,1.0
18:17:16.203672,132045.0,142740.03125,158445.171875,155792.296875,170788.078125,168707.9375,686135.625,128675.9609375,0.053955078125,1.00634765625,-0.097900390625,-1.2817381620407104,-0.3662109076976776,0.6103515028953552,86.66667175292969,141464.0,1.0
18:17:16.206100,132041.859375,142741.5625,158439.71875,155790.6875,170781.109375,168699.625,686165.3125,128677.03125,0.054443359375,1.00634765625,-0.09619140625,-1.1901854276657104,-0.4272460639476776,0.6713866591453552,86.66667175292969,141465.0,1.0
18:17:16.206114,132051.515625,142761.40625,158434.0,155783.984375,170771.453125,168692.5625,686217.875,128662.28125,0.0517578125,1.005615234375,-0.096923828125,-1.2207030057907104,-0.4272460639476776,0.7629393935203552,86.66667175292969,141466.0,1.0
18:17:16.215641,132057.515625,142766.40625,158442.765625,155784.875,170784.140625,168707.75,686181.625,128661.03125,0.054443359375,1.002197265625,-0.09716796875,-1.1291502714157104,-0.4272460639476776,0.7629393935203552,86.66667175292969,141467.0,1.0
18:17:16.218691,132028.8125,142724.03125,158426.21875,155779.234375,170768.9375,168689.15625,686111.0625,128662.1015625,0.054443359375,1.0029296875,-0.098388671875,-1.0681151151657104,-0.3967284858226776,0.7324218153953552,86.66667175292969,141468.0,1.0
18:17:16.218703,132012.890625,142714.375,158412.28125,155766.453125,170755.4375,168675.484375,686135.75,128653.4296875,0.054443359375,1.00634765625,-0.101318359375,-1.0681151151657104,-0.4882812201976776,0.7324218153953552,86.66667175292969,141469.0,1.0
18:17:16.226873,132032.5625,142743.703125,158415.578125,155768.953125,170754.8125,168676.46875,686203.25,128647.171875,0.05615234375,1.005615234375,-0.09765625,-1.0070799589157104,-0.4272460639476776,0.7629393935203552,86.66667175292969,141470.0,1.0
18:17:16.233732,132047.9375,142760.421875,158431.046875,155774.5,170773.59375,168697.5625,686196.875,128652.984375,0.056640625,1.006591796875,-0.097412109375,-1.0070799589157104,-0.3051757514476776,0.8850097060203552,86.66667175292969,141471.0,1.0
18:17:16.233745,132026.84375,142723.9375,158422.109375,155771.015625,170767.25,168687.109375,686149.9375,128656.2890625,0.056640625,1.007568359375,-0.101806640625,-1.0681151151657104,-0.2746581733226776,0.7934569716453552,86.66667175292969,141472.0,1.0
18:17:16.239940,132013.515625,142709.1875,158411.921875,155766.1875,170756.703125,168672.890625,686134.1875,128653.7890625,0.059326171875,1.00634765625,-0.104248046875,-1.0375975370407104,-0.2746581733226776,0.7629393935203552,86.66667175292969,141473.0,1.0
18:17:16.239963,132037.484375,142746.203125,158423.0,155773.515625,170762.5,168682.359375,686212.25,128654.234375,0.058837890625,1.00537109375,-0.10009765625,-1.0070799589157104,-0.2441406100988388,0.6713866591453552,86.66667175292969,141474.0,1.0
18:17:16.241840,132052.234375,142763.546875,158433.828125,155778.4375,170775.65625,168695.421875,686203.125,128657.0078125,0.05859375,1.007568359375,-0.098876953125,-0.9765624403953552,-0.1831054538488388,0.7324218153953552,86.66667175292969,141475.0,1.0
18:17:16.258074,132037.9375,142738.96875,158433.203125,155782.90625,170778.78125,168696.046875,686151.9375,128668.5390625,0.05859375,1.008056640625,-0.098388671875,-1.0070799589157104,-0.0915527269244194,0.6713866591453552,86.66667175292969,141476.0,1.0
18:17:16.261487,132017.09375,142713.296875,158418.53125,155772.796875,170762.953125,168678.4375,686119.8125,128661.03125,0.05712890625,1.008544921875,-0.098876953125,-1.0986326932907104,-0.1525878757238388,0.7629393935203552,86.66667175292969,141477.0,1.0
18:17:16.261504,132028.546875,142737.359375,158418.71875,155770.203125,170757.328125,168676.828125,686200.0,128648.6875,0.05859375,1.009033203125,-0.098876953125,-1.1901854276657104,0.03051757626235485,0.7019042372703552,86.66667175292969,141478.0,1.0
18:17:16.263077,132052.234375,142764.890625,158433.375,155778.96875,170771.8125,168692.375,686227.4375,128658.2578125,0.0595703125,1.0078125,-0.099609375,-1.1901854276657104,0.0610351525247097,0.6713866591453552,86.66667175292969,141479.0,1.0
18:17:16.269896,132050.171875,142754.78125,158444.1875,155785.046875,170787.546875,168706.421875,686144.6875,128670.6875,0.058349609375,1.009033203125,-0.09765625,-1.2512205839157104,0.2746581733226776,0.6713866591453552,86.66667175292969,141480.0,1.0
18:17:16.269916,132027.5625,142722.0625,158429.796875,155782.015625,170772.515625,168688.09375,686112.0625,128666.484375,0.05810546875,1.0087890625,-0.09765625,-1.2817381620407104,0.2746581733226776,0.6713866591453552,86.66667175292969,141481.0,1.0
18:17:16.279942,132034.359375,142740.125,158428.640625,155778.515625,170767.515625,168686.203125,686198.75,128658.078125,0.059814453125,1.00830078125,-0.095947265625,-1.3122557401657104,0.3662109076976776,0.5798339247703552,86.66667175292969,141482.0,1.0
18:17:16.279959,132050.53125,142762.75,158432.5625,155777.359375,170768.140625,168688.984375,686231.9375,128652.53125,0.058349609375,1.00927734375,-0.095458984375,-1.3427733182907104,0.3967284858226776,0.6408690810203552,86.66667175292969,141483.0,1.0
18:17:16.281806,132043.46875,142749.6875,158435.078125,155773.15625,170776.1875,168695.59375,686174.375,128653.6953125,0.058349609375,1.00830078125,-0.09765625,-1.4953612089157104,0.4882812201976776,0.6103515028953552,86.66667175292969,141484.0,1.0
18:17:16.289929,132017.71875,142712.3125,158420.140625,155772.53125,170761.25,168677.265625,686121.6875,128659.0625,0.05615234375,1.008544921875,-0.1015625,-1.4038084745407104,0.5493163466453552,0.5493163466453552,86.66667175292969,141485.0,1.0
18:17:16.294934,132025.59375,142729.484375,158423.0,155774.671875,170762.5,168678.15625,686171.3125,128660.1328125,0.056640625,1.005859375,-0.099853515625,-1.4343260526657104,0.5798339247703552,0.4882812201976776,86.66667175292969,141486.0,1.0
18:17:16.294957,132051.609375,142765.875,158434.8125,155781.828125,170770.734375,168691.03125,686224.6875,128658.8828125,0.0556640625,1.0087890625,-0.09912109375,-1.4648436307907104,0.6408690810203552,0.4272460639476776,86.66667175292969,141487.0,1.0
18:17:16.303752,132053.9375,142763.90625,158443.65625,155785.9375,170783.515625,168703.46875,686176.75,128664.78125,0.056884765625,1.009033203125,-0.100830078125,-1.5563963651657104,0.6713866591453552,0.4272460639476776,86.66667175292969,141488.0,1.0
18:17:16.303774,132026.671875,142720.28125,158427.203125,155780.84375,170767.15625,168682.0,686103.625,128663.171875,0.05517578125,1.00732421875,-0.099853515625,-1.4953612089157104,0.7019042372703552,0.4882812201976776,86.66667175292969,141489.0,1.0
18:17:16.306157,132026.390625,142727.34375,158425.78125,155777.265625,170764.03125,168679.765625,686152.125,128658.703125,0.05419921875,1.007080078125,-0.101806640625,-1.4648436307907104,0.6713866591453552,0.4882812201976776,86.66667175292969,141490.0,1.0
18:17:16.306173,132050.0,142760.328125,158433.640625,155782.375,170766.796875,168685.578125,686226.375,128656.2890625,0.0556640625,1.007080078125,-0.101806640625,-1.5563963651657104,0.7019042372703552,0.4882812201976776,86.66667175292969,141491.0,1.0
18:17:16.315613,132058.84375,142769.8125,158445.09375,155784.25,170782.0,168704.0,686186.5,128658.6171875,0.053955078125,1.00732421875,-0.09912109375,-1.4953612089157104,0.6408690810203552,0.5493163466453552,86.66667175292969,141492.0,1.0
18:17:16.322470,132039.890625,142736.453125,158439.546875,155789.78125,170778.15625,168695.6875,686130.125,128668.2734375,0.052978515625,1.007080078125,-0.1015625,-1.5563963651657104,0.6408690810203552,0.4882812201976776,86.66667175292969,141493.0,1.0
18:17:16.322542,132030.78125,142730.015625,158431.765625,155784.78125,170770.546875,168686.828125,686145.1875,128669.078125,0.053466796875,1.00341796875,-0.102294921875,-1.4648436307907104,0.5187987685203552,0.6408690810203552,86.66667175292969,141494.0,1.0
18:17:16.332411,132043.109375,142754.078125,158427.390625,155775.75,170761.875,168682.1875,686225.6875,128655.6640625,0.052001953125,1.0029296875,-0.101318359375,-1.4038084745407104,0.5187987685203552,0.7324218153953552,86.66667175292969,141495.0,1.0
18:17:16.332473,132061.625,142773.203125,158444.015625,155783.4375,170781.46875,168703.375,686205.5,128656.46875,0.052734375,1.00146484375,-0.10302734375,-1.2512205839157104,0.5798339247703552,0.8544921278953552,86.66667175292969,141496.0,1.0
18:17:16.334970,132036.046875,142734.140625,158431.671875,155778.609375,170772.4375,168690.40625,686141.0,128656.828125,0.05126953125,1.00048828125,-0.100341796875,-1.0681151151657104,0.6103515028953552,0.8850097060203552,86.66667175292969,141497.0,1.0
18:17:16.334995,132015.125,142710.265625,158414.59375,155768.234375,170755.265625,168670.109375,686132.9375,128650.75,0.048583984375,1.002685546875,-0.097900390625,-1.0070799589157104,0.5798339247703552,0.7629393935203552,86.66667175292969,141498.0,1.0
18:17:16.380669,132037.84375,142747.90625,158424.4375,155776.921875,170760.546875,168680.21875,686202.25,128654.234375,0.04833984375,1.004150390625,-0.09912109375,-0.9460448622703552,0.5798339247703552,0.7934569716453552,86.66667175292969,141499.0,1.0
18:17:16.384268,132054.828125,142766.859375,158435.875,155781.03125,170772.15625,168693.1875,686208.5,128657.359375,0.0478515625,1.004150390625,-0.099853515625,-1.0375975370407104,0.4882812201976776,0.9155272841453552,86.66667175292969,141500.0,1.0
18:17:16.384296,132037.296875,142738.6875,158430.515625,155777.625,170771.265625,168690.140625,686142.8125,128659.2421875,0.048095703125,1.006103515625,-0.0986328125,-1.0070799589157104,0.3356933295726776,0.9765624403953552,86.66667175292969,141501.0,1.0
18:17:16.384300,132016.65625,142712.671875,158415.671875,155772.4375,170756.078125,168672.796875,686118.8125,128654.3203125,0.048583984375,1.0029296875,-0.100830078125,-1.0375975370407104,0.3662109076976776,1.0070799589157104,86.66667175292969,141502.0,1.0
18:17:16.388580,132035.0625,142744.421875,158422.28125,155773.96875,170759.203125,168680.21875,686199.125,128650.03125,0.05029296875,1.000732421875,-0.102783203125,-1.0070799589157104,0.2441406100988388,0.9460448622703552,86.66667175292969,141503.0,1.0
18:17:16.388605,132067.609375,142784.296875,158446.515625,155791.125,170782.625,168707.21875,686237.8125,128663.3515625,0.0517578125,0.999755859375,-0.10498046875,-0.9460448622703552,0.1831054538488388,1.0070799589157104,86.66667175292969,141504.0,1.0
18:17:16.388611,132062.515625,142768.28125,158453.578125,155797.203125,170793.171875,168714.90625,686158.25,128673.7265625,0.0537109375,1.00341796875,-0.101318359375,-1.0070799589157104,0.1525878757238388,1.0681151151657104,86.66667175292969,141505.0,1.0
18:17:16.388616,132031.40625,142729.75,158430.515625,155783.890625,170770.90625,168691.578125,686121.1875,128667.015625,0.056640625,1.005615234375,-0.101318359375,-0.8544921278953552,0.2136230319738388,1.0986326932907104,86.66667175292969,141506.0,1.0
18:17:16.391205,132032.828125,142745.046875,158424.4375,155774.328125,170762.328125,168685.859375,686190.875,128652.4453125,0.060302734375,1.00439453125,-0.104248046875,-0.8239745497703552,0.1831054538488388,1.3427733182907104,86.66667175292969,141507.0,1.0
18:17:16.391224,132055.984375,142773.109375,158435.078125,155779.421875,170770.546875,168694.34375,686236.0625,128652.0,0.062744140625,1.005615234375,-0.106201171875,-0.7934569716453552,0.2136230319738388,1.5258787870407104,86.66667175292969,141508.0,1.0
18:17:16.393106,132056.703125,142766.859375,158446.15625,155788.984375,170787.546875,168707.671875,686179.75,128669.25,0.060546875,1.005615234375,-0.105224609375,-0.7019042372703552,0.2746581733226776,1.5563963651657104,86.66667175292969,141509.0,1.0
18:17:16.395690,132025.5,142721.078125,158426.125,155781.109375,170767.25,168681.828125,686129.5625,128671.84375,0.058837890625,1.00634765625,-0.10791015625,-0.5798339247703552,0.2746581733226776,1.5563963651657104,86.66667175292969,141510.0,1.0
18:17:16.398129,132034.265625,142740.03125,158430.25,155781.5625,170768.765625,168686.75,686183.75,128665.6796875,0.056640625,1.005615234375,-0.1044921875,-0.5187987685203552,0.3662109076976776,1.3122557401657104,86.66667175292969,141511.0,1.0
18:17:16.406941,132059.125,142776.328125,158439.984375,155787.546875,170774.84375,168697.203125,686243.75,128661.921875,0.05224609375,1.0068359375,-0.10205078125,-0.5187987685203552,0.3051757514476776,1.3122557401657104,86.66667175292969,141512.0,1.0
18:17:16.409318,132066.71875,142779.640625,158453.765625,155794.078125,170793.796875,168715.71875,686177.5625,128669.7890625,0.053466796875,1.00830078125,-0.101806640625,-0.6103515028953552,0.3051757514476776,1.0375975370407104,86.66667175292969,141513.0,1.0
18:17:16.411914,132035.34375,142733.234375,158435.078125,155786.390625,170774.578125,168692.109375,686108.9375,128667.9140625,0.054443359375,1.010986328125,-0.10205078125,-0.5187987685203552,0.2136230319738388,0.8544921278953552,86.66667175292969,141514.0,1.0
18:17:16.414890,132030.15625,142734.484375,158427.46875,155778.34375,170765.453125,168684.15625,686172.375,128660.3125,0.05419921875,1.01171875,-0.100341796875,-0.6713866591453552,0.1220703050494194,0.6103515028953552,86.66667175292969,141515.0,1.0
18:17:16.414903,132056.890625,142769.359375,158438.203125,155787.109375,170771.1875,168691.65625,686238.75,128660.578125,0.055419921875,1.012451171875,-0.098876953125,-0.7019042372703552,0.1525878757238388,0.4882812201976776,86.66667175292969,141516.0,1.0
18:17:16.416885,132068.953125,142779.828125,158453.40625,155794.703125,170790.671875,168710.4375,686194.0,128671.21875,0.0537109375,1.0107421875,-0.10205078125,-0.7934569716453552,0.1220703050494194,0.2746581733226776,86.66667175292969,141517.0,1.0
18:17:16.419370,132044.546875,142740.21875,158440.4375,155792.46875,170779.140625,168694.96875,686126.0,128673.9921875,0.0546875,1.0107421875,-0.102294921875,-1.0070799589157104,0.0915527269244194,0.1525878757238388,86.66667175292969,141518.0,1.0
18:17:16.423096,132028.71875,142727.703125,158426.671875,155781.921875,170763.140625,168679.140625,686147.5625,128664.25,0.05419921875,1.010009765625,-0.102294921875,-1.0375975370407104,0.0,-0.1220703050494194,86.66667175292969,141519.0,1.0
18:17:16.431204,132046.15625,142755.859375,158429.625,155782.640625,170762.328125,168679.140625,686227.75,128661.921875,0.057373046875,1.01025390625,-0.101806640625,-1.0986326932907104,0.0,-0.1220703050494194,86.66667175292969,141520.0,1.0
18:17:16.431227,132062.515625,142772.671875,158443.5625,155789.25,170779.046875,168698.8125,686210.9375,128663.7109375,0.05810546875,1.009033203125,-0.105224609375,-1.1596678495407104,0.03051757626235485,-0.2441406100988388,86.66667175292969,141521.0,1.0
18:17:16.433125,132043.296875,142743.4375,158437.046875,155787.546875,170774.40625,168694.609375,686151.5625,128665.40625,0.060546875,1.0078125,-0.10400390625,-1.3122557401657104,-0.0610351525247097,-0.1831054538488388,86.66667175292969,141522.0,1.0
18:17:16.443703,132028.453125,142726.53125,158426.9375,155783.265625,170764.296875,168680.84375,686138.125,128666.9296875,0.060546875,1.0078125,-0.105224609375,-1.3122557401657104,-0.03051757626235485,-0.2746581733226776,86.66667175292969,141523.0,1.0
18:17:16.443730,132046.421875,142755.59375,158432.390625,155786.125,170766.4375,168683.703125,686210.3125,128668.984375,0.060791015625,1.009765625,-0.103271484375,-1.3122557401657104,0.0,-0.2136230319738388,86.66667175292969,141524.0,1.0
18:17:16.445553,132062.0625,142775.796875,158442.3125,155788.265625,170777.703125,168698.640625,686221.9375,128662.9921875,0.060791015625,1.010986328125,-0.103759765625,-1.3732908964157104,0.1220703050494194,-0.1831054538488388,86.66667175292969,141525.0,1.0
18:17:16.449407,132052.140625,142755.59375,158445.625,155794.171875,170784.234375,168703.203125,686123.5625,128672.1171875,0.0595703125,1.01220703125,-0.1025390625,-1.4038084745407104,0.0610351525247097,-0.0915527269244194,86.66667175292969,141526.0,1.0
18:17:16.464996,132026.21875,142724.75,158427.03125,155780.765625,170764.921875,168681.734375,686111.4375,128663.796875,0.05810546875,1.010986328125,-0.100341796875,-1.4648436307907104,0.1525878757238388,0.1220703050494194,86.66667175292969,141527.0,1.0
18:17:16.465020,132041.859375,142749.515625,158432.21875,155783.0,170765.640625,168680.75,686200.3125,128660.578125,0.055419921875,1.012451171875,-0.097412109375,-1.6174315214157104,0.1831054538488388,0.1525878757238388,86.66667175292969,141528.0,1.0
18:17:16.467362,132058.9375,142773.109375,158439.359375,155783.890625,170772.515625,168691.65625,686222.125,128657.453125,0.053955078125,1.01318359375,-0.1005859375,-1.6784666776657104,0.1525878757238388,0.2136230319738388,86.66667175292969,141529.0,1.0
18:17:16.467386,132053.390625,142760.234375,158445.09375,155788.171875,170783.25,168701.140625,686141.75,128663.7109375,0.052490234375,1.012451171875,-0.102294921875,-1.8310545682907104,0.1525878757238388,0.3967284858226776,86.66667175292969,141530.0,1.0
18:17:16.469382,132027.109375,142724.828125,158429.078125,155783.0,170767.609375,168681.03125,686109.625,128666.6640625,0.050537109375,1.010986328125,-0.1025390625,-2.044677495956421,0.0,0.4577636420726776,86.66667175292969,141531.0,1.0
18:17:16.473107,132031.578125,142741.375,158426.9375,155777.09375,170762.6875,168678.4375,686178.9375,128657.8984375,0.049560546875,1.01123046875,-0.100341796875,-2.105712652206421,-0.03051757626235485,0.4577636420726776,86.66667175292969,141532.0,1.0
18:17:16.488753,132053.75,142769.359375,158435.515625,155784.6875,170768.765625,168688.984375,686222.75,128657.6328125,0.04833984375,1.012451171875,-0.09814453125,-2.166747808456421,-0.1220703050494194,0.3967284858226776,86.66667175292969,141533.0,1.0
18:17:16.488822,132053.21875,142763.1875,158443.65625,155785.234375,170782.53125,168702.578125,686165.0625,128661.65625,0.048828125,1.01171875,-0.096923828125,-2.288818120956421,-0.2136230319738388,0.4882812201976776,86.66667175292969,141534.0,1.0
18:17:16.491153,132019.0625,142718.21875,158421.03125,155773.421875,170761.34375,168676.640625,686114.1875,128654.59375,0.046142578125,1.013671875,-0.095703125,-2.410888433456421,-0.2746581733226776,0.5493163466453552,86.66667175292969,141535.0,1.0
18:17:16.491182,132022.28125,142730.734375,158420.953125,155771.734375,170759.5625,168675.21875,686180.0,128653.3359375,0.04541015625,1.011474609375,-0.0966796875,-2.624511480331421,-0.4577636420726776,0.3967284858226776,86.66667175292969,141536.0,1.0
18:17:16.493136,132042.9375,142760.6875,158426.046875,155773.0625,170760.09375,168680.125,686238.3125,128651.8203125,0.0458984375,1.0087890625,-0.097412109375,-2.624511480331421,-0.5493163466453552,0.3662109076976776,86.66667175292969,141537.0,1.0
18:17:16.496863,132052.59375,142765.421875,158439.984375,155783.703125,170776.984375,168699.171875,686164.0,128657.5390625,0.04736328125,1.009521484375,-0.10107421875,-2.716064214706421,-0.6408690810203552,0.3356933295726776,86.66667175292969,141538.0,1.0
18:17:16.507427,132023.984375,142719.734375,158422.828125,155779.6875,170761.4375,168676.828125,686109.4375,128660.9375,0.046875,1.009521484375,-0.10009765625,-2.685546636581421,-0.6713866591453552,0.2746581733226776,86.66667175292969,141539.0,1.0
18:17:16.507462,132023.625,142726.09375,158422.28125,155779.953125,170759.46875,168675.125,686155.5625,128660.046875,0.04833984375,1.006103515625,-0.100341796875,-2.746581792831421,-0.7324218153953552,0.3051757514476776,86.66667175292969,141540.0,1.0
18:17:16.509901,132039.265625,142754.078125,158423.1875,155776.5625,170755.53125,168674.140625,686217.625,128652.984375,0.049072265625,1.005859375,-0.10205078125,-2.685546636581421,-0.7324218153953552,0.2746581733226776,86.66667175292969,141541.0,1.0
18:17:16.509929,132051.25,142765.609375,158437.046875,155781.5625,170772.96875,168691.65625,686191.25,128658.078125,0.052490234375,1.004150390625,-0.09814453125,-2.685546636581421,-0.8239745497703552,0.2746581733226776,86.66667175292969,141542.0,1.0
18:17:16.515586,132022.90625,142721.34375,158420.953125,155774.046875,170757.765625,168671.8125,686141.625,128658.5234375,0.05419921875,1.00341796875,-0.09619140625,-2.685546636581421,-0.8544921278953552,0.3051757514476776,86.66667175292969,141543.0,1.0
18:17:16.531773,132009.859375,142709.28125,158409.765625,155765.65625,170745.78125,168658.9375,686144.125,128648.8671875,0.0556640625,1.00244140625,-0.09521484375,-2.716064214706421,-0.8239745497703552,0.2746581733226776,86.66667175292969,141544.0,1.0
18:17:16.531840,132035.25,142746.5625,158420.671875,155772.796875,170751.515625,168667.171875,686212.6875,128648.15625,0.054443359375,1.001953125,-0.09765625,-2.655029058456421,-0.7934569716453552,0.4272460639476776,86.66667175292969,141545.0,1.0
18:17:16.531852,132047.671875,142762.828125,158431.3125,155773.875,170764.75,168684.515625,686202.0625,128646.8125,0.057373046875,1.00244140625,-0.09765625,-2.563476324081421,-0.7019042372703552,0.4882812201976776,86.66667175292969,141546.0,1.0
18:17:16.534322,132027.109375,142730.5625,158423.890625,155772.359375,170760.625,168678.609375,686137.0,128651.90625,0.05859375,1.0009765625,-0.10302734375,-2.410888433456421,-0.7019042372703552,0.6103515028953552,86.66667175292969,141547.0,1.0
18:17:16.537482,132011.203125,142712.671875,158412.28125,155766.8125,170748.65625,168666.453125,686122.5,128650.1171875,0.0595703125,1.000244140625,-0.100830078125,-2.319335699081421,-0.6408690810203552,0.6713866591453552,86.66667175292969,141548.0,1.0
18:17:16.543151,132028.90625,142741.90625,158418.265625,155773.609375,170749.71875,168667.25,686181.875,128651.1953125,0.06005859375,0.999755859375,-0.101318359375,-2.288818120956421,-0.4882812201976776,0.7629393935203552,86.66667175292969,141549.0,1.0
18:17:16.549875,132040.703125,142758.28125,158423.625,155768.6875,170755.890625,168676.375,686199.125,128639.8359375,0.060546875,0.999267578125,-0.1005859375,-2.105712652206421,-0.4272460639476776,0.8544921278953552,86.66667175292969,141550.0,1.0
18:17:16.549890,132027.734375,142735.65625,158422.734375,155768.234375,170758.84375,168679.0625,686145.1875,128646.7265625,0.061767578125,1.0009765625,-0.100341796875,-1.8615721464157104,-0.3051757514476776,0.8544921278953552,86.66667175292969,141551.0,1.0
18:17:16.555655,132003.421875,142702.75,158404.5,155758.9375,170740.15625,168656.890625,686117.9375,128642.609375,0.0625,0.999755859375,-0.102783203125,-1.7395018339157104,-0.2441406100988388,0.9765624403953552,86.66667175292969,141552.0,1.0
18:17:16.559964,132025.328125,142737.0,158415.671875,155766.71875,170747.578125,168668.6875,686175.5,128640.734375,0.061767578125,1.001708984375,-0.10009765625,-1.6479490995407104,-0.1220703050494194,0.9765624403953552,86.66667175292969,141553.0,1.0
18:17:16.559997,132049.015625,142765.875,158430.421875,155773.421875,170761.34375,168682.640625,686210.0625,128647.078125,0.060546875,1.0029296875,-0.0986328125,-1.4953612089157104,-0.0610351525247097,1.0375975370407104,86.66667175292969,141554.0,1.0
18:17:16.569325,132044.359375,142752.90625,158438.296875,155779.0625,170773.234375,168690.765625,686160.0625,128657.6328125,0.061279296875,1.005615234375,-0.099609375,-1.4343260526657104,0.0610351525247097,1.0681151151657104,86.66667175292969,141555.0,1.0
18:17:16.573698,132023.359375,142722.0625,158425.953125,155777.625,170760.453125,168674.40625,686117.75,128657.8984375,0.060791015625,1.006103515625,-0.10205078125,-1.4038084745407104,0.2746581733226776,1.0070799589157104,86.66667175292969,141556.0,1.0
18:17:16.573718,132035.78125,142744.859375,158431.046875,155778.875,170761.703125,168677.359375,686178.375,128655.6640625,0.060546875,1.005615234375,-0.1025390625,-1.2512205839157104,0.3356933295726776,1.0375975370407104,86.66667175292969,141557.0,1.0
18:17:16.579986,132063.328125,142778.65625,158444.734375,155788.8125,170772.515625,168690.765625,686234.875,128660.046875,0.059814453125,1.005859375,-0.099853515625,-1.1901854276657104,0.4577636420726776,0.9765624403953552,86.66667175292969,141558.0,1.0
18:17:16.580012,132055.359375,142764.265625,158444.734375,155784.609375,170778.78125,168695.859375,686180.1875,128660.1328125,0.06103515625,1.0048828125,-0.1015625,-1.1596678495407104,0.4882812201976776,0.8544921278953552,86.66667175292969,141559.0,1.0
18:17:16.585577,132026.671875,142722.0625,158427.296875,155778.171875,170760.8125,168673.328125,686121.625,128659.6875,0.059814453125,1.006103515625,-0.101806640625,-1.0070799589157104,0.6103515028953552,0.8544921278953552,86.66667175292969,141560.0,1.0
18:17:16.592505,132027.109375,142729.125,158424.515625,155774.765625,170755.796875,168667.25,686168.75,128651.4609375,0.0576171875,1.0078125,-0.098876953125,-1.0070799589157104,0.7019042372703552,0.7324218153953552,86.66667175292969,141561.0,1.0
18:17:16.592530,132049.90625,142760.15625,158433.46875,155780.21875,170759.015625,168672.796875,686224.8125,128649.5859375,0.05712890625,1.007080078125,-0.10107421875,-1.0070799589157104,0.7629393935203552,0.7324218153953552,86.66667175292969,141562.0,1.0
18:17:16.602423,132058.21875,142763.1875,158446.609375,155787.734375,170776.546875,168690.328125,686175.6875,128656.9140625,0.056884765625,1.0087890625,-0.099853515625,-1.0070799589157104,0.7629393935203552,0.5798339247703552,86.66667175292969,141563.0,1.0
18:17:16.602438,132032.5625,142723.40625,158433.015625,155783.4375,170762.859375,168673.78125,686115.6875,128658.5234375,0.055908203125,1.006591796875,-0.10107421875,-0.9460448622703552,0.7324218153953552,0.6103515028953552,86.66667175292969,141564.0,1.0
18:17:16.606928,132027.46875,142722.25,158426.21875,155781.46875,170755.53125,168663.5,686140.0,128658.7890625,0.056640625,1.005615234375,-0.097900390625,-0.9765624403953552,0.7324218153953552,0.4882812201976776,86.66667175292969,141565.0,1.0
18:17:16.616875,132044.015625,142751.203125,158427.296875,155779.328125,170752.671875,168665.90625,686193.6875,128654.5,0.05712890625,1.007568359375,-0.096923828125,-1.0070799589157104,0.7934569716453552,0.5493163466453552,86.66667175292969,141566.0,1.0
18:17:16.623096,132049.46875,142758.625,158434.359375,155782.015625,170765.09375,168680.671875,686180.8125,128655.84375,0.058349609375,1.005615234375,-0.099365234375,-0.9765624403953552,0.8239745497703552,0.5493163466453552,86.66667175292969,141567.0,1.0
18:17:16.623157,132020.234375,142715.984375,158418.796875,155771.453125,170752.21875,168665.015625,686127.9375,128646.453125,0.05810546875,1.00732421875,-0.10107421875,-1.0375975370407104,0.8850097060203552,0.5493163466453552,86.66667175292969,141568.0,1.0
18:17:16.623174,132006.734375,142705.796875,158409.328125,155764.3125,170741.5,168654.828125,686129.8125,128640.375,0.05859375,1.00732421875,-0.104736328125,-0.9460448622703552,0.8239745497703552,0.6408690810203552,86.66667175292969,141569.0,1.0
18:17:16.625607,132030.0625,142740.125,158417.546875,155770.5625,170744.71875,168659.5625,686210.3125,128640.1953125,0.0576171875,1.006103515625,-0.101318359375,-1.0375975370407104,0.7934569716453552,0.5798339247703552,86.66667175292969,141570.0,1.0
18:17:16.629421,132045.265625,142759.078125,158429.984375,155773.609375,170759.375,168677.71875,686209.5625,128642.1640625,0.05419921875,1.0048828125,-0.1005859375,-0.9460448622703552,0.7934569716453552,0.5187987685203552,86.66667175292969,141571.0,1.0
18:17:16.636174,132027.828125,142728.6875,158426.125,155773.515625,170758.125,168673.515625,686157.8125,128648.0625,0.052978515625,1.006591796875,-0.105712890625,-0.9765624403953552,0.8850097060203552,0.6408690810203552,86.66667175292969,141572.0,1.0
18:17:16.636217,132010.03125,142705.96875,158412.625,155769.140625,170743.734375,168656.703125,686126.4375,128645.5625,0.053466796875,1.007080078125,-0.10400390625,-0.9765624403953552,0.9155272841453552,0.7019042372703552,86.66667175292969,141573.0,1.0
18:17:16.638075,132025.40625,142734.40625,158414.0625,155766.546875,170740.78125,168659.390625,686183.8125,128638.40625,0.056640625,1.00830078125,-0.100830078125,-0.9765624403953552,0.8850097060203552,0.6103515028953552,86.66667175292969,141574.0,1.0
18:17:16.646822,132043.46875,142756.578125,158426.84375,155772.265625,170755.71875,168674.59375,686202.25,128642.703125,0.05419921875,1.0087890625,-0.103515625,-0.9460448622703552,0.9155272841453552,0.6103515028953552,86.66667175292969,141575.0,1.0
18:17:16.651140,132035.25,142736.90625,158432.484375,155780.765625,170766.265625,168680.390625,686139.75,128656.0234375,0.05322265625,1.008056640625,-0.101318359375,-0.9765624403953552,0.8850097060203552,0.5187987685203552,86.66667175292969,141576.0,1.0
18:17:16.651166,132003.953125,142698.28125,158407.53125,155763.859375,170739.984375,168652.328125,686107.5,128643.59375,0.05078125,1.007080078125,-0.103271484375,-1.0070799589157104,0.7324218153953552,0.4882812201976776,86.66667175292969,141577.0,1.0
18:17:16.660562,132021.296875,142730.015625,158415.046875,155768.234375,170743.375,168659.296875,686169.8125,128641.265625,0.05029296875,1.007080078125,-0.105224609375,-1.1291502714157104,0.6408690810203552,0.3967284858226776,86.66667175292969,141578.0,1.0
18:17:16.664932,132043.296875,142755.953125,158426.3125,155772.265625,170753.75,168670.828125,686206.875,128639.2109375,0.0478515625,1.00732421875,-0.10546875,-1.0375975370407104,0.5798339247703552,0.2441406100988388,86.66667175292969,141579.0,1.0
18:17:16.664939,132041.5,142745.046875,158435.25,155776.828125,170767.515625,168682.1875,686157.75,128646.7265625,0.046875,1.008544921875,-0.1044921875,-1.0681151151657104,0.4272460639476776,0.2441406100988388,86.66667175292969,141580.0,1.0
18:17:16.674466,132008.96875,142703.375,158413.796875,155767.34375,170745.078125,168657.234375,686094.875,128641.984375,0.045166015625,1.008544921875,-0.1015625,-1.0681151151657104,0.2136230319738388,0.2136230319738388,86.66667175292969,141581.0,1.0
18:17:16.678662,132020.40625,142724.65625,158420.5,155770.203125,170747.75,168661.0,686158.375,128643.953125,0.046630859375,1.009765625,-0.10205078125,-1.1596678495407104,0.0915527269244194,0.03051757626235485,86.66667175292969,141582.0,1.0
18:17:16.678694,132054.015625,142766.234375,158440.265625,155786.84375,170766.078125,168681.828125,686214.5,128656.734375,0.046142578125,1.010498046875,-0.104248046875,-1.1291502714157104,-0.0610351525247097,0.0,86.66667175292969,141583.0,1.0
18:17:16.706711,132053.3125,142760.328125,158446.78125,155789.15625,170778.15625,168692.296875,686191.4375,128660.9375,0.04833984375,1.01123046875,-0.103515625,-1.3122557401657104,-0.2136230319738388,-0.0610351525247097,86.66667175292969,141584.0,1.0
18:17:16.706858,132024.515625,142717.953125,158429.078125,155785.671875,170760.09375,168669.578125,686124.625,128668.625,0.04833984375,1.0107421875,-0.1025390625,-1.3122557401657104,-0.4272460639476776,0.0,86.66667175292969,141585.0,1.0
18:17:16.708416,132019.0625,142721.796875,158419.6875,155774.140625,170747.671875,168660.28125,686159.875,128650.03125,0.046630859375,1.010986328125,-0.100830078125,-1.4038084745407104,-0.5187987685203552,0.03051757626235485,86.66667175292969,141586.0,1.0
18:17:16.739384,132039.890625,142750.578125,158424.171875,155775.84375,170749.1875,168664.578125,686221.1875,128642.609375,0.0458984375,1.00927734375,-0.10009765625,-1.4038084745407104,-0.5798339247703552,0.0610351525247097,86.66667175292969,141587.0,1.0
18:17:16.760627,132047.765625,142756.671875,158436.421875,155784.0625,170766.625,168683.265625,686176.125,128652.265625,0.045166015625,1.00830078125,-0.1005859375,-1.4343260526657104,-0.7629393935203552,0.2136230319738388,86.66667175292969,141588.0,1.0
18:17:16.763159,132012.71875,142707.484375,158414.6875,155769.40625,170745.078125,168658.3125,686109.1875,128647.171875,0.045654296875,1.008056640625,-0.10009765625,-1.5869139432907104,-0.8850097060203552,0.2746581733226776,86.66667175292969,141589.0,1.0
18:17:16.765633,132006.1875,142703.28125,158408.96875,155763.859375,170738.546875,168646.953125,686150.875,128646.2734375,0.046630859375,1.009521484375,-0.100341796875,-1.6174315214157104,-1.0070799589157104,0.3356933295726776,86.66667175292969,141590.0,1.0
18:17:16.768314,132036.765625,142744.78125,158424.078125,155777.71875,170749.546875,168661.53125,686218.5,128649.2265625,0.047119140625,1.009033203125,-0.101318359375,-1.5563963651657104,-1.0375975370407104,0.5187987685203552,86.66667175292969,141591.0,1.0
18:17:16.770577,132051.15625,142758.8125,158438.828125,155783.796875,170767.25,168681.109375,686192.9375,128652.890625,0.0498046875,1.010498046875,-0.102294921875,-1.6479490995407104,-1.1291502714157104,0.6713866591453552,86.66667175292969,141592.0,1.0
18:17:16.773144,132026.03125,142720.984375,158426.765625,155779.59375,170756.609375,168667.875,686142.8125,128655.125,0.04931640625,1.00927734375,-0.099853515625,-1.6784666776657104,-1.2817381620407104,0.6713866591453552,86.66667175292969,141593.0,1.0
18:17:16.775671,132014.234375,142714.015625,158418.359375,155773.25,170746.234375,168660.28125,686132.0625,128649.5859375,0.05078125,1.00830078125,-0.1015625,-1.7700194120407104,-1.3732908964157104,0.7629393935203552,86.66667175292969,141594.0,1.0
18:17:16.778044,132040.171875,142751.125,158428.90625,155781.46875,170751.328125,168669.484375,686211.625,128652.0,0.0498046875,1.01025390625,-0.099853515625,-1.8005369901657104,-1.4343260526657104,0.8544921278953552,86.66667175292969,141595.0,1.0
18:17:16.780620,132060.28125,142773.203125,158445.359375,155791.3125,170769.21875,168689.421875,686212.5625,128659.0625,0.0498046875,1.009033203125,-0.10205078125,-1.8920897245407104,-1.4343260526657104,0.8239745497703552,86.66667175292969,141596.0,1.0
18:17:16.783073,132029.171875,142726.53125,158426.84375,155778.25,170755.0,168667.4375,686158.0,128652.1796875,0.05126953125,1.00927734375,-0.1015625,-1.9226073026657104,-1.4648436307907104,0.9155272841453552,86.66667175292969,141597.0,1.0
18:17:16.785751,132012.625,142705.796875,158415.765625,155773.421875,170743.28125,168654.109375,686122.25,128653.3359375,0.05419921875,1.008056640625,-0.098876953125,-1.9836424589157104,-1.4648436307907104,1.0070799589157104,86.66667175292969,141598.0,1.0
18:17:16.788035,132029.96875,142736.90625,158421.75,155773.15625,170745.078125,168659.921875,686189.3125,128644.1328125,0.05419921875,1.010009765625,-0.098876953125,-2.044677495956421,-1.4343260526657104,1.1901854276657104,86.66667175292969,141599.0,1.0
18:17:16.790560,132048.65625,142759.96875,158434.265625,155779.78125,170757.859375,168673.6875,686209.125,128651.4609375,0.054931640625,1.006591796875,-0.101318359375,-2.197265386581421,-1.4953612089157104,1.2207030057907104,86.66667175292969,141600.0,1.0
18:17:16.793097,132035.34375,142735.46875,158432.5625,155780.578125,170761.796875,168674.859375,686154.125,128655.9296875,0.0576171875,1.008056640625,-0.10009765625,-2.258300542831421,-1.3427733182907104,1.1291502714157104,86.66667175292969,141601.0,1.0
18:17:16.795560,132015.484375,142707.21875,158419.96875,155778.703125,170749.1875,168658.765625,686122.9375,128657.359375,0.058837890625,1.010009765625,-0.1015625,-2.258300542831421,-1.2207030057907104,1.1596678495407104,86.66667175292969,141602.0,1.0
18:17:16.798088,132036.953125,142743.25,158432.5625,155786.03125,170758.125,168672.625,686201.0625,128657.6328125,0.061767578125,1.008544921875,-0.10205078125,-2.258300542831421,-1.1901854276657104,1.1291502714157104,86.66667175292969,141603.0,1.0
18:17:16.800605,132057.515625,142769.0,158440.703125,155787.375,170764.5625,168682.453125,686231.0625,128652.890625,0.0615234375,1.0068359375,-0.103515625,-2.441406011581421,-1.0986326932907104,1.0070799589157104,86.66667175292969,141604.0,1.0
18:17:16.803131,132053.75,142757.296875,158447.59375,155791.125,170775.46875,168690.859375,686180.5,128659.953125,0.062744140625,1.006591796875,-0.103515625,-2.410888433456421,-0.9765624403953552,1.0375975370407104,86.66667175292969,141605.0,1.0
18:17:16.806212,132027.5625,142718.40625,158431.046875,155782.640625,170759.375,168668.59375,686124.75,128658.34375,0.064208984375,1.006103515625,-0.099853515625,-2.471923589706421,-0.7934569716453552,1.0986326932907104,86.66667175292969,141606.0,1.0
18:17:16.806267,132031.9375,142733.6875,158429.703125,155781.921875,170757.40625,168666.625,686181.4375,128655.9296875,0.06640625,1.00439453125,-0.10107421875,-2.441406011581421,-0.5798339247703552,0.9460448622703552,86.66667175292969,141607.0,1.0
18:17:16.809807,132056.265625,142766.59375,158439.984375,155790.59375,170764.5625,168677.71875,686226.6875,128660.3125,0.0654296875,1.004638671875,-0.101806640625,-2.441406011581421,-0.4272460639476776,0.8239745497703552,86.66667175292969,141608.0,1.0
18:17:16.809834,132049.015625,142753.625,158440.609375,155785.140625,170769.484375,168683.078125,686170.0625,128656.203125,0.065673828125,1.00732421875,-0.101318359375,-2.410888433456421,-0.2136230319738388,0.7629393935203552,86.66667175292969,141609.0,1.0
18:17:16.809844,132016.46875,142707.765625,158418.984375,155773.78125,170747.75,168658.578125,686117.6875,128651.7265625,0.06787109375,1.0078125,-0.10009765625,-2.410888433456421,-0.0610351525247097,0.8544921278953552,86.66667175292969,141610.0,1.0
18:17:16.809852,132018.171875,142718.046875,158418.359375,155773.703125,170746.0625,168657.6875,686168.5625,128649.140625,0.0673828125,1.006103515625,-0.097412109375,-2.410888433456421,0.1831054538488388,0.7629393935203552,86.66667175292969,141611.0,1.0
18:17:16.812470,132042.765625,142752.8125,158428.640625,155779.421875,170751.953125,168666.1875,686226.5,128648.6015625,0.068359375,1.004638671875,-0.09912109375,-2.410888433456421,0.3967284858226776,0.7629393935203552,86.66667175292969,141612.0,1.0
18:17:16.812496,132056.96875,142766.671875,158447.234375,155790.859375,170775.296875,168690.859375,686179.1875,128662.8125,0.0673828125,1.005615234375,-0.10009765625,-2.410888433456421,0.6408690810203552,0.7629393935203552,86.66667175292969,141613.0,1.0
18:17:16.814929,132023.796875,142721.34375,158427.109375,155780.21875,170756.25,168668.59375,686112.375,128658.078125,0.066650390625,1.005126953125,-0.101318359375,-2.349853277206421,0.8239745497703552,0.7324218153953552,86.66667175292969,141614.0,1.0
18:17:16.814961,132019.15625,142718.578125,158423.71875,155779.5,170752.3125,168660.375,686139.0625,128659.2421875,0.065673828125,1.0048828125,-0.099365234375,-2.288818120956421,1.1291502714157104,0.6103515028953552,86.66667175292969,141615.0,1.0
18:17:16.816876,132040.875,142755.59375,158429.984375,155781.203125,170754.734375,168667.703125,686212.0,128658.1640625,0.064453125,1.00390625,-0.09765625,-2.197265386581421,1.2207030057907104,0.6103515028953552,86.66667175292969,141616.0,1.0
18:17:16.819903,132055.625,142768.90625,158444.109375,155789.96875,170771.0,168684.515625,686197.25,128661.4765625,0.062255859375,1.00390625,-0.096923828125,-2.136230230331421,1.2817381620407104,0.6103515028953552,86.66667175292969,141617.0,1.0
18:17:16.819926,132028.984375,142726.0,158430.328125,155782.546875,170757.953125,168668.234375,686135.4375,128657.09375,0.06103515625,1.005126953125,-0.097412109375,-2.014159917831421,1.3732908964157104,0.5187987685203552,86.66667175292969,141618.0,1.0
18:17:16.821878,132015.3125,142710.890625,158420.5,155775.9375,170747.484375,168655.453125,686129.8125,128652.8046875,0.060302734375,1.004638671875,-0.098388671875,-2.075195074081421,1.4648436307907104,0.4577636420726776,86.66667175292969,141619.0,1.0
18:17:16.828104,132041.15625,142749.0625,158433.546875,155785.9375,170755.984375,168665.5625,686199.125,128656.2890625,0.057861328125,1.004150390625,-0.095947265625,-2.105712652206421,1.5563963651657104,0.4577636420726776,86.66667175292969,141620.0,1.0
18:17:16.834886,132061.171875,142773.203125,158449.734375,155792.375,170774.75,168685.5,686195.875,128661.203125,0.0576171875,1.007080078125,-0.0927734375,-2.075195074081421,1.6479490995407104,0.3967284858226776,86.66667175292969,141621.0,1.0
18:17:16.834906,132040.796875,142740.390625,158442.578125,155787.734375,170769.921875,168677.359375,686145.375,128662.8125,0.05712890625,1.00732421875,-0.094970703125,-2.014159917831421,1.6784666776657104,0.4577636420726776,86.66667175292969,141622.0,1.0
18:17:16.837427,132021.84375,142716.703125,158429.796875,155783.265625,170755.890625,168661.265625,686123.75,128661.4765625,0.055419921875,1.004638671875,-0.094482421875,-1.8310545682907104,1.5563963651657104,0.4882812201976776,86.66667175292969,141623.0,1.0
18:17:16.837444,132044.09375,142752.640625,158440.703125,155789.34375,170763.046875,168671.71875,686182.875,128663.9765625,0.052490234375,1.00244140625,-0.09814453125,-1.8310545682907104,1.5258787870407104,0.4577636420726776,86.66667175292969,141624.0,1.0
18:17:16.846836,132065.640625,142778.5625,158453.40625,155794.171875,170775.296875,168688.0,686208.0625,128665.5,0.05224609375,1.004638671875,-0.09716796875,-1.8005369901657104,1.4648436307907104,0.3356933295726776,86.66667175292969,141625.0,1.0
18:17:16.849334,132056.96875,142757.734375,158456.796875,155798.015625,170782.53125,168691.65625,686161.0625,128671.3125,0.04833984375,1.00537109375,-0.095947265625,-1.8005369901657104,1.4038084745407104,0.3051757514476776,86.66667175292969,141626.0,1.0
18:17:16.855777,132030.15625,142720.90625,158438.375,155790.234375,170763.671875,168666.546875,686111.4375,128668.2734375,0.048095703125,1.006591796875,-0.095703125,-1.8005369901657104,1.3427733182907104,0.3051757514476776,86.66667175292969,141627.0,1.0
18:17:16.862396,132039.546875,142744.140625,158437.578125,155785.3125,170759.203125,168666.359375,686175.5,128657.5390625,0.048583984375,1.00537109375,-0.09423828125,-1.7700194120407104,1.2817381620407104,0.2441406100988388,86.66667175292969,141628.0,1.0
18:17:16.862407,132065.375,142778.296875,158451.4375,155791.3125,170771.625,168682.90625,686218.0625,128659.421875,0.0478515625,1.004638671875,-0.09521484375,-1.8005369901657104,1.0986326932907104,0.3051757514476776,86.66667175292969,141629.0,1.0
18:17:16.869961,132066.984375,142773.203125,158463.234375,155801.234375,170787.984375,168699.171875,686156.5,128672.921875,0.0478515625,1.00341796875,-0.095947265625,-1.6174315214157104,0.9460448622703552,0.2136230319738388,86.66667175292969,141630.0,1.0
18:17:16.869983,132030.6875,142721.078125,158437.125,155786.484375,170760.0,168665.828125,686105.0,128663.4453125,0.046142578125,1.0048828125,-0.095703125,-1.5563963651657104,0.7629393935203552,0.1831054538488388,86.66667175292969,141631.0,1.0
18:17:16.879935,132034.984375,142734.140625,158436.0625,155786.5625,170756.421875,168661.4375,686178.125,128664.9609375,0.045654296875,1.00439453125,-0.095458984375,-1.6174315214157104,0.7324218153953552,0.3051757514476776,86.66667175292969,141632.0,1.0
18:17:16.879955,132055.0,142763.1875,158442.21875,155787.203125,170759.5625,168668.328125,686226.8125,128655.6640625,0.04638671875,1.003173828125,-0.09228515625,-1.5869139432907104,0.4882812201976776,0.2441406100988388,86.66667175292969,141633.0,1.0
18:17:16.881770,132060.640625,142764.53125,158455.640625,155794.265625,170777.703125,168687.109375,686162.1875,128661.3828125,0.045166015625,1.004638671875,-0.09228515625,-1.5869139432907104,0.3356933295726776,0.2746581733226776,86.66667175292969,141634.0,1.0
18:17:16.885674,132030.59375,142718.046875,158436.59375,155790.0625,170759.109375,168661.625,686108.75,128664.9609375,0.04443359375,1.0048828125,-0.0927734375,-1.5869139432907104,0.3051757514476776,0.3662109076976776,86.66667175292969,141635.0,1.0
18:17:16.895610,132036.140625,142732.796875,158440.609375,155793.71875,170761.703125,168665.015625,686151.0,128668.625,0.044921875,1.00341796875,-0.09423828125,-1.5869139432907104,0.03051757626235485,0.2746581733226776,86.66667175292969,141636.0,1.0
18:17:16.899413,132057.953125,142765.78125,158447.59375,155796.859375,170765.1875,168673.953125,686204.5,128666.03125,0.047607421875,1.005859375,-0.09326171875,-1.4648436307907104,-0.1220703050494194,0.2441406100988388,86.66667175292969,141637.0,1.0
18:17:16.899479,132061.796875,142769.0,158456.171875,155797.828125,170779.3125,168689.15625,686183.0,128666.5703125,0.045654296875,1.006103515625,-0.09716796875,-1.2512205839157104,-0.2746581733226776,0.3967284858226776,86.66667175292969,141638.0,1.0
18:17:16.899493,132028.71875,142724.484375,158435.78125,155785.234375,170760.625,168669.21875,686131.0625,128662.0078125,0.044677734375,1.005126953125,-0.094970703125,-1.4343260526657104,-0.4577636420726776,0.3662109076976776,86.66667175292969,141639.0,1.0
18:17:16.901819,132023.09375,142721.96875,158430.78125,155784.515625,170754.8125,168663.234375,686149.5625,128661.296875,0.0478515625,1.006103515625,-0.092041015625,-1.3732908964157104,-0.6408690810203552,0.4577636420726776,86.66667175292969,141640.0,1.0
18:17:16.905569,132039.890625,142748.96875,158431.234375,155783.078125,170751.953125,168663.953125,686220.75,128654.3203125,0.04833984375,1.00537109375,-0.093505859375,-1.3427733182907104,-0.6713866591453552,0.3662109076976776,86.66667175292969,141641.0,1.0
18:17:16.920840,132051.703125,142762.203125,158442.84375,155783.703125,170768.234375,168681.109375,686190.375,128655.3046875,0.049072265625,1.00390625,-0.095458984375,-1.2817381620407104,-0.7629393935203552,0.5798339247703552,86.66667175292969,141642.0,1.0
18:17:16.923680,132028.359375,142726.53125,158433.546875,155783.078125,170761.34375,168670.390625,686143.875,128659.5078125,0.050537109375,1.0048828125,-0.09765625,-1.2512205839157104,-0.7934569716453552,0.6103515028953552,86.66667175292969,141643.0,1.0
18:17:16.923697,132018.171875,142716.15625,158426.765625,155782.09375,170753.203125,168661.359375,686135.75,128660.578125,0.051513671875,1.00634765625,-0.095458984375,-1.2207030057907104,-0.8850097060203552,0.6408690810203552,86.66667175292969,141644.0,1.0
18:17:16.925636,132032.5625,142742.8125,158426.484375,155778.515625,170747.9375,168659.65625,686202.0,128653.3359375,0.052001953125,1.00537109375,-0.097900390625,-1.1291502714157104,-0.9765624403953552,0.6713866591453552,86.66667175292969,141645.0,1.0
