Timestamp,Fz,FC3,FCz,FC4,Cz,C3,C4
18:21:45.227666,128091.0625,141543.59375,155568.953125,153577.140625,162366.484375,160395.328125,689318.5625,125362.359375,0.106689453125,0.993896484375,0.153564453125,-1.2817381620407104,0.3356933295726776,0.4882812201976776,86.66667175292969,208767.0,1.0
18:21:45.231444,128084.9765625,141527.140625,155578.96875,153584.828125,162384.359375,160412.21875,689002.75,125374.609375,0.10693359375,0.993896484375,0.156005859375,-1.2817381620407104,0.3967284858226776,0.4577636420726776,86.66667175292969,208768.0,1.0
18:21:45.241972,128054.3125,141489.328125,155563.859375,153576.25,162371.84375,160397.28125,688212.6875,125371.296875,0.105712890625,0.99462890625,0.1572265625,-1.2512205839157104,0.3662109076976776,0.3051757514476776,86.66667175292969,208769.0,1.0
18:21:45.241987,128066.3828125,141513.90625,155561.625,153572.671875,162364.234375,160392.90625,687592.375,125358.9609375,0.105712890625,0.99560546875,0.158203125,-1.2207030057907104,0.5187987685203552,0.3051757514476776,86.66667175292969,208770.0,1.0
18:21:45.248447,128095.9765625,141551.375,155571.453125,153578.21875,162369.78125,160403.28125,687689.0625,125358.6953125,0.105224609375,0.996337890625,0.158935546875,-1.0681151151657104,0.7019042372703552,0.2746581733226776,86.66667175292969,208771.0,1.0
18:21:45.248484,128093.828125,141540.109375,155581.296875,153585.109375,162385.609375,160417.671875,687462.1875,125370.5859375,0.1025390625,0.99658203125,0.15673828125,-0.9765624403953552,0.7324218153953552,0.2441406100988388,86.66667175292969,208772.0,1.0
18:21:45.261424,128058.6953125,141494.234375,155566.546875,153578.671875,162374.796875,160403.1875,686710.8125,125371.7421875,0.100830078125,0.99560546875,0.15478515625,-0.9460448622703552,0.5798339247703552,0.2441406100988388,86.66667175292969,208773.0,1.0
18:21:45.266909,128074.4296875,141522.3125,155575.390625,153585.1875,162378.375,160409.453125,685975.875,125374.15625,0.099853515625,0.99560546875,0.1572265625,-0.9460448622703552,0.6103515028953552,0.2441406100988388,86.66667175292969,208774.0,1.0
18:21:45.267069,128100.8046875,141561.203125,155579.59375,153588.40625,162374.4375,160413.203125,685992.5,125369.6015625,0.099609375,0.99658203125,0.16015625,-0.9155272841453552,0.5798339247703552,0.2441406100988388,86.66667175292969,208775.0,1.0
18:21:45.267092,128094.2734375,141546.8125,155577.625,153582.421875,162376.140625,160414.09375,685944.125,125365.6640625,0.0986328125,0.994384765625,0.1572265625,-0.8544921278953552,0.6103515028953552,0.1831054538488388,86.66667175292969,208776.0,1.0
18:21:45.267103,128065.0390625,141498.0,155567.078125,153580.1875,162369.25,160401.3125,685650.4375,125369.0625,0.09765625,0.994873046875,0.15966796875,-0.7934569716453552,0.5798339247703552,0.2136230319738388,86.66667175292969,208777.0,1.0
18:21:45.268960,128057.265625,141500.3125,155558.21875,153568.828125,162359.59375,160392.015625,685288.5,125360.3046875,0.09716796875,0.995361328125,0.156005859375,-0.7324218153953552,0.4882812201976776,0.3967284858226776,86.66667175292969,208778.0,1.0
18:21:45.276421,128072.1953125,141527.046875,155551.609375,153561.046875,162347.515625,160381.28125,685322.25,125347.6015625,0.098876953125,0.99853515625,0.1533203125,-0.6408690810203552,0.3051757514476776,0.3662109076976776,86.66667175292969,208779.0,1.0
18:21:45.280708,128078.9921875,141531.4375,155559.03125,153563.28125,162356.828125,160392.90625,685380.0,125350.6484375,0.096435546875,0.99755859375,0.154296875,-0.7324218153953552,0.3967284858226776,0.3662109076976776,86.66667175292969,208780.0,1.0
18:21:45.280733,128051.5390625,141488.78125,155553.390625,153561.140625,162353.6875,160387.28125,685165.375,125352.4296875,0.097412109375,0.99755859375,0.156982421875,-0.7019042372703552,0.3662109076976776,0.4882812201976776,86.66667175292969,208781.0,1.0
18:21:45.290161,128042.328125,141484.21875,155548.84375,153556.484375,162348.328125,160378.609375,684839.625,125346.53125,0.09765625,0.999755859375,0.154296875,-0.6408690810203552,0.3051757514476776,0.5493163466453552,86.66667175292969,208782.0,1.0
18:21:45.294523,128067.1875,141520.875,155551.34375,153558.1875,162343.5,160377.265625,684953.6875,125339.734375,0.099365234375,0.9970703125,0.154052734375,-0.7019042372703552,0.3356933295726776,0.6408690810203552,86.66667175292969,208783.0,1.0
18:21:45.294551,128082.7421875,141533.390625,155560.8125,153562.84375,162353.328125,160385.75,685177.5625,125341.171875,0.098876953125,0.995849609375,0.154541015625,-0.7934569716453552,0.2746581733226776,0.6408690810203552,86.66667175292969,208784.0,1.0
18:21:45.301460,128060.8359375,141494.0625,155558.9375,153566.59375,162357.0,160383.875,685121.9375,125353.1484375,0.097900390625,0.9970703125,0.154296875,-0.7629393935203552,0.2136230319738388,0.7324218153953552,86.66667175292969,208785.0,1.0
18:21:45.304491,128039.109375,141474.125,155546.421875,153557.921875,162346.984375,160370.734375,684673.3125,125347.3359375,0.0986328125,0.998046875,0.149658203125,-0.7019042372703552,0.1220703050494194,0.8239745497703552,86.66667175292969,208786.0,1.0
18:21:45.304510,128061.640625,141510.78125,155549.828125,153561.046875,162345.46875,160371.625,684699.4375,125344.2109375,0.097900390625,0.99853515625,0.1513671875,-0.7324218153953552,0.0610351525247097,0.7934569716453552,86.66667175292969,208787.0,1.0
18:21:45.306441,128079.8828125,141533.390625,155558.578125,153565.703125,162354.765625,160384.6875,685175.4375,125346.53125,0.094482421875,0.996337890625,0.14990234375,-0.7324218153953552,0.0,0.8544921278953552,86.66667175292969,208788.0,1.0
18:21:45.317676,128042.0625,141481.71875,155539.1875,153547.109375,162339.921875,160369.125,685147.0,125335.8046875,0.096923828125,0.993896484375,0.1533203125,-0.7019042372703552,-0.0915527269244194,0.9765624403953552,86.66667175292969,208789.0,1.0
18:21:45.323302,128015.6875,141449.796875,155524.15625,153539.140625,162325.796875,160353.203125,684733.1875,125331.421875,0.0966796875,0.99365234375,0.1533203125,-0.6408690810203552,-0.0915527269244194,0.9460448622703552,86.66667175292969,208790.0,1.0
18:21:45.323342,128037.7734375,141483.953125,155529.4375,153542.359375,162324.984375,160353.296875,684657.8125,125328.203125,0.09765625,0.99462890625,0.152587890625,-0.6103515028953552,-0.1220703050494194,1.0375975370407104,86.66667175292969,208791.0,1.0
18:21:45.325136,128064.1484375,141514.796875,155539.359375,153548.796875,162333.484375,160364.46875,685157.625,125331.0625,0.098876953125,0.994384765625,0.15087890625,-0.5798339247703552,-0.1831054538488388,0.9765624403953552,86.66667175292969,208792.0,1.0
18:21:45.332671,128045.375,141481.546875,155535.421875,153546.296875,162335.984375,160362.234375,685252.9375,125335.4453125,0.10009765625,0.9951171875,0.149658203125,-0.4882812201976776,-0.2746581733226776,0.9460448622703552,86.66667175292969,208793.0,1.0
18:21:45.343255,128019.890625,141448.375,155528.265625,153542.546875,162331.15625,160352.859375,684945.4375,125334.1015625,0.101318359375,0.995361328125,0.152587890625,-0.4577636420726776,-0.3051757514476776,1.1291502714157104,86.66667175292969,208794.0,1.0
18:21:45.343292,128035.625,141480.375,155532.65625,153544.25,162330.53125,160356.421875,684776.8125,125329.6328125,0.1005859375,0.996337890625,0.15185546875,-0.3356933295726776,-0.3967284858226776,1.0070799589157104,86.66667175292969,208795.0,1.0
18:21:45.345717,128055.4765625,141507.65625,155532.5625,153543.796875,162326.15625,160355.796875,685080.5625,125323.46875,0.100341796875,0.99560546875,0.153076171875,-0.4882812201976776,-0.3662109076976776,1.0375975370407104,86.66667175292969,208796.0,1.0
18:21:45.345752,128051.2734375,141492.625,155538.5625,153547.015625,162337.953125,160367.25,685145.3125,125332.671875,0.102783203125,0.99853515625,0.149169921875,-0.4882812201976776,-0.2746581733226776,0.9460448622703552,86.66667175292969,208797.0,1.0
18:21:45.358259,128023.5546875,141454.1875,155529.609375,153543.796875,162333.84375,160360.28125,685109.4375,125337.5,0.103759765625,0.9990234375,0.148193359375,-0.4577636420726776,-0.2746581733226776,1.0070799589157104,86.66667175292969,208798.0,1.0
18:21:45.358309,128039.203125,141486.1875,155538.015625,153549.78125,162338.140625,160371.359375,684925.3125,125337.5,0.105712890625,0.9990234375,0.152587890625,-0.5187987685203552,-0.3051757514476776,0.9765624403953552,86.66667175292969,208799.0,1.0
18:21:45.364544,128061.5546875,141521.328125,155539.625,153550.5,162333.03125,160372.96875,685174.5,125329.0078125,0.1044921875,1.0,0.154296875,-0.6103515028953552,-0.1831054538488388,1.1291502714157104,86.66667175292969,208800.0,1.0
18:21:45.364580,128064.7734375,141518.734375,155548.296875,153552.5625,162345.90625,160386.015625,685285.5625,125333.296875,0.106201171875,1.001708984375,0.1533203125,-0.7629393935203552,-0.1831054538488388,1.0375975370407104,86.66667175292969,208801.0,1.0
18:21:45.370741,128037.59375,141473.859375,155541.953125,153552.296875,162342.6875,160377.265625,685153.0625,125340.8125,0.105712890625,1.0009765625,0.152587890625,-0.7934569716453552,-0.1220703050494194,1.0375975370407104,86.66667175292969,208802.0,1.0
18:21:45.370773,128033.125,141477.078125,155534.359375,153545.859375,162332.765625,160367.6875,685080.9375,125331.6875,0.103759765625,1.001953125,0.1533203125,-0.8850097060203552,-0.1525878757238388,0.9765624403953552,86.66667175292969,208803.0,1.0
18:21:45.376984,128057.7109375,141509.609375,155535.34375,153549.15625,162326.0625,160361.703125,685278.25,125328.828125,0.10400390625,1.002197265625,0.153564453125,-0.9765624403953552,-0.0610351525247097,0.9765624403953552,86.66667175292969,208804.0,1.0
18:21:45.377004,128064.4140625,141513.28125,155542.40625,153551.3125,162337.0625,160372.796875,685530.1875,125334.734375,0.10400390625,1.002197265625,0.154541015625,-1.0986326932907104,0.0,0.9155272841453552,86.66667175292969,208805.0,1.0
18:21:45.378914,128036.875,141470.015625,155539.1875,153553.546875,162340.640625,160369.21875,685391.9375,125344.03125,0.105712890625,1.001708984375,0.153564453125,-1.1291502714157104,0.0,0.8850097060203552,86.66667175292969,208806.0,1.0
18:21:45.386387,128049.0390625,141488.515625,155558.671875,153570.34375,162361.5625,160386.109375,685233.0625,125360.75,0.10546875,1.001708984375,0.152099609375,-1.1901854276657104,0.0610351525247097,0.9460448622703552,86.66667175292969,208807.0,1.0
18:21:45.413403,128063.25,141515.421875,155550.71875,153560.421875,162347.515625,160373.859375,685399.5625,125342.6015625,0.10546875,1.000244140625,0.151611328125,-1.3732908964157104,0.1220703050494194,0.8544921278953552,86.66667175292969,208808.0,1.0
18:21:45.413481,128080.5078125,141533.390625,155559.46875,153564.625,162355.921875,160385.125,685830.5,125344.8359375,0.105712890625,1.0,0.153076171875,-1.4648436307907104,0.03051757626235485,0.8850097060203552,86.66667175292969,208809.0,1.0
18:21:45.441407,128058.9609375,141496.203125,155558.40625,153565.515625,162358.875,160382.984375,685820.75,125354.0390625,0.1015625,1.0009765625,0.154541015625,-1.6174315214157104,0.1525878757238388,0.8850097060203552,86.66667175292969,208810.0,1.0
18:21:45.441483,128046.7109375,141485.296875,155557.234375,153565.25,162358.875,160379.140625,685496.375,125356.7265625,0.10009765625,1.001708984375,0.15234375,-1.6479490995407104,0.1525878757238388,0.8239745497703552,86.66667175292969,208811.0,1.0
18:21:45.441509,128068.2578125,141523.921875,155559.828125,153564.359375,162354.9375,160383.609375,685587.875,125348.0546875,0.10205078125,1.0,0.152587890625,-1.7395018339157104,0.1831054538488388,0.9155272841453552,86.66667175292969,208812.0,1.0
18:21:45.445130,128087.0390625,141545.375,155565.640625,153566.6875,162359.6875,160392.8125,685865.8125,125346.890625,0.104736328125,0.998046875,0.151611328125,-1.8005369901657104,0.1831054538488388,0.7934569716453552,86.66667175292969,208813.0,1.0
18:21:45.445197,128065.21875,141509.171875,155561.078125,153564.1875,162361.828125,160392.546875,685874.375,125351.09375,0.10546875,0.9970703125,0.151123046875,-1.8310545682907104,0.3356933295726776,0.8850097060203552,86.66667175292969,208814.0,1.0
18:21:45.445223,128043.40625,141487.0,155554.203125,153559.53125,162358.703125,160387.28125,685808.125,125350.6484375,0.106201171875,0.9951171875,0.15283203125,-1.7395018339157104,0.3662109076976776,1.0681151151657104,86.66667175292969,208815.0,1.0
18:21:45.453897,128059.140625,141519.09375,155556.171875,153560.78125,162355.125,160385.75,685790.0625,125345.28125,0.105224609375,0.994384765625,0.14892578125,-1.6174315214157104,0.3967284858226776,0.9765624403953552,86.66667175292969,208816.0,1.0
18:21:45.453974,128078.1875,141545.734375,155558.40625,153560.25,162353.6875,160390.84375,686093.0,125339.2890625,0.106201171875,0.992431640625,0.150634765625,-1.5258787870407104,0.4272460639476776,0.9765624403953552,86.66667175292969,208817.0,1.0
18:21:45.454000,128075.0546875,141526.421875,155568.328125,153571.328125,162370.046875,160403.1875,686178.0,125354.671875,0.10546875,0.990966796875,0.146728515625,-1.3732908964157104,0.4272460639476776,1.0070799589157104,86.66667175292969,208818.0,1.0
18:21:45.458915,128050.109375,141487.625,155559.75,153571.515625,162363.609375,160388.796875,685982.5625,125364.7734375,0.102294921875,0.99365234375,0.1494140625,-1.3732908964157104,0.3356933295726776,0.9155272841453552,86.66667175292969,208819.0,1.0
18:21:45.461515,128055.203125,141507.296875,155554.015625,153563.5625,162352.171875,160381.375,685968.8125,125352.1640625,0.100830078125,0.99609375,0.15087890625,-1.3122557401657104,0.3051757514476776,0.9155272841453552,86.66667175292969,208820.0,1.0
18:21:45.466576,128085.875,141543.765625,155565.375,153571.328125,162357.625,160389.234375,686346.4375,125351.5390625,0.101318359375,0.99755859375,0.15380859375,-1.2817381620407104,0.3967284858226776,0.8544921278953552,86.66667175292969,208821.0,1.0
18:21:45.468919,128091.5078125,141538.671875,155580.484375,153584.390625,162377.109375,160407.21875,686612.0,125367.453125,0.1005859375,0.9931640625,0.15234375,-1.2817381620407104,0.4272460639476776,0.9155272841453552,86.66667175292969,208822.0,1.0
18:21:45.473912,128057.0859375,141492.453125,155565.375,153574.546875,162364.515625,160393.09375,686382.9375,125365.1328125,0.100830078125,0.989501953125,0.151611328125,-1.2512205839157104,0.3967284858226776,0.9460448622703552,86.66667175292969,208823.0,1.0
18:21:45.476454,128060.8359375,141508.28125,155561.265625,153567.9375,162356.90625,160388.96875,686140.5,125354.1328125,0.10302734375,0.9912109375,0.1513671875,-1.1901854276657104,0.4272460639476776,0.9765624403953552,86.66667175292969,208824.0,1.0
18:21:45.478894,128079.2578125,141538.40625,155558.140625,153563.640625,162348.328125,160385.484375,686626.3125,125342.328125,0.107177734375,0.996337890625,0.146728515625,-1.0681151151657104,0.4272460639476776,1.0681151151657104,86.66667175292969,208825.0,1.0
18:21:45.510140,128079.796875,141533.125,155563.046875,153565.796875,162359.59375,160394.96875,687033.5625,125348.234375,0.110595703125,0.99853515625,0.14990234375,-0.9460448622703552,0.4577636420726776,1.2207030057907104,86.66667175292969,208826.0,1.0
18:21:45.512681,128047.9609375,141486.375,155553.484375,153565.96875,162355.390625,160385.578125,686918.6875,125357.3515625,0.112548828125,0.999755859375,0.14794921875,-1.0375975370407104,0.5187987685203552,1.3122557401657104,86.66667175292969,208827.0,1.0
18:21:45.515150,128057.3515625,141502.203125,155563.140625,153573.65625,162363.4375,160391.296875,686664.0625,125363.6953125,0.11181640625,0.997802734375,0.149169921875,-0.9765624403953552,0.7324218153953552,1.5563963651657104,86.66667175292969,208828.0,1.0
18:21:45.517691,128086.234375,141539.203125,155569.125,153580.453125,162359.59375,160388.53125,687092.5625,125362.0859375,0.10986328125,0.996826171875,0.148681640625,-0.9460448622703552,0.8239745497703552,1.5869139432907104,86.66667175292969,208829.0,1.0
18:21:45.520132,128088.8203125,141537.15625,155569.21875,153576.609375,162361.375,160388.96875,687624.6875,125356.7265625,0.108154296875,0.99658203125,0.147705078125,-0.8544921278953552,0.7934569716453552,1.5869139432907104,86.66667175292969,208830.0,1.0
18:21:45.522789,128049.0390625,141481.8125,155551.25,153564.0,162349.40625,160374.125,687607.9375,125352.609375,0.10595703125,0.998046875,0.151123046875,-0.8239745497703552,0.8544921278953552,1.5563963651657104,86.66667175292969,208831.0,1.0
18:21:45.525291,128040.3671875,141478.328125,155548.296875,153561.953125,162348.15625,160370.640625,687345.0625,125353.4140625,0.1025390625,0.998779296875,0.150390625,-0.7629393935203552,0.9460448622703552,1.2207030057907104,86.66667175292969,208832.0,1.0
18:21:45.527740,128062.0,141511.140625,155547.9375,153563.28125,162339.296875,160365.375,687669.625,125346.625,0.10302734375,1.0029296875,0.1513671875,-0.8239745497703552,1.0070799589157104,0.9460448622703552,86.66667175292969,208833.0,1.0
18:21:45.530368,128074.515625,141524.453125,155552.140625,153563.015625,162342.609375,160371.453125,688306.0625,125346.4453125,0.10205078125,1.00341796875,0.152587890625,-0.8850097060203552,0.8544921278953552,0.7324218153953552,86.66667175292969,208834.0,1.0
18:21:45.532779,128049.5703125,141483.953125,155545.703125,153559.0,162341.71875,160367.875,688413.625,125347.78125,0.1015625,1.003173828125,0.1533203125,-0.9155272841453552,0.8850097060203552,0.4272460639476776,86.66667175292969,208835.0,1.0
18:21:45.535303,128034.2890625,141470.015625,155540.96875,153553.984375,162339.03125,160363.40625,688172.3125,125342.6015625,0.102294921875,1.0,0.1552734375,-0.9765624403953552,0.8850097060203552,0.1525878757238388,86.66667175292969,208836.0,1.0
18:21:45.537812,128052.96875,141502.203125,155543.296875,153556.765625,162334.375,160359.828125,688371.4375,125337.7734375,0.10302734375,0.999267578125,0.155029296875,-1.0375975370407104,0.8544921278953552,-0.0915527269244194,86.66667175292969,208837.0,1.0
18:21:45.540219,128082.7421875,141533.75,155559.75,153568.203125,162347.96875,160375.5625,689077.3125,125345.1015625,0.102294921875,0.998046875,0.153076171875,-1.0070799589157104,0.8850097060203552,-0.2136230319738388,86.66667175292969,208838.0,1.0
18:21:45.542788,128065.3125,141502.203125,155557.59375,153566.140625,162349.671875,160377.625,689289.3125,125348.5,0.10546875,1.000244140625,0.1494140625,-1.1291502714157104,0.8239745497703552,-0.2746581733226776,86.66667175292969,208839.0,1.0
18:21:45.545792,128046.890625,141482.4375,155552.765625,153563.734375,162346.625,160375.109375,689080.4375,125351.1796875,0.107177734375,1.00146484375,0.15087890625,-1.0986326932907104,0.8239745497703552,-0.2441406100988388,86.66667175292969,208840.0,1.0
18:21:45.545815,128054.7578125,141505.59375,155546.328125,153553.625,162335.625,160367.96875,689138.0,125335.625,0.109130859375,1.0,0.151611328125,-1.1901854276657104,0.8544921278953552,-0.2136230319738388,86.66667175292969,208841.0,1.0
18:21:45.548381,128068.6171875,141524.640625,155544.09375,153548.71875,162330.796875,160364.921875,689839.3125,125325.609375,0.10791015625,1.0,0.154296875,-1.1596678495407104,0.8850097060203552,-0.1831054538488388,86.66667175292969,208842.0,1.0
18:21:45.548492,128049.9296875,141490.21875,155538.640625,153545.671875,162331.609375,160359.5625,690148.5,125329.6328125,0.108154296875,0.9990234375,0.15478515625,-1.1901854276657104,0.8544921278953552,-0.0915527269244194,86.66667175292969,208843.0,1.0
18:21:45.550833,128021.140625,141452.390625,155527.828125,153539.328125,162324.453125,160348.203125,689986.5625,125329.2734375,0.1083984375,1.000732421875,0.154052734375,-1.3427733182907104,0.9460448622703552,-0.03051757626235485,86.66667175292969,208844.0,1.0
18:21:45.550851,128028.828125,141478.234375,155527.296875,153535.03125,162321.140625,160349.546875,689924.0,125322.3046875,0.103759765625,0.99951171875,0.156005859375,-1.4343260526657104,0.9155272841453552,0.03051757626235485,86.66667175292969,208845.0,1.0
18:21:45.553367,128053.953125,141509.890625,155529.609375,153537.359375,162317.03125,160349.359375,690597.9375,125318.28125,0.10302734375,0.99951171875,0.156494140625,-1.4953612089157104,0.8850097060203552,0.1220703050494194,86.66667175292969,208846.0,1.0
18:21:45.553390,128055.03125,141500.765625,155537.578125,153545.859375,162328.5625,160358.484375,691011.125,125330.171875,0.101806640625,0.996337890625,0.154296875,-1.4953612089157104,0.8850097060203552,0.1220703050494194,86.66667175292969,208847.0,1.0
18:21:45.555263,128033.484375,141466.703125,155537.578125,153551.03125,162332.0625,160358.21875,690898.625,125343.9375,0.101318359375,0.997802734375,0.156005859375,-1.5563963651657104,0.8239745497703552,0.1831054538488388,86.66667175292969,208848.0,1.0
18:21:45.560784,128036.25,141482.171875,155536.3125,153544.15625,162328.125,160356.96875,690718.125,125331.0625,0.09765625,0.996337890625,0.15576171875,-1.5563963651657104,0.7934569716453552,0.3051757514476776,86.66667175292969,208849.0,1.0
18:21:45.560808,128053.6875,141515.0625,155533.375,153538.515625,162320.25,160355.53125,691282.875,125317.3828125,0.094482421875,0.995361328125,0.1552734375,-1.6479490995407104,0.6713866591453552,0.3051757514476776,86.66667175292969,208850.0,1.0
18:21:45.562768,128063.96875,141517.21875,155548.125,153549.609375,162339.296875,160371.53125,691779.1875,125329.7265625,0.095458984375,0.99609375,0.15380859375,-1.6784666776657104,0.5493163466453552,0.3967284858226776,86.66667175292969,208851.0,1.0
18:21:45.570759,128040.9921875,141477.703125,155547.40625,153553.8125,162344.125,160370.203125,691706.875,125342.78125,0.0947265625,0.99609375,0.154296875,-1.6784666776657104,0.5187987685203552,0.4577636420726776,86.66667175292969,208852.0,1.0
18:21:45.570796,128047.875,141493.171875,155555.546875,153561.671875,162352.34375,160376.359375,691448.8125,125348.765625,0.09326171875,0.996826171875,0.156005859375,-1.7089842557907104,0.4577636420726776,0.5187987685203552,86.66667175292969,208853.0,1.0
18:21:45.588297,128057.7109375,141512.921875,155542.75,153549.703125,162333.125,160358.9375,691877.375,125330.078125,0.09326171875,0.995849609375,0.158203125,-1.6784666776657104,0.3051757514476776,0.5187987685203552,86.66667175292969,208854.0,1.0
18:21:45.588322,128056.1015625,141508.453125,155536.765625,153537.71875,162329.8125,160359.5625,692433.0,125318.28125,0.092529296875,0.994873046875,0.157470703125,-1.7395018339157104,0.1220703050494194,0.4882812201976776,86.66667175292969,208855.0,1.0
18:21:45.590187,128021.6796875,141457.140625,155522.1875,153528.59375,162319.09375,160346.859375,692418.1875,125318.7265625,0.092529296875,0.99462890625,0.15625,-1.8005369901657104,-0.03051757626235485,0.4272460639476776,86.66667175292969,208856.0,1.0
18:21:45.593224,128016.5859375,141459.28125,155525.140625,153531.09375,162322.40625,160349.09375,692102.9375,125324.2734375,0.091064453125,0.993408203125,0.16064453125,-1.8005369901657104,-0.0610351525247097,0.2746581733226776,86.66667175292969,208857.0,1.0
18:21:45.593243,128045.28125,141498.890625,155532.921875,153539.234375,162322.3125,160351.328125,692368.5,125322.3046875,0.091064453125,0.994384765625,0.160888671875,-1.8005369901657104,-0.4272460639476776,0.3051757514476776,86.66667175292969,208858.0,1.0
18:21:45.597705,128053.2421875,141505.859375,155532.296875,153534.765625,162320.875,160353.484375,692963.1875,125315.8671875,0.094482421875,0.994384765625,0.158447265625,-1.7089842557907104,-0.5798339247703552,0.2136230319738388,86.66667175292969,208859.0,1.0
18:21:45.603881,128024.453125,141456.15625,155521.65625,153530.390625,162316.5,160342.484375,692999.875,125322.125,0.095703125,0.99462890625,0.16015625,-1.6479490995407104,-0.6408690810203552,0.2746581733226776,86.66667175292969,208860.0,1.0
18:21:45.606960,128009.25,141441.125,155517.71875,153529.3125,162316.234375,160339.625,692658.625,125325.4296875,0.096435546875,0.994384765625,0.15966796875,-1.6784666776657104,-0.7934569716453552,0.2441406100988388,86.66667175292969,208861.0,1.0
18:21:45.606984,128036.0703125,141484.40625,155525.859375,153538.515625,162316.859375,160345.875,692740.4375,125322.484375,0.0966796875,0.99365234375,0.158203125,-1.5869139432907104,-0.8544921278953552,0.2136230319738388,86.66667175292969,208862.0,1.0
18:21:45.608929,128040.71875,141491.734375,155516.203125,153526.625,162304.515625,160337.296875,693328.875,125306.921875,0.098876953125,0.993408203125,0.15771484375,-1.5869139432907104,-0.9155272841453552,0.1831054538488388,86.66667175292969,208863.0,1.0
18:21:45.615236,128019.9765625,141457.046875,155511.90625,153522.703125,162307.296875,160335.15625,693416.5,125310.6796875,0.098876953125,0.992919921875,0.15576171875,-1.4953612089157104,-1.0070799589157104,0.2746581733226776,86.66667175292969,208864.0,1.0
18:21:45.625722,128002.453125,141438.359375,155510.125,153523.859375,162307.203125,160334.53125,693061.4375,125315.8671875,0.1005859375,0.991943359375,0.157470703125,-1.4953612089157104,-1.0375975370407104,0.4577636420726776,86.66667175292969,208865.0,1.0
18:21:45.625753,128016.40625,141466.515625,155509.40625,153520.453125,162299.953125,160330.328125,692939.3125,125307.015625,0.101806640625,0.991455078125,0.15380859375,-1.4038084745407104,-1.0070799589157104,0.5798339247703552,86.66667175292969,208866.0,1.0
18:21:45.628299,128032.2265625,141487.796875,155508.421875,153518.046875,162295.484375,160326.5625,693489.5625,125299.0546875,0.105712890625,0.9931640625,0.15673828125,-1.3122557401657104,-0.9765624403953552,0.7019042372703552,86.66667175292969,208867.0,1.0
18:21:45.628329,128021.9453125,141468.3125,155511.546875,153519.65625,162303.71875,160335.421875,693633.6875,125304.6875,0.1064453125,0.99365234375,0.155517578125,-1.2512205839157104,-0.9460448622703552,0.7934569716453552,86.66667175292969,208868.0,1.0
18:21:45.630273,127990.4765625,141427.71875,155498.140625,153512.328125,162293.609375,160321.296875,693275.0625,125304.2421875,0.107666015625,0.99267578125,0.1552734375,-1.1901854276657104,-1.0070799589157104,0.8544921278953552,86.66667175292969,208869.0,1.0
18:21:45.645154,127997.5390625,141449.984375,155496.625,153506.328125,162288.0625,160317.71875,692973.25,125294.2265625,0.1064453125,0.993408203125,0.152099609375,-1.0681151151657104,-0.8850097060203552,0.9155272841453552,86.66667175292969,208870.0,1.0
18:21:45.648211,128026.8671875,141486.640625,155504.765625,153513.21875,162290.921875,160322.8125,693424.75,125294.5,0.108154296875,0.990966796875,0.15283203125,-0.9155272841453552,-0.7934569716453552,1.0375975370407104,86.66667175292969,208871.0,1.0
18:21:45.648234,128038.484375,141487.359375,155524.078125,153529.140625,162315.34375,160343.734375,693625.8125,125314.078125,0.108154296875,0.9921875,0.151123046875,-0.7934569716453552,-0.6713866591453552,1.1596678495407104,86.66667175292969,208872.0,1.0
18:21:45.650208,128008.890625,141444.625,155515.484375,153527.96875,162312.203125,160335.421875,693276.375,125319.890625,0.109130859375,0.9951171875,0.1513671875,-0.6408690810203552,-0.5187987685203552,1.2512205839157104,86.66667175292969,208873.0,1.0
18:21:45.652686,128016.40625,141463.921875,155520.140625,153528.859375,162315.609375,160338.1875,692834.4375,125319.7109375,0.10986328125,0.994140625,0.151611328125,-0.5798339247703552,-0.3662109076976776,1.2512205839157104,86.66667175292969,208874.0,1.0
18:21:45.662775,128047.15625,141502.375,155528.265625,153537.09375,162315.609375,160339.796875,693163.9375,125319.796875,0.10791015625,0.99462890625,0.148681640625,-0.5798339247703552,-0.2441406100988388,1.3122557401657104,86.66667175292969,208875.0,1.0
18:21:45.669517,128055.03125,141506.21875,155536.3125,153542.90625,162326.78125,160354.46875,693425.25,125323.1953125,0.10791015625,0.993896484375,0.147705078125,-0.3662109076976776,0.0,1.2512205839157104,86.66667175292969,208876.0,1.0
18:21:45.669551,128024.0,141460.53125,155526.484375,153537.359375,162322.484375,160347.84375,693105.0,125326.59375,0.109619140625,0.9951171875,0.14599609375,-0.2441406100988388,0.1525878757238388,1.1901854276657104,86.66667175292969,208877.0,1.0
18:21:45.671420,128018.7265625,141466.796875,155524.78125,153531.71875,162319.625,160347.046875,692559.0,125319.265625,0.111572265625,0.99560546875,0.147216796875,-0.1831054538488388,0.2136230319738388,1.0681151151657104,86.66667175292969,208878.0,1.0
18:21:45.673923,128039.109375,141498.4375,155523.171875,153531.015625,162310.6875,160341.140625,692707.875,125308.8046875,0.109619140625,0.99462890625,0.14794921875,-0.1831054538488388,0.2746581733226776,1.0375975370407104,86.66667175292969,208879.0,1.0
18:21:45.683895,128045.7265625,141501.390625,155525.765625,153530.390625,162315.609375,160346.59375,693004.0625,125308.8046875,0.110107421875,0.995849609375,0.150390625,-0.1831054538488388,0.4577636420726776,1.0375975370407104,86.66667175292969,208880.0,1.0
18:21:45.686966,128019.8046875,141459.375,155520.765625,153532.0,162316.40625,160343.46875,692713.125,125318.640625,0.1103515625,0.99462890625,0.1474609375,-0.1525878757238388,0.5187987685203552,0.9460448622703552,86.66667175292969,208881.0,1.0
18:21:45.687005,128009.609375,141452.390625,155517.90625,153528.59375,162315.34375,160338.09375,692103.3125,125317.8359375,0.111328125,0.997802734375,0.146240234375,-0.0610351525247097,0.5493163466453552,0.9155272841453552,86.66667175292969,208882.0,1.0
18:21:45.688905,128030.265625,141486.28125,155518.625,153528.59375,162308.359375,160333.265625,692053.5,125309.25,0.114013671875,0.996826171875,0.145751953125,-0.03051757626235485,0.7019042372703552,0.7934569716453552,86.66667175292969,208883.0,1.0
18:21:45.697749,128043.9375,141499.15625,155522.46875,153528.5,162309.96875,160336.484375,692370.375,125303.8828125,0.115478515625,0.999755859375,0.148681640625,0.0,1.0070799589157104,0.8239745497703552,86.66667175292969,208884.0,1.0
18:21:45.722118,128018.28125,141455.078125,155515.3125,153526.546875,162308.0,160330.765625,692132.6875,125311.84375,0.11279296875,0.999755859375,0.14697265625,0.0,1.0375975370407104,0.8544921278953552,86.66667175292969,208885.0,1.0
18:21:45.722169,127993.78125,141431.390625,155501.625,153513.390625,162295.390625,160318.078125,691493.25,125302.8125,0.10986328125,1.000244140625,0.14697265625,-0.0610351525247097,1.2207030057907104,0.7934569716453552,86.66667175292969,208886.0,1.0
18:21:45.724615,128018.8203125,141474.125,155507.625,153516.53125,162294.0625,160324.421875,691257.125,125298.7890625,0.107666015625,1.0029296875,0.146484375,-0.2136230319738388,1.3427733182907104,0.7629393935203552,86.66667175292969,208887.0,1.0
18:21:45.724639,128028.1171875,141485.828125,155503.78125,153508.75,162287.625,160320.21875,691560.5,125288.59375,0.107421875,1.003173828125,0.145263671875,-0.2746581733226776,1.5258787870407104,0.7324218153953552,86.66667175292969,208888.0,1.0
18:21:45.731929,128012.109375,141455.609375,155504.9375,153509.28125,162294.859375,160325.765625,691373.75,125297.09375,0.10546875,1.001708984375,0.14697265625,-0.3356933295726776,1.6174315214157104,0.7324218153953552,86.66667175292969,208889.0,1.0
18:21:45.731963,127986.71875,141426.5625,155495.375,153505.625,162288.6875,160318.25,690734.9375,125296.8203125,0.10693359375,1.004150390625,0.14794921875,-0.4272460639476776,1.7089842557907104,0.7324218153953552,86.66667175292969,208890.0,1.0
18:21:45.731992,128007.640625,141462.765625,155502.171875,153510.359375,162289.859375,160321.375,690317.75,125293.6953125,0.10791015625,1.002685546875,0.14208984375,-0.4272460639476776,1.7395018339157104,0.7324218153953552,86.66667175292969,208891.0,1.0
18:21:45.732003,128027.578125,141485.921875,155504.046875,153510.890625,162287.359375,160317.71875,690579.1875,125289.8515625,0.107666015625,1.001953125,0.145263671875,-0.4882812201976776,1.6479490995407104,0.7019042372703552,86.66667175292969,208892.0,1.0
18:21:45.733902,128027.671875,141471.703125,155516.03125,153521.890625,162304.34375,160330.6875,690467.125,125304.15625,0.1064453125,1.0,0.14453125,-0.5187987685203552,1.7089842557907104,0.7324218153953552,86.66667175292969,208893.0,1.0
18:21:45.737022,128009.875,141444.890625,155517.453125,153528.234375,162307.828125,160330.765625,689851.375,125315.421875,0.103515625,0.998291015625,0.14453125,-0.6103515028953552,1.7089842557907104,0.7019042372703552,86.66667175292969,208894.0,1.0
18:21:45.737059,128022.9296875,141473.40625,155523.09375,153532.171875,162309.796875,160334.796875,689266.0625,125315.7734375,0.100341796875,0.999755859375,0.1435546875,-0.6408690810203552,1.7700194120407104,0.7629393935203552,86.66667175292969,208895.0,1.0
18:21:45.738913,128038.6640625,141496.46875,155519.25,153528.59375,162301.203125,160326.296875,689431.625,125305.8515625,0.09765625,0.9990234375,0.1455078125,-0.7019042372703552,1.7395018339157104,0.5798339247703552,86.66667175292969,208896.0,1.0
18:21:45.752730,128036.4296875,141485.828125,155524.609375,153531.1875,162311.3125,160335.6875,689383.625,125310.9453125,0.095703125,1.001953125,0.14697265625,-0.7629393935203552,1.6784666776657104,0.5798339247703552,86.66667175292969,208897.0,1.0
18:21:45.808438,128002.7265625,141438.453125,155511.90625,153523.859375,162301.484375,160321.734375,688801.0625,125309.0703125,0.0966796875,1.001953125,0.148681640625,-0.8544921278953552,1.6784666776657104,0.6103515028953552,86.66667175292969,208898.0,1.0
18:21:45.808516,128009.6953125,141458.296875,155515.484375,153527.34375,162303.796875,160325.9375,688119.875,125313.1875,0.09619140625,1.002685546875,0.1484375,-0.9460448622703552,1.5563963651657104,0.4882812201976776,86.66667175292969,208899.0,1.0
18:21:45.814636,128039.828125,141499.6875,155525.328125,153536.546875,162309.53125,160332.734375,688188.0625,125318.1015625,0.09619140625,1.001220703125,0.146240234375,-1.0681151151657104,1.4343260526657104,0.6408690810203552,86.66667175292969,208900.0,1.0
18:21:45.814700,128037.7734375,141491.203125,155526.03125,153531.90625,162314.4375,160334.796875,688218.8125,125312.203125,0.095458984375,1.00146484375,0.146728515625,-1.2512205839157104,1.2817381620407104,0.5798339247703552,86.66667175292969,208901.0,1.0
18:21:45.823987,128006.9296875,141446.765625,155517.09375,153526.546875,162309.703125,160327.546875,687691.3125,125313.1875,0.095703125,0.998291015625,0.148193359375,-1.2817381620407104,1.1901854276657104,0.4882812201976776,86.66667175292969,208902.0,1.0
18:21:45.824059,127999.5078125,141448.28125,155510.125,153517.953125,162299.875,160322.453125,686935.5625,125303.703125,0.097412109375,0.998291015625,0.1474609375,-1.3122557401657104,1.0375975370407104,0.6713866591453552,86.66667175292969,208903.0,1.0
18:21:45.824087,128014.34375,141473.3125,155499.75,153512.140625,162280.015625,160307.078125,686844.375,125287.703125,0.094970703125,0.998046875,0.14697265625,-1.3427733182907104,0.8544921278953552,0.6408690810203552,86.66667175292969,208904.0,1.0
18:21:45.826527,128022.75,141479.578125,155502.875,153509.734375,162284.9375,160314.859375,686951.6875,125282.6953125,0.09375,0.99755859375,0.1484375,-1.2817381620407104,0.7934569716453552,0.7019042372703552,86.66667175292969,208905.0,1.0
18:21:45.828971,127990.03125,141431.203125,155494.03125,153505.703125,162284.046875,160308.15625,686501.125,125290.65625,0.09375,1.000244140625,0.150390625,-1.3732908964157104,0.7019042372703552,0.8239745497703552,86.66667175292969,208906.0,1.0
18:21:45.839566,127985.109375,141428.796875,155497.25,153511.25,162287.171875,160309.84375,685971.3125,125299.234375,0.094970703125,1.00048828125,0.1494140625,-1.4343260526657104,0.5798339247703552,0.8239745497703552,86.66667175292969,208907.0,1.0
18:21:45.841595,128013.1875,141469.46875,155501.625,153517.328125,162281.625,160310.203125,685876.125,125294.046875,0.095703125,0.998779296875,0.1494140625,-1.5563963651657104,0.4272460639476776,0.7629393935203552,86.66667175292969,208908.0,1.0
18:21:45.847861,128031.78125,141489.5,155509.59375,153519.203125,162289.765625,160321.296875,685907.9375,125292.0859375,0.095947265625,1.0,0.1474609375,-1.6479490995407104,0.3356933295726776,0.9765624403953552,86.66667175292969,208909.0,1.0
18:21:45.850158,128004.6015625,141444.796875,155503.59375,153515.625,162292.0,160314.234375,685808.5,125297.71875,0.095947265625,1.000732421875,0.1494140625,-1.7089842557907104,0.0610351525247097,1.0375975370407104,86.66667175292969,208910.0,1.0
18:21:45.854106,127976.6171875,141417.265625,155487.859375,153504.015625,162277.703125,160300.1875,685363.1875,125290.7421875,0.096435546875,0.9990234375,0.151123046875,-1.8920897245407104,-0.03051757626235485,1.0681151151657104,86.66667175292969,208911.0,1.0
18:21:45.855281,127997.625,141453.734375,155490.71875,153505.0,162273.40625,160299.65625,685190.8125,125284.3984375,0.09814453125,0.999267578125,0.1484375,-1.9531248807907104,0.0,1.0070799589157104,86.66667175292969,208912.0,1.0
18:21:45.857811,128017.03125,141476.890625,155495.1875,153505.890625,162275.28125,160303.40625,685517.1875,125281.890625,0.09814453125,0.997802734375,0.14794921875,-1.9836424589157104,-0.0915527269244194,1.0986326932907104,86.66667175292969,208913.0,1.0
18:21:45.860227,127997.0,141443.71875,155492.953125,153503.203125,162278.859375,160305.015625,685425.5625,125287.6171875,0.098876953125,0.9990234375,0.150390625,-1.9531248807907104,-0.2441406100988388,1.1291502714157104,86.66667175292969,208914.0,1.0
18:21:45.862820,127968.8359375,141412.96875,155482.59375,153494.71875,162272.328125,160298.578125,685113.375,125283.234375,0.099609375,0.99951171875,0.14892578125,-2.044677495956421,-0.3662109076976776,1.1291502714157104,86.66667175292969,208915.0,1.0
18:21:45.865253,127975.7265625,141433.265625,155474.359375,153485.765625,162258.390625,160288.75,685035.9375,125267.9453125,0.09912109375,0.99658203125,0.150634765625,-2.105712652206421,-0.4882812201976776,1.0070799589157104,86.66667175292969,208916.0,1.0
18:21:45.867659,128007.734375,141467.5,155484.828125,153496.140625,162263.75,160296.265625,685225.5,125270.625,0.1005859375,0.997802734375,0.149169921875,-2.288818120956421,-0.4577636420726776,0.9460448622703552,86.66667175292969,208917.0,1.0
18:21:45.873890,127994.859375,141441.671875,155484.375,153494.0,162269.828125,160297.15625,685207.125,125270.625,0.1005859375,0.99755859375,0.150390625,-2.319335699081421,-0.5187987685203552,0.9460448622703552,86.66667175292969,208918.0,1.0
18:21:45.876379,127961.328125,141399.203125,155471.328125,153486.75,162262.40625,160284.640625,685049.0625,125271.0703125,0.1015625,0.995361328125,0.15283203125,-2.410888433456421,-0.5187987685203552,0.9460448622703552,86.66667175292969,208919.0,1.0
18:21:45.878880,127970.984375,141423.421875,155474.265625,153488.09375,162262.59375,160284.71875,684870.6875,125267.9453125,0.103515625,0.99658203125,0.150390625,-2.441406011581421,-0.5798339247703552,0.8850097060203552,86.66667175292969,208920.0,1.0
18:21:45.881406,128002.1015625,141464.734375,155483.921875,153495.96875,162266.34375,160293.84375,685092.5625,125267.765625,0.10498046875,0.9970703125,0.15185546875,-2.532958745956421,-0.5798339247703552,0.8850097060203552,86.66667175292969,208921.0,1.0
18:21:45.883890,128009.0703125,141463.65625,155497.78125,153504.28125,162284.484375,160311.453125,685153.75,125279.5703125,0.10791015625,0.998291015625,0.151123046875,-2.471923589706421,-0.5493163466453552,0.8850097060203552,86.66667175292969,208922.0,1.0
18:21:45.886980,127967.5859375,141409.125,155478.65625,153488.359375,162269.734375,160292.953125,685085.8125,125273.84375,0.107177734375,0.99755859375,0.150146484375,-2.441406011581421,-0.4272460639476776,0.8544921278953552,86.66667175292969,208923.0,1.0
18:21:45.887009,127965.53125,141420.203125,155474.09375,153482.90625,162263.75,160290.984375,684845.0625,125266.421875,0.108154296875,0.998291015625,0.152099609375,-2.319335699081421,-0.4577636420726776,0.7019042372703552,86.66667175292969,208924.0,1.0
18:21:45.889042,127992.3515625,141459.09375,155476.6875,153485.953125,162258.921875,160292.59375,685061.0,125265.2578125,0.107666015625,0.99755859375,0.151611328125,-2.441406011581421,-0.4272460639476776,0.6713866591453552,86.66667175292969,208925.0,1.0
18:21:45.892003,127992.890625,141453.734375,155477.671875,153484.515625,162264.828125,160295.1875,685171.5,125267.3203125,0.1064453125,0.9970703125,0.153076171875,-2.441406011581421,-0.4272460639476776,0.6713866591453552,86.66667175292969,208926.0,1.0
18:21:45.892025,127948.8125,141392.84375,155455.765625,153469.765625,162248.015625,160271.40625,685122.1875,125263.296875,0.108642578125,0.997314453125,0.1552734375,-2.410888433456421,-0.4272460639476776,0.6408690810203552,86.66667175292969,208927.0,1.0
18:21:45.894701,127940.5859375,141391.59375,155451.390625,153464.9375,162241.671875,160265.234375,684919.0625,125254.625,0.10791015625,0.99462890625,0.153076171875,-2.441406011581421,-0.3051757514476776,0.7019042372703552,86.66667175292969,208928.0,1.0
18:21:45.894727,127955.3359375,141417.796875,155443.25,153455.109375,162225.484375,160254.5,685054.5625,125233.078125,0.1083984375,0.99267578125,0.153564453125,-2.380370855331421,-0.2441406100988388,0.6713866591453552,86.66667175292969,208929.0,1.0
18:21:45.897012,127974.828125,141436.296875,155456.84375,153463.6875,162240.953125,160272.828125,685248.75,125241.75,0.107421875,0.99267578125,0.153076171875,-2.319335699081421,-0.1525878757238388,0.6408690810203552,86.66667175292969,208930.0,1.0
18:21:45.897036,127963.8359375,141412.703125,155466.5,153478.171875,162254.625,160286.609375,685152.375,125263.0234375,0.109130859375,0.992919921875,0.152587890625,-2.136230230331421,-0.0610351525247097,0.5798339247703552,86.66667175292969,208931.0,1.0
18:21:45.898905,127959.8984375,141412.875,155469.265625,153482.90625,162258.46875,160290.71875,685027.8125,125268.4765625,0.1083984375,0.991943359375,0.155029296875,-2.105712652206421,0.03051757626235485,0.5493163466453552,86.66667175292969,208932.0,1.0
18:21:45.904659,127971.8828125,141435.046875,155463.8125,153476.65625,162246.21875,160275.25,685108.0,125253.90625,0.109375,0.993408203125,0.1513671875,-2.105712652206421,0.0610351525247097,0.5187987685203552,86.66667175292969,208933.0,1.0
18:21:45.904681,127986.453125,141450.34375,155469.53125,153476.734375,162253.375,160281.59375,685369.0,125251.40625,0.108154296875,0.99462890625,0.152587890625,-2.044677495956421,0.1525878757238388,0.4882812201976776,86.66667175292969,208934.0,1.0
18:21:45.906574,127969.2890625,141417.796875,155471.5,153481.84375,162261.609375,160285.53125,685308.1875,125266.6015625,0.1083984375,0.99267578125,0.15380859375,-2.075195074081421,0.3051757514476776,0.3662109076976776,86.66667175292969,208935.0,1.0
18:21:45.908992,127945.328125,141393.125,155460.328125,153471.28125,162252.03125,160274.625,685116.6875,125258.0234375,0.109375,0.992919921875,0.154052734375,-1.9836424589157104,0.2441406100988388,0.4272460639476776,86.66667175292969,208936.0,1.0
18:21:45.912002,127972.59375,141435.5,155468.375,153477.640625,162253.203125,160279.984375,685189.75,125258.1953125,0.108154296875,0.99560546875,0.155029296875,-1.8310545682907104,0.3051757514476776,0.3662109076976776,86.66667175292969,208937.0,1.0
18:21:45.912024,128010.5,141476.796875,155490.28125,153498.5625,162272.421875,160303.234375,685533.25,125275.453125,0.109619140625,0.996337890625,0.155517578125,-1.8005369901657104,0.2746581733226776,0.4577636420726776,86.66667175292969,208938.0,1.0
18:21:45.922015,127992.9765625,141443.640625,155488.578125,153496.671875,162276.0,160303.046875,685594.75,125279.8359375,0.10595703125,0.998779296875,0.154296875,-1.8005369901657104,0.3356933295726776,0.4577636420726776,86.66667175292969,208939.0,1.0
18:21:45.922041,127964.546875,141406.796875,155477.84375,153491.046875,162267.234375,160289.828125,685297.625,125277.15625,0.105224609375,0.995849609375,0.154296875,-1.8005369901657104,0.3662109076976776,0.4577636420726776,86.66667175292969,208940.0,1.0
18:21:45.928908,127990.921875,141448.8125,155493.5,153502.765625,162278.5,160302.515625,685212.3125,125282.875,0.1025390625,0.996337890625,0.153076171875,-1.8005369901657104,0.3356933295726776,0.4577636420726776,86.66667175292969,208941.0,1.0
18:21:45.931468,128007.734375,141471.890625,155489.375,153498.109375,162269.296875,160298.046875,685661.25,125272.0546875,0.10009765625,0.99755859375,0.15576171875,-1.8005369901657104,0.3356933295726776,0.3662109076976776,86.66667175292969,208942.0,1.0
18:21:45.933939,128002.546875,141455.078125,155491.890625,153498.015625,162275.453125,160305.375,685886.4375,125274.6484375,0.1015625,0.998291015625,0.1552734375,-1.8005369901657104,0.3051757514476776,0.2746581733226776,86.66667175292969,208943.0,1.0
18:21:45.936399,127974.3828125,141416.453125,155483.125,153496.40625,162271.96875,160297.15625,685627.625,125280.015625,0.1015625,0.996337890625,0.155517578125,-1.8005369901657104,0.3051757514476776,0.1525878757238388,86.66667175292969,208944.0,1.0
18:21:45.938877,127984.578125,141440.859375,155488.84375,153499.546875,162274.65625,160299.03125,685395.1875,125280.4609375,0.101318359375,0.996337890625,0.15234375,-1.7700194120407104,0.3051757514476776,0.2136230319738388,86.66667175292969,208945.0,1.0
18:21:45.943233,127995.390625,141458.75,155477.671875,153490.953125,162257.671875,160283.828125,685705.75,125264.3671875,0.101318359375,0.997314453125,0.152587890625,-1.7395018339157104,0.2136230319738388,0.2136230319738388,86.66667175292969,208946.0,1.0
18:21:45.943260,127992.4453125,141449.4375,155480.0,153491.046875,162264.375,160292.6875,685802.4375,125267.9453125,0.10107421875,0.995361328125,0.153564453125,-1.6479490995407104,0.2136230319738388,0.2136230319738388,86.66667175292969,208947.0,1.0
18:21:45.957891,127959.71875,141406.890625,155468.375,153483.984375,162257.40625,160286.25,685811.4375,125270.625,0.101318359375,0.993408203125,0.153564453125,-1.6479490995407104,0.2441406100988388,0.1831054538488388,86.66667175292969,208948.0,1.0
18:21:45.960832,127965.4453125,141416.90625,155473.28125,153488.0,162259.71875,160282.484375,685592.4375,125273.7578125,0.100830078125,0.994384765625,0.156005859375,-1.6479490995407104,0.0610351525247097,0.2441406100988388,86.66667175292969,208949.0,1.0
18:21:45.960856,127994.140625,141456.953125,155480.265625,153492.125,162259.453125,160285.34375,685830.3125,125270.625,0.100341796875,0.99462890625,0.154541015625,-1.5869139432907104,0.03051757626235485,0.2441406100988388,86.66667175292969,208950.0,1.0
18:21:45.970165,128008.8046875,141467.140625,155493.859375,153497.390625,162276.171875,160302.875,685989.625,125276.2578125,0.10009765625,0.994873046875,0.15380859375,-1.4953612089157104,0.03051757626235485,0.3967284858226776,86.66667175292969,208951.0,1.0
18:21:45.975198,127973.0390625,141411.71875,155477.21875,153489.703125,162265.171875,160286.25,685862.6875,125278.765625,0.1015625,0.994384765625,0.153076171875,-1.4648436307907104,0.03051757626235485,0.4272460639476776,86.66667175292969,208952.0,1.0
18:21:45.977759,127962.9375,141407.15625,155468.8125,153481.03125,162255.703125,160277.125,685770.6875,125267.5859375,0.102294921875,0.994140625,0.153076171875,-1.4038084745407104,0.0,0.4272460639476776,86.66667175292969,208953.0,1.0
18:21:45.980193,127984.3046875,141440.6875,155469.796875,153484.34375,162248.015625,160271.21875,685930.75,125260.96875,0.101806640625,0.99462890625,0.15087890625,-1.2817381620407104,-0.03051757626235485,0.4272460639476776,86.66667175292969,208954.0,1.0
18:21:45.986478,127997.71875,141452.9375,155479.09375,153490.6875,162258.5625,160280.609375,686204.5,125266.6953125,0.102294921875,0.99609375,0.1533203125,-1.2207030057907104,-0.0915527269244194,0.4577636420726776,86.66667175292969,208955.0,1.0
18:21:45.988950,127972.59375,141412.15625,155474.0,153490.859375,162259.28125,160277.21875,686109.4375,125275.1875,0.102294921875,0.99365234375,0.15087890625,-1.1596678495407104,-0.0915527269244194,0.3662109076976776,86.66667175292969,208956.0,1.0
18:21:45.991437,127962.4921875,141407.78125,155470.78125,153487.015625,162255.609375,160277.75,685912.8125,125272.953125,0.102294921875,0.9931640625,0.150146484375,-1.1291502714157104,-0.0915527269244194,0.4882812201976776,86.66667175292969,208957.0,1.0
18:21:45.994015,127988.6015625,141449.890625,155476.59375,153490.59375,162253.46875,160282.046875,686026.1875,125267.40625,0.1025390625,0.994384765625,0.153076171875,-1.0681151151657104,-0.1220703050494194,0.4272460639476776,86.66667175292969,208958.0,1.0
18:21:45.997014,128013.9921875,141475.734375,155492.421875,153503.828125,162269.734375,160298.578125,686448.0625,125277.6875,0.104248046875,0.995361328125,0.152099609375,-1.0070799589157104,-0.1220703050494194,0.3356933295726776,86.66667175292969,208959.0,1.0
18:21:45.997061,127987.96875,141436.390625,155486.15625,153500.703125,162271.703125,160296.078125,686463.6875,125282.9609375,0.102783203125,0.99560546875,0.15185546875,-0.9765624403953552,-0.0610351525247097,0.4272460639476776,86.66667175292969,208960.0,1.0
18:21:46.007852,127961.5078125,141410.640625,155472.65625,153487.015625,162260.53125,160284.640625,686088.5,125274.0234375,0.1005859375,0.99560546875,0.150390625,-1.0375975370407104,-0.03051757626235485,0.4882812201976776,86.66667175292969,208961.0,1.0
18:21:46.010871,127995.75,141460.0,155488.671875,153499.546875,162268.3125,160298.5,686065.3125,125274.5625,0.100341796875,0.99658203125,0.154541015625,-1.0681151151657104,-0.1220703050494194,0.4882812201976776,86.66667175292969,208962.0,1.0
18:21:46.010935,128022.21875,141488.421875,155499.125,153509.015625,162276.265625,160306.625,686631.6875,125279.03125,0.103271484375,0.9970703125,0.154052734375,-1.0986326932907104,-0.0915527269244194,0.4882812201976776,86.66667175292969,208963.0,1.0
18:21:46.017898,128008.984375,141462.859375,155502.96875,153512.140625,162287.265625,160313.515625,686780.8125,125292.171875,0.103271484375,0.997314453125,0.153076171875,-1.1291502714157104,-0.0915527269244194,0.4272460639476776,86.66667175292969,208964.0,1.0
18:21:46.022152,127982.1640625,141429.6875,155494.203125,153507.859375,162281.453125,160304.125,686474.75,125293.9609375,0.10400390625,0.99755859375,0.154052734375,-1.0070799589157104,-0.0915527269244194,0.5187987685203552,86.66667175292969,208965.0,1.0
18:21:46.022219,128001.0234375,141459.09375,155498.671875,153514.109375,162280.46875,160303.140625,686333.875,125292.3515625,0.10400390625,0.99560546875,0.154541015625,-1.0681151151657104,-0.1220703050494194,0.6103515028953552,86.66667175292969,208966.0,1.0
18:21:46.029657,128031.6953125,141497.546875,155510.65625,153521.796875,162287.625,160313.515625,686902.3125,125294.046875,0.102783203125,0.998046875,0.15380859375,-1.1291502714157104,-0.0610351525247097,0.5187987685203552,86.66667175292969,208967.0,1.0
18:21:46.029727,128036.0703125,141490.578125,155527.296875,153536.375,162311.21875,160333.90625,687188.75,125313.1875,0.103515625,0.996826171875,0.14990234375,-1.1901854276657104,0.0,0.5187987685203552,86.66667175292969,208968.0,1.0
18:21:46.031626,127992.7109375,141433.703125,155504.9375,153520.1875,162294.59375,160310.46875,686959.8125,125306.8359375,0.102783203125,0.997314453125,0.15283203125,-1.2207030057907104,-0.03051757626235485,0.4882812201976776,86.66667175292969,208969.0,1.0
18:21:46.039052,127997.8984375,141450.515625,155503.59375,153516.609375,162290.578125,160307.53125,686734.9375,125301.5625,0.103515625,0.998291015625,0.154052734375,-1.2207030057907104,0.0610351525247097,0.5493163466453552,86.66667175292969,208970.0,1.0
18:21:46.046123,127997.71875,141461.25,155480.796875,153491.140625,162261.421875,160283.5625,687228.8125,125267.2265625,0.1015625,0.999267578125,0.157958984375,-1.2207030057907104,0.0,0.5493163466453552,86.66667175292969,208971.0,1.0
18:21:46.046159,127999.328125,141457.578125,155488.125,153493.546875,162273.140625,160296.078125,687611.3125,125272.859375,0.1005859375,0.996826171875,0.155029296875,-1.1596678495407104,-0.0610351525247097,0.5187987685203552,86.66667175292969,208972.0,1.0
18:21:46.051662,127981.625,141426.734375,155490.453125,153503.109375,162278.234375,160298.3125,687468.25,125290.7421875,0.10107421875,0.997314453125,0.153076171875,-1.2207030057907104,0.0610351525247097,0.4882812201976776,86.66667175292969,208973.0,1.0
18:21:46.058278,127986.359375,141442.203125,155494.203125,153504.015625,162278.140625,160300.734375,687178.5625,125288.953125,0.103271484375,0.998779296875,0.153564453125,-1.1901854276657104,0.0610351525247097,0.5493163466453552,86.66667175292969,208974.0,1.0
18:21:46.058314,128001.1171875,141470.015625,155487.6875,153496.859375,162263.75,160288.921875,687589.125,125275.09375,0.103515625,0.998291015625,0.15234375,-1.2207030057907104,0.1525878757238388,0.5187987685203552,86.66667175292969,208975.0,1.0
18:21:46.087576,128011.3046875,141476.09375,155496.796875,153500.703125,162275.28125,160301.890625,688071.75,125280.015625,0.10595703125,0.9990234375,0.15087890625,-1.2207030057907104,0.0915527269244194,0.4882812201976776,86.66667175292969,208976.0,1.0
18:21:46.087598,127989.671875,141435.859375,155495.640625,153505.53125,162278.234375,160300.109375,688008.0,125290.1171875,0.106201171875,0.99853515625,0.1494140625,-1.2512205839157104,0.0610351525247097,0.5187987685203552,86.66667175292969,208977.0,1.0
18:21:46.089096,127982.4296875,141436.484375,155492.953125,153501.328125,162275.375,160299.03125,687685.8125,125283.9453125,0.104736328125,0.99853515625,0.150390625,-1.2207030057907104,0.03051757626235485,0.5798339247703552,86.66667175292969,208978.0,1.0
18:21:46.100818,128009.25,141477.25,155499.75,153507.046875,162275.28125,160302.96875,687990.125,125282.25,0.103759765625,0.99609375,0.150390625,-1.2207030057907104,0.1831054538488388,0.6103515028953552,86.66667175292969,208979.0,1.0
18:21:46.100835,128006.4765625,141473.3125,155490.359375,153494.625,162265.796875,160294.375,688545.0,125270.265625,0.10498046875,0.99560546875,0.15087890625,-1.2207030057907104,0.2441406100988388,0.7934569716453552,86.66667175292969,208980.0,1.0
18:21:46.100841,127979.296875,141427.1875,155481.25,153490.859375,162259.453125,160285.078125,688559.75,125270.890625,0.105224609375,0.995361328125,0.15283203125,-1.1291502714157104,0.2441406100988388,0.7629393935203552,86.66667175292969,208981.0,1.0
18:21:46.100846,127981.0,141429.859375,155490.0,153503.828125,162270.359375,160295.1875,688245.1875,125286.0078125,0.1064453125,0.9931640625,0.153564453125,-1.0070799589157104,0.1831054538488388,0.7934569716453552,86.66667175292969,208982.0,1.0
18:21:46.103364,128002.9921875,141466.4375,155495.453125,153506.328125,162269.921875,160296.796875,688389.75,125282.6953125,0.10791015625,0.99169921875,0.15087890625,-0.9155272841453552,0.2136230319738388,0.8544921278953552,86.66667175292969,208983.0,1.0
18:21:46.103404,128017.8359375,141481.0,155498.765625,153506.0625,162272.421875,160298.578125,689003.75,125278.671875,0.10498046875,0.990966796875,0.149658203125,-0.9155272841453552,0.3051757514476776,0.8239745497703552,86.66667175292969,208984.0,1.0
18:21:46.105873,127996.015625,141443.546875,155491.703125,153501.953125,162269.296875,160295.625,689104.25,125281.4453125,0.103271484375,0.990966796875,0.150390625,-0.7934569716453552,0.4272460639476776,0.7629393935203552,86.66667175292969,208985.0,1.0
18:21:46.105904,127972.328125,141419.40625,155481.421875,153492.828125,162260.625,160287.578125,688784.625,125276.2578125,0.1015625,0.991943359375,0.15283203125,-0.7629393935203552,0.3967284858226776,0.8544921278953552,86.66667175292969,208986.0,1.0
18:21:46.107838,128002.28125,141465.890625,155497.0625,153506.0625,162272.953125,160303.5,688778.3125,125284.5703125,0.10009765625,0.990966796875,0.150634765625,-0.6408690810203552,0.4272460639476776,0.7934569716453552,86.66667175292969,208987.0,1.0
18:21:46.149569,128018.546875,141484.140625,155498.5,153506.421875,162272.15625,160301.171875,689389.4375,125281.625,0.10009765625,0.989990234375,0.15283203125,-0.6103515028953552,0.3662109076976776,0.6713866591453552,86.66667175292969,208988.0,1.0
18:21:46.149591,128014.796875,141469.03125,155510.578125,153516.796875,162290.75,160317.09375,689577.625,125296.109375,0.10009765625,0.989990234375,0.149169921875,-0.4882812201976776,0.3662109076976776,0.6103515028953552,86.66667175292969,208989.0,1.0
18:21:46.180766,127983.6796875,141431.5625,155496.09375,153506.25,162280.640625,160305.46875,689278.5,125291.90625,0.100830078125,0.990966796875,0.151611328125,-0.5187987685203552,0.3051757514476776,0.6103515028953552,86.66667175292969,208990.0,1.0
18:21:46.180812,127984.6640625,141444.265625,155485.8125,153494.265625,162267.0625,160289.90625,689106.4375,125275.1875,0.107177734375,0.993408203125,0.149658203125,-0.3967284858226776,0.3662109076976776,0.7324218153953552,86.66667175292969,208991.0,1.0
18:21:46.206436,127998.96875,141463.75,155481.25,153490.859375,162258.109375,160281.15625,689668.625,125267.5859375,0.11181640625,0.998046875,0.146728515625,-0.3662109076976776,0.4577636420726776,0.8850097060203552,86.66667175292969,208992.0,1.0
18:21:46.209520,127997.8046875,141455.53125,155489.296875,153496.40625,162269.734375,160293.578125,689947.0,125279.03125,0.11376953125,1.0009765625,0.147705078125,-0.3967284858226776,0.6103515028953552,1.0375975370407104,86.66667175292969,208993.0,1.0
18:21:46.209545,127968.484375,141417.171875,155478.46875,153491.3125,162260.34375,160285.625,689701.0,125281.53125,0.11474609375,1.00048828125,0.146484375,-0.3356933295726776,0.6713866591453552,1.2817381620407104,86.66667175292969,208994.0,1.0
18:21:46.214520,127983.4140625,141445.515625,155486.25,153494.171875,162263.21875,160294.5625,689425.375,125275.8125,0.11279296875,0.999267578125,0.144287109375,-0.3051757514476776,0.7324218153953552,1.4343260526657104,86.66667175292969,208995.0,1.0
18:21:46.214543,128001.296875,141471.625,155482.234375,153489.25,162253.5625,160286.25,689891.25,125264.3671875,0.107666015625,0.997802734375,0.1474609375,-0.0915527269244194,0.8239745497703552,1.4343260526657104,86.66667175292969,208996.0,1.0
18:21:46.220132,128004.515625,141469.828125,155491.53125,153495.34375,162269.109375,160299.828125,690238.4375,125275.546875,0.10546875,1.00048828125,0.146728515625,-0.0915527269244194,0.9765624403953552,1.3122557401657104,86.66667175292969,208997.0,1.0
18:21:46.230313,127976.078125,141429.234375,155484.734375,153495.15625,162268.578125,160295.359375,690031.75,125283.3203125,0.102294921875,1.004150390625,0.148193359375,-0.1525878757238388,0.8850097060203552,1.1596678495407104,86.66667175292969,208998.0,1.0
18:21:46.232704,127966.421875,141427.890625,155474.984375,153486.390625,162258.921875,160284.640625,689643.8125,125273.3046875,0.100830078125,1.00439453125,0.149169921875,-0.1525878757238388,0.9765624403953552,1.0681151151657104,86.66667175292969,208999.0,1.0
18:21:46.235129,127982.875,141457.046875,155469.4375,153479.6875,162246.046875,160276.953125,689968.8125,125256.6796875,0.100830078125,1.005615234375,0.14990234375,-0.1525878757238388,0.9765624403953552,0.8850097060203552,86.66667175292969,209000.0,1.0
18:21:46.242687,127990.65625,141464.90625,155476.859375,153479.515625,162255.96875,160290.53125,690381.25,125257.3046875,0.099609375,1.006103515625,0.150146484375,-0.3356933295726776,0.9765624403953552,0.7629393935203552,86.66667175292969,209001.0,1.0
18:21:46.245221,127963.7421875,141419.765625,155471.40625,153480.140625,162255.875,160284.28125,690218.25,125265.9765625,0.0986328125,1.00537109375,0.15283203125,-0.4272460639476776,0.8239745497703552,0.5798339247703552,86.66667175292969,209002.0,1.0
18:21:46.250173,127955.609375,141414.578125,155466.671875,153476.109375,162250.25,160277.21875,689769.0625,125261.953125,0.099365234375,1.005126953125,0.15234375,-0.5493163466453552,0.7934569716453552,0.4272460639476776,86.66667175292969,209003.0,1.0
18:21:46.256391,127981.8046875,141453.734375,155473.015625,153480.671875,162248.453125,160278.203125,689928.1875,125258.46875,0.100341796875,1.002197265625,0.150634765625,-0.7629393935203552,0.7934569716453552,0.1831054538488388,86.66667175292969,209004.0,1.0
18:21:46.258917,128003.0859375,141476.53125,155488.21875,153490.421875,162266.609375,160297.328125,690386.9375,125267.8515625,0.10107421875,1.001953125,0.150634765625,-0.9460448622703552,0.7934569716453552,0.0915527269244194,86.66667175292969,209005.0,1.0
18:21:46.276467,127977.421875,141431.75,155482.859375,153490.328125,162268.9375,160291.4375,690274.5,125275.09375,0.1044921875,0.9990234375,0.151123046875,-1.0681151151657104,0.7324218153953552,0.2136230319738388,86.66667175292969,209006.0,1.0
18:21:46.279073,127975.90625,141431.109375,155490.359375,153499.09375,162276.359375,160299.203125,689802.75,125285.734375,0.107666015625,0.99951171875,0.15185546875,-1.1291502714157104,0.7019042372703552,0.1831054538488388,86.66667175292969,209007.0,1.0
18:21:46.281469,127999.234375,141468.40625,155492.875,153500.34375,162270.1875,160298.765625,689767.625,125276.4375,0.108154296875,0.999267578125,0.15185546875,-1.0681151151657104,0.7934569716453552,0.3051757514476776,86.66667175292969,209008.0,1.0
18:21:46.284008,128002.8125,141475.90625,155484.640625,153486.671875,162261.421875,160292.234375,690218.9375,125263.1171875,0.109375,0.996826171875,0.15283203125,-1.1291502714157104,0.9460448622703552,0.3967284858226776,86.66667175292969,209009.0,1.0
18:21:46.286453,127987.796875,141448.734375,155486.875,153489.796875,162269.46875,160299.484375,690164.75,125272.328125,0.10888671875,0.997314453125,0.15185546875,-1.1901854276657104,0.9460448622703552,0.4577636420726776,86.66667175292969,209010.0,1.0
18:21:46.289060,127968.125,141421.109375,155482.859375,153488.625,162267.6875,160287.5,689675.25,125278.671875,0.107421875,0.997802734375,0.151611328125,-1.1901854276657104,0.8850097060203552,0.6103515028953552,86.66667175292969,209011.0,1.0
18:21:46.296481,127989.1328125,141457.578125,155490.28125,153491.671875,162267.328125,160290.71875,689459.1875,125273.3046875,0.103515625,0.998779296875,0.154052734375,-1.4038084745407104,0.9765624403953552,0.6408690810203552,86.66667175292969,209012.0,1.0
18:21:46.299061,127998.609375,141470.28125,155481.78125,153480.578125,162252.578125,160280.609375,689881.8125,125252.921875,0.102294921875,0.996826171875,0.14990234375,-1.4648436307907104,0.9460448622703552,0.6713866591453552,86.66667175292969,209013.0,1.0
18:21:46.306545,127986.8984375,141442.734375,155481.421875,153485.234375,162258.296875,160283.109375,689884.75,125260.8828125,0.10205078125,0.9970703125,0.1484375,-1.5258787870407104,1.0375975370407104,0.6408690810203552,86.66667175292969,209014.0,1.0
18:21:46.309026,127962.1328125,141411.984375,155474.359375,153483.625,162257.9375,160280.171875,689404.875,125268.65625,0.099853515625,0.9970703125,0.15185546875,-1.5258787870407104,1.0070799589157104,0.6408690810203552,86.66667175292969,209015.0,1.0
18:21:46.311472,127970.4453125,141438.09375,155473.734375,153480.40625,162255.171875,160282.671875,689017.4375,125263.7421875,0.10009765625,0.997802734375,0.1533203125,-1.5869139432907104,0.8544921278953552,0.6408690810203552,86.66667175292969,209016.0,1.0
18:21:46.314012,127984.484375,141459.8125,155467.828125,153474.5,162245.421875,160274.890625,689371.375,125250.8671875,0.0986328125,0.99658203125,0.1533203125,-1.7089842557907104,0.9460448622703552,0.6408690810203552,86.66667175292969,209017.0,1.0
18:21:46.316482,127978.671875,141446.140625,155470.78125,153474.0625,162253.203125,160282.40625,689445.3125,125251.8515625,0.09716796875,0.996826171875,0.155517578125,-1.7395018339157104,0.6713866591453552,0.5798339247703552,86.66667175292969,209018.0,1.0
18:21:46.318957,127944.25,141398.03125,155456.21875,153465.828125,162240.5,160266.3125,688983.6875,125251.046875,0.0966796875,0.9970703125,0.156494140625,-1.7700194120407104,0.6103515028953552,0.6103515028953552,86.66667175292969,209019.0,1.0
18:21:46.321451,127955.609375,141422.796875,155462.109375,153469.40625,162242.640625,160271.671875,688471.125,125255.9609375,0.096435546875,0.9970703125,0.156005859375,-1.7089842557907104,0.5798339247703552,0.6713866591453552,86.66667175292969,209020.0,1.0
18:21:46.335828,127982.0703125,141460.0,155466.3125,153473.609375,162238.625,160273.015625,688712.4375,125249.4375,0.095703125,0.996826171875,0.157958984375,-1.7089842557907104,0.4272460639476776,0.5187987685203552,86.66667175292969,209021.0,1.0
18:21:46.335858,127987.96875,141460.359375,155475.796875,153480.234375,162251.953125,160285.625,688855.875,125258.109375,0.098876953125,0.9970703125,0.155029296875,-1.7700194120407104,0.3051757514476776,0.5187987685203552,86.66667175292969,209022.0,1.0
18:21:46.337671,127958.734375,141415.734375,155468.8125,153481.296875,162252.21875,160279.984375,688438.75,125270.625,0.097412109375,0.995849609375,0.15771484375,-1.8310545682907104,0.2441406100988388,0.5187987685203552,86.66667175292969,209023.0,1.0
18:21:46.343902,127956.6796875,141421.1875,155469.171875,153479.0625,162253.90625,160277.03125,687833.75,125270.4453125,0.096923828125,0.99658203125,0.15478515625,-1.8005369901657104,0.0915527269244194,0.4882812201976776,86.66667175292969,209024.0,1.0
18:21:46.346380,127983.59375,141459.1875,155472.296875,153482.828125,162250.25,160275.34375,687925.125,125263.1171875,0.095458984375,0.99658203125,0.15283203125,-1.8310545682907104,0.0610351525247097,0.3356933295726776,86.66667175292969,209025.0,1.0
18:21:46.362007,127984.6640625,141454.8125,155469.171875,153476.296875,162247.5625,160274.078125,688120.1875,125254.171875,0.09619140625,0.994140625,0.154541015625,-1.8310545682907104,-0.0610351525247097,0.3967284858226776,86.66667175292969,209026.0,1.0
18:21:46.362029,127949.53125,141400.1875,155457.46875,153472.265625,162240.953125,160259.78125,687746.125,125257.3046875,0.095947265625,0.992919921875,0.1552734375,-1.7089842557907104,-0.1831054538488388,0.3051757514476776,86.66667175292969,209027.0,1.0
18:21:46.364462,127944.96875,141399.640625,155458.796875,153474.78125,162241.671875,160259.875,687085.25,125262.3125,0.09765625,0.9921875,0.154541015625,-1.6784666776657104,-0.2746581733226776,0.2746581733226776,86.66667175292969,209028.0,1.0
18:21:46.364484,127970.8046875,141436.65625,155461.3125,153476.109375,162234.328125,160258.078125,687006.0,125251.9375,0.09765625,0.99169921875,0.154052734375,-1.6784666776657104,-0.3051757514476776,0.2746581733226776,86.66667175292969,209029.0,1.0
18:21:46.368945,127988.5078125,141456.234375,155469.171875,153478.703125,162242.015625,160270.59375,687255.3125,125250.328125,0.100830078125,0.991455078125,0.156005859375,-1.5869139432907104,-0.3051757514476776,0.1831054538488388,86.66667175292969,209030.0,1.0
18:21:46.373912,127971.25,141426.5625,155473.28125,153482.546875,162251.859375,160277.9375,686953.8125,125261.5078125,0.1005859375,0.99072265625,0.15478515625,-1.5563963651657104,-0.4577636420726776,0.2441406100988388,86.66667175292969,209031.0,1.0
18:21:46.376996,127960.703125,141418.953125,155474.453125,153483.265625,162254.984375,160280.703125,686281.4375,125266.421875,0.102783203125,0.990966796875,0.15283203125,-1.3732908964157104,-0.4882812201976776,0.3662109076976776,86.66667175292969,209032.0,1.0
18:21:46.377020,127979.8359375,141452.484375,155474.1875,153482.46875,162248.453125,160278.28125,686029.875,125259.1796875,0.104736328125,0.990478515625,0.15283203125,-1.3122557401657104,-0.4272460639476776,0.4272460639476776,86.66667175292969,209033.0,1.0
18:21:46.379489,128004.78125,141479.3125,155484.203125,153490.421875,162258.109375,160289.109375,686303.5625,125263.828125,0.106201171875,0.9892578125,0.150146484375,-1.2207030057907104,-0.4882812201976776,0.6103515028953552,86.66667175292969,209034.0,1.0
18:21:46.379512,127981.890625,141442.109375,155480.265625,153488.1875,162260.984375,160287.140625,686099.6875,125270.8046875,0.1064453125,0.9921875,0.1484375,-1.0070799589157104,-0.5187987685203552,0.6103515028953552,86.66667175292969,209035.0,1.0
18:21:46.381382,127945.328125,141399.28125,155459.609375,153471.46875,162242.5625,160263.09375,685731.6875,125260.4296875,0.106201171875,0.990234375,0.150146484375,-0.8850097060203552,-0.3967284858226776,0.8544921278953552,86.66667175292969,209036.0,1.0
18:21:46.383917,127968.390625,141433.890625,155467.296875,153478.078125,162243.8125,160268.28125,685588.5625,125256.9453125,0.105712890625,0.9931640625,0.151123046875,-0.7934569716453552,-0.3662109076976776,0.8239745497703552,86.66667175292969,209037.0,1.0
18:21:46.386360,127985.6484375,141456.0625,155466.3125,153476.109375,162240.0625,160266.578125,685765.6875,125249.703125,0.105224609375,0.994873046875,0.14990234375,-0.6713866591453552,-0.3662109076976776,0.8239745497703552,86.66667175292969,209038.0,1.0
18:21:46.389486,127962.671875,141421.640625,155456.65625,153467.796875,162236.65625,160262.375,685825.5625,125246.9296875,0.103759765625,0.9951171875,0.15087890625,-0.6408690810203552,-0.3356933295726776,0.9155272841453552,86.66667175292969,209039.0,1.0
18:21:46.389513,127928.6953125,141379.53125,155442.171875,153458.40625,162224.953125,160246.734375,685464.3125,125247.203125,0.104248046875,0.9990234375,0.153076171875,-0.6713866591453552,-0.2746581733226776,0.8239745497703552,86.66667175292969,209040.0,1.0
18:21:46.396321,127948.8125,141414.21875,155453.53125,153467.703125,162232.1875,160253.96875,685140.125,125256.3203125,0.105224609375,1.000244140625,0.150390625,-0.5187987685203552,-0.2136230319738388,0.7629393935203552,86.66667175292969,209041.0,1.0
18:21:46.396348,127969.5546875,141441.671875,155453.34375,153464.578125,162226.734375,160250.65625,685481.875,125240.3203125,0.1044921875,0.999755859375,0.1474609375,-0.3967284858226776,-0.1831054538488388,0.7629393935203552,86.66667175292969,209042.0,1.0
18:21:46.396357,127965.171875,141425.578125,155456.5625,153466.453125,162235.9375,160256.46875,685608.75,125247.5625,0.103515625,1.001953125,0.146728515625,-0.4272460639476776,-0.2136230319738388,0.8850097060203552,86.66667175292969,209043.0,1.0
18:21:46.398890,127936.3828125,141381.5,155447.359375,153461.984375,162228.875,160244.765625,685306.0625,125248.0078125,0.104736328125,1.00146484375,0.148681640625,-0.4577636420726776,-0.2136230319738388,0.7629393935203552,86.66667175292969,209044.0,1.0
18:21:46.401366,127948.8125,141407.25,155456.21875,153468.6875,162234.421875,160253.34375,685165.5,125249.6171875,0.10498046875,0.99951171875,0.146728515625,-0.5493163466453552,-0.1831054538488388,0.6103515028953552,86.66667175292969,209045.0,1.0
18:21:46.403953,127959.0078125,141427.8125,155443.15625,153455.734375,162214.75,160237.515625,685327.125,125227.3515625,0.10595703125,0.99853515625,0.146484375,-0.5187987685203552,-0.0610351525247097,0.6408690810203552,86.66667175292969,209046.0,1.0
18:21:46.408878,127952.921875,141413.859375,155438.859375,153447.59375,162213.859375,160233.765625,685469.75,125220.0234375,0.10791015625,1.0,0.14501953125,-0.5187987685203552,-0.0915527269244194,0.7629393935203552,86.66667175292969,209047.0,1.0
18:21:46.412043,127918.234375,141361.921875,155426.265625,153440.984375,162206.890625,160219.71875,685225.5,125221.9921875,0.109619140625,1.00048828125,0.14453125,-0.4272460639476776,-0.1220703050494194,0.6103515028953552,86.66667175292969,209048.0,1.0
18:21:46.412084,127926.3671875,141382.21875,155436.625,153447.0625,162214.75,160232.25,685060.0625,125225.921875,0.10986328125,0.99951171875,0.144775390625,-0.4577636420726776,0.03051757626235485,0.6408690810203552,86.66667175292969,209049.0,1.0
18:21:46.416408,127957.5703125,141423.703125,155446.203125,153457.34375,162217.703125,160235.109375,685202.9375,125230.2109375,0.107177734375,0.99951171875,0.143310546875,-0.3967284858226776,0.1220703050494194,0.7324218153953552,86.66667175292969,209050.0,1.0
18:21:46.421396,127965.9765625,141429.6875,155452.015625,153458.328125,162227.8125,160244.9375,685399.375,125231.46875,0.107421875,0.9990234375,0.143798828125,-0.4577636420726776,0.1220703050494194,0.7324218153953552,86.66667175292969,209051.0,1.0
18:21:46.423965,127943.984375,141393.390625,155450.578125,153460.921875,162232.28125,160246.640625,685237.5625,125238.9765625,0.10693359375,0.998046875,0.144775390625,-0.5187987685203552,0.2746581733226776,0.6713866591453552,86.66667175292969,209052.0,1.0
18:21:46.426417,127940.5859375,141395.265625,155452.640625,153461.546875,162234.875,160250.21875,685066.9375,125240.046875,0.10595703125,0.995849609375,0.14306640625,-0.5493163466453552,0.3662109076976776,0.6408690810203552,86.66667175292969,209053.0,1.0
18:21:46.431413,127966.0703125,141438.8125,155458.453125,153463.59375,162234.6875,160256.296875,685153.9375,125234.0546875,0.105712890625,0.994873046875,0.143310546875,-0.4577636420726776,0.4272460639476776,0.6408690810203552,86.66667175292969,209054.0,1.0
18:21:46.436418,127961.953125,141439.609375,155449.6875,153446.609375,162227.453125,160250.390625,685375.5,125218.3203125,0.106689453125,0.997802734375,0.14501953125,-0.4882812201976776,0.4882812201976776,0.6408690810203552,86.66667175292969,209055.0,1.0
18:21:46.439471,127945.0546875,141406.53125,155452.359375,153454.296875,162235.3125,160255.40625,685273.0625,125235.7578125,0.106689453125,0.999267578125,0.1435546875,-0.5187987685203552,0.5493163466453552,0.5187987685203552,86.66667175292969,209056.0,1.0
18:21:46.439512,127927.4453125,141386.765625,155441.8125,153450.90625,162224.3125,160245.921875,685072.125,125234.1484375,0.1064453125,1.000244140625,0.143798828125,-0.5493163466453552,0.6408690810203552,0.5187987685203552,86.66667175292969,209057.0,1.0
18:21:46.450295,127943.8984375,141419.3125,155440.65625,153449.734375,162217.34375,160243.78125,685128.625,125227.171875,0.104248046875,0.9990234375,0.14404296875,-0.5493163466453552,0.6713866591453552,0.4882812201976776,86.66667175292969,209058.0,1.0
18:21:46.450349,127960.6171875,141440.765625,155445.578125,153448.578125,162221.734375,160249.859375,685399.8125,125223.1484375,0.103271484375,0.9970703125,0.14208984375,-0.6408690810203552,0.6713866591453552,0.3356933295726776,86.66667175292969,209059.0,1.0
18:21:46.450370,127937.6328125,141401.609375,155440.46875,153445.984375,162223.421875,160244.046875,685372.375,125226.015625,0.100341796875,0.996826171875,0.142333984375,-0.6408690810203552,0.8239745497703552,0.2136230319738388,86.66667175292969,209060.0,1.0
18:21:46.461394,127910.453125,141370.765625,155429.921875,153439.015625,162215.203125,160234.203125,685154.5,125224.8515625,0.101318359375,0.997802734375,0.146484375,-0.7324218153953552,0.8239745497703552,0.1220703050494194,86.66667175292969,209061.0,1.0
18:21:46.469497,127927.171875,141402.421875,155431.625,153442.046875,162212.34375,160235.90625,685168.0625,125226.9921875,0.101806640625,0.99951171875,0.147705078125,-0.7019042372703552,0.6713866591453552,0.0,86.66667175292969,209062.0,1.0
18:21:46.469552,127946.21875,141428.34375,155432.15625,153440.53125,162208.046875,160236.09375,685456.25,125217.6953125,0.1015625,1.000244140625,0.1455078125,-0.7019042372703552,0.6103515028953552,0.0610351525247097,86.66667175292969,209063.0,1.0
18:21:46.471451,127941.03125,141410.109375,155438.6875,153447.765625,162218.953125,160244.40625,685539.75,125225.03125,0.102783203125,1.000244140625,0.14453125,-0.7934569716453552,0.6103515028953552,0.0915527269244194,86.66667175292969,209064.0,1.0
18:21:46.474491,127920.203125,141379.078125,155436.09375,153451.171875,162219.046875,160241.265625,685297.375,125232.984375,0.102294921875,0.99853515625,0.14404296875,-0.8239745497703552,0.6713866591453552,0.03051757626235485,86.66667175292969,209065.0,1.0
18:21:46.474540,127920.0234375,141390.34375,155425.90625,153440.796875,162204.296875,160228.125,685230.9375,125217.609375,0.1025390625,0.998779296875,0.145751953125,-0.9460448622703552,0.5187987685203552,0.0,86.66667175292969,209066.0,1.0
18:21:46.476826,127932.09375,141409.484375,155416.609375,153432.484375,162189.0,160216.0625,685518.375,125203.2109375,0.102294921875,0.999755859375,0.14697265625,-1.0681151151657104,0.4882812201976776,0.0915527269244194,86.66667175292969,209067.0,1.0
18:21:46.484606,127926.1015625,141393.65625,155418.921875,153430.78125,162195.890625,160221.609375,685727.75,125205.4453125,0.10009765625,0.99951171875,0.146240234375,-1.0681151151657104,0.4272460639476776,0.1220703050494194,86.66667175292969,209068.0,1.0
18:21:46.484646,127905.71875,141360.84375,155418.21875,153436.59375,162198.84375,160220.703125,685465.0625,125217.875,0.099609375,0.9990234375,0.14697265625,-1.1901854276657104,0.5187987685203552,0.0915527269244194,86.66667175292969,209069.0,1.0
18:21:46.486400,127917.25,141384.453125,155426.53125,153444.015625,162203.578125,160226.25,685132.3125,125221.71875,0.098876953125,1.00146484375,0.14404296875,-1.2512205839157104,0.4577636420726776,0.1831054538488388,86.66667175292969,209070.0,1.0
18:21:46.488935,127937.7265625,141412.609375,155424.375,153440.890625,162194.546875,160218.03125,685513.1875,125211.53125,0.0986328125,1.0009765625,0.145263671875,-1.3427733182907104,0.3356933295726776,0.2136230319738388,86.66667175292969,209071.0,1.0
18:21:46.492149,127949.8828125,141418.515625,155439.046875,153448.84375,162213.140625,160235.28125,685893.625,125219.6640625,0.097900390625,0.9990234375,0.145263671875,-1.4343260526657104,0.3662109076976776,0.3356933295726776,86.66667175292969,209072.0,1.0
18:21:46.492166,127923.6875,141375.59375,155434.75,153453.765625,162213.140625,160229.46875,685734.8125,125232.1796875,0.098388671875,1.001220703125,0.146240234375,-1.5563963651657104,0.1831054538488388,0.3051757514476776,86.66667175292969,209073.0,1.0
18:21:46.521489,127925.1171875,141387.21875,155438.0625,153453.9375,162214.3125,160233.40625,685378.1875,125234.234375,0.098876953125,1.00146484375,0.14599609375,-1.6479490995407104,0.2136230319738388,0.3051757514476776,86.66667175292969,209074.0,1.0
18:21:46.538993,127946.578125,141420.65625,155437.078125,153452.25,162205.546875,160229.5625,685599.0,125222.4375,0.098876953125,0.999267578125,0.144775390625,-1.7395018339157104,0.1525878757238388,0.4882812201976776,86.66667175292969,209075.0,1.0
18:21:46.541469,127962.9375,141435.046875,155450.578125,153460.828125,162221.734375,160245.921875,685795.1875,125235.7578125,0.099853515625,1.000732421875,0.142578125,-1.7700194120407104,0.0,0.4272460639476776,86.66667175292969,209076.0,1.0
18:21:46.543941,127932.984375,141390.078125,155441.28125,153456.359375,162218.59375,160239.578125,685847.6875,125236.296875,0.098388671875,1.001953125,0.147216796875,-1.8920897245407104,-0.1220703050494194,0.4577636420726776,86.66667175292969,209077.0,1.0
18:21:46.550153,127921.6328125,141382.5625,155439.3125,153453.5,162217.609375,160236.4375,685572.0,125234.0546875,0.0986328125,0.999755859375,0.147216796875,-1.9836424589157104,-0.1220703050494194,0.4577636420726776,86.66667175292969,209078.0,1.0
18:21:46.555204,127940.140625,141413.6875,155437.25,153451.34375,162208.21875,160228.125,685651.25,125223.8671875,0.099365234375,0.9990234375,0.146728515625,-2.014159917831421,-0.3051757514476776,0.3967284858226776,86.66667175292969,209079.0,1.0
18:21:46.558288,127960.1640625,141435.046875,155448.171875,153458.234375,162219.9375,160239.84375,685867.6875,125229.9453125,0.0986328125,1.0,0.14208984375,-2.136230230331421,-0.3051757514476776,0.4272460639476776,86.66667175292969,209080.0,1.0
18:21:46.558336,127936.3828125,141397.953125,155443.421875,153455.8125,162221.28125,160238.859375,685847.3125,125234.4140625,0.099365234375,0.99951171875,0.1455078125,-2.258300542831421,-0.2441406100988388,0.5187987685203552,86.66667175292969,209081.0,1.0
18:21:46.560187,127915.28125,141376.40625,155432.96875,153449.734375,162212.34375,160229.65625,685723.5,125232.2734375,0.09765625,1.000244140625,0.148193359375,-2.349853277206421,-0.3051757514476776,0.3967284858226776,86.66667175292969,209082.0,1.0
18:21:46.577742,127939.0703125,141410.46875,155436.8125,153456.890625,162208.671875,160227.6875,685731.875,125231.640625,0.098876953125,0.9990234375,0.1494140625,-2.349853277206421,-0.4272460639476776,0.5187987685203552,86.66667175292969,209083.0,1.0
18:21:46.590723,127959.5390625,141434.15625,155442.625,153458.953125,162212.25,160233.578125,686000.625,125228.15625,0.10107421875,0.99853515625,0.1474609375,-2.349853277206421,-0.5187987685203552,0.4577636420726776,86.66667175292969,209084.0,1.0
18:21:46.590745,127940.8515625,141402.953125,155441.375,153457.96875,162219.484375,160236.4375,685986.0625,125234.953125,0.10107421875,0.99755859375,0.149169921875,-2.349853277206421,-0.4882812201976776,0.5493163466453552,86.66667175292969,209085.0,1.0
18:21:46.599242,127910.90625,141368.0,155429.203125,153449.65625,162210.015625,160223.03125,685817.8125,125234.0546875,0.10302734375,0.99853515625,0.1484375,-2.471923589706421,-0.3967284858226776,0.4577636420726776,86.66667175292969,209086.0,1.0
18:21:46.601404,127924.671875,141395.4375,155428.859375,153444.546875,162203.3125,160220.703125,685819.75,125221.6328125,0.104248046875,0.997314453125,0.150146484375,-2.441406011581421,-0.4577636420726776,0.3967284858226776,86.66667175292969,209087.0,1.0
18:21:46.607745,127941.75,141418.953125,155425.1875,153437.046875,162196.15625,160218.5625,686103.375,125210.9921875,0.103515625,0.996337890625,0.151611328125,-2.471923589706421,-0.4882812201976776,0.4882812201976776,86.66667175292969,209088.0,1.0
18:21:46.610290,127932.359375,141399.015625,155426.703125,153441.6875,162201.796875,160225.171875,686197.8125,125216.984375,0.105224609375,0.995849609375,0.151611328125,-2.380370855331421,-0.3662109076976776,0.5187987685203552,86.66667175292969,209089.0,1.0
18:21:46.612729,127911.6171875,141366.828125,155424.46875,153446.4375,162202.0625,160222.046875,685969.625,125227.0859375,0.105712890625,0.9951171875,0.153076171875,-2.532958745956421,-0.4272460639476776,0.3967284858226776,86.66667175292969,209090.0,1.0
18:21:46.615159,127930.3046875,141399.46875,155435.640625,153455.90625,162208.21875,160230.1875,685898.5625,125230.6640625,0.1044921875,0.994873046875,0.150146484375,-2.380370855331421,-0.3051757514476776,0.3967284858226776,86.66667175292969,209091.0,1.0
18:21:46.617728,127956.5,141434.0625,155441.8125,153460.828125,162208.578125,160232.328125,686193.5,125227.9765625,0.10498046875,0.996337890625,0.14794921875,-2.380370855331421,-0.3051757514476776,0.5187987685203552,86.66667175292969,209092.0,1.0
18:21:46.620220,127953.546875,141423.96875,155444.953125,153458.234375,162215.640625,160239.578125,686427.375,125227.796875,0.103759765625,0.998291015625,0.145751953125,-2.319335699081421,-0.3356933295726776,0.4882812201976776,86.66667175292969,209093.0,1.0
18:21:46.622732,127921.3671875,141379.265625,155432.78125,153453.765625,162206.96875,160229.46875,686164.875,125229.6796875,0.1064453125,0.996826171875,0.14794921875,-2.319335699081421,-0.1525878757238388,0.4272460639476776,86.66667175292969,209094.0,1.0
18:21:46.625190,127935.3984375,141403.125,155442.625,153461.0,162214.21875,160238.765625,685858.3125,125232.625,0.106689453125,0.995361328125,0.14990234375,-2.258300542831421,-0.1525878757238388,0.5187987685203552,86.66667175292969,209095.0,1.0
18:21:46.629404,127949.4375,141428.53125,155435.828125,153452.328125,162199.828125,160225.71875,686198.6875,125216.890625,0.108154296875,0.994140625,0.1513671875,-2.197265386581421,-0.03051757626235485,0.4577636420726776,86.66667175292969,209096.0,1.0
18:21:46.629572,127939.515625,141414.3125,155426.796875,153437.765625,162193.5625,160219.8125,686549.75,125204.015625,0.107177734375,0.996337890625,0.15380859375,-2.136230230331421,-0.03051757626235485,0.4882812201976776,86.66667175292969,209097.0,1.0
18:21:46.629583,127910.8125,141370.953125,155420.453125,153436.6875,162194.015625,160215.53125,686380.1875,125212.78125,0.10498046875,0.995849609375,0.14794921875,-2.075195074081421,0.03051757626235485,0.4882812201976776,86.66667175292969,209098.0,1.0
18:21:46.629588,127918.6796875,141388.5625,155433.5,153448.3125,162207.875,160228.390625,685999.125,125226.546875,0.10498046875,0.994384765625,0.14892578125,-2.044677495956421,0.1220703050494194,0.4272460639476776,86.66667175292969,209099.0,1.0
18:21:46.639003,127943.265625,141424.234375,155435.921875,153450.90625,162204.65625,160226.96875,686257.6875,125223.328125,0.105224609375,0.9951171875,0.1494140625,-2.014159917831421,0.2136230319738388,0.3662109076976776,86.66667175292969,209100.0,1.0
18:21:46.642071,127944.96875,141422.265625,155430.734375,153443.921875,162200.625,160224.203125,686712.125,125217.875,0.10400390625,0.9951171875,0.15087890625,-2.044677495956421,0.3051757514476776,0.3051757514476776,86.66667175292969,209101.0,1.0
18:21:46.642097,127917.1640625,141375.328125,155422.328125,153441.96875,162197.140625,160216.234375,686625.125,125224.046875,0.104248046875,0.9931640625,0.15185546875,-2.044677495956421,0.3051757514476776,0.3356933295726776,86.66667175292969,209102.0,1.0
18:21:46.643994,127915.1953125,141377.203125,155429.921875,153450.640625,162205.09375,160221.6875,686240.1875,125231.734375,0.103271484375,0.993896484375,0.151611328125,-1.9836424589157104,0.3051757514476776,0.2746581733226776,86.66667175292969,209103.0,1.0
18:21:46.646385,127941.484375,141419.140625,155436.71875,153455.109375,162205.09375,160227.5,686368.3125,125227.3515625,0.103759765625,0.994873046875,0.15234375,-1.9226073026657104,0.2746581733226776,0.1525878757238388,86.66667175292969,209104.0,1.0
18:21:46.651378,127949.171875,141427.359375,155432.96875,153445.984375,162200.265625,160227.328125,686891.3125,125217.0703125,0.104248046875,0.994873046875,0.149658203125,-1.8005369901657104,0.3051757514476776,0.0610351525247097,86.66667175292969,209105.0,1.0
18:21:46.653878,127932.5390625,141391.421875,155435.109375,153451.34375,162207.328125,160226.25,686907.9375,125231.9140625,0.103759765625,0.996337890625,0.15087890625,-1.8615721464157104,0.2441406100988388,0.03051757626235485,86.66667175292969,209106.0,1.0
18:21:46.660184,127925.65625,141382.03125,155441.28125,153461.1875,162214.3125,160229.734375,686542.625,125244.515625,0.102294921875,0.99658203125,0.1513671875,-1.8615721464157104,0.2441406100988388,0.2136230319738388,86.66667175292969,209107.0,1.0
18:21:46.662675,127932.6328125,141402.6875,155430.015625,153451.078125,162196.421875,160215.4375,686509.375,125226.4609375,0.10107421875,0.99609375,0.15087890625,-1.7395018339157104,0.3356933295726776,0.2136230319738388,86.66667175292969,209108.0,1.0
18:21:46.665209,127944.5234375,141417.34375,155425.015625,153444.015625,162189.09375,160211.5,687056.4375,125215.4609375,0.10009765625,0.996337890625,0.15234375,-1.7700194120407104,0.3051757514476776,0.0915527269244194,86.66667175292969,209109.0,1.0
18:21:46.667717,127928.0703125,141390.53125,155424.5625,153443.296875,162194.8125,160217.046875,687163.1875,125219.125,0.09912109375,0.99658203125,0.15283203125,-1.7700194120407104,0.3662109076976776,0.1525878757238388,86.66667175292969,209110.0,1.0
18:21:46.672770,127906.7890625,141364.234375,155421.4375,153444.375,162194.90625,160214.890625,686827.0,125224.40625,0.09814453125,0.997314453125,0.153076171875,-1.6784666776657104,0.2441406100988388,0.1831054538488388,86.66667175292969,209111.0,1.0
18:21:46.675242,127928.9609375,141400.09375,155430.8125,153451.078125,162198.921875,160221.875,686679.875,125225.03125,0.097412109375,0.997802734375,0.15234375,-1.7395018339157104,0.2136230319738388,0.2136230319738388,86.66667175292969,209112.0,1.0
18:21:46.677829,127951.4921875,141427.71875,155433.59375,153450.640625,162195.984375,160221.96875,687222.125,125219.6640625,0.099365234375,0.996337890625,0.151123046875,-1.6784666776657104,0.0915527269244194,0.1831054538488388,86.66667175292969,209113.0,1.0
18:21:46.680379,127943.625,141407.953125,155437.171875,153452.25,162204.296875,160229.296875,687430.6875,125222.8828125,0.10009765625,0.997802734375,0.14990234375,-1.6174315214157104,0.1220703050494194,0.3051757514476776,86.66667175292969,209114.0,1.0
18:21:46.683892,127915.375,141368.796875,155428.40625,153450.1875,162199.46875,160220.53125,687142.625,125226.3671875,0.1005859375,0.9951171875,0.153564453125,-1.6174315214157104,0.1525878757238388,0.2136230319738388,86.66667175292969,209115.0,1.0
18:21:46.683955,127934.2421875,141402.328125,155437.96875,153457.078125,162203.84375,160230.1875,686882.625,125226.3671875,0.098876953125,0.995849609375,0.153564453125,-1.6479490995407104,0.2136230319738388,0.2746581733226776,86.66667175292969,209116.0,1.0
18:21:46.683987,127959.984375,141439.078125,155442.171875,153459.75,162201.515625,160235.109375,687358.125,125220.3828125,0.09765625,0.9951171875,0.154052734375,-1.5563963651657104,0.0,0.3662109076976776,86.66667175292969,209117.0,1.0
18:21:46.687005,127946.3984375,141416.71875,155437.4375,153451.96875,162203.40625,160230.359375,687647.3125,125216.4453125,0.096923828125,0.992919921875,0.15380859375,-1.4648436307907104,0.03051757626235485,0.2746581733226776,86.66667175292969,209118.0,1.0
18:21:46.687065,127909.5625,141364.59375,155423.046875,153441.0625,162196.25,160213.109375,687413.625,125215.1953125,0.096923828125,0.9921875,0.1513671875,-1.4343260526657104,-0.03051757626235485,0.3967284858226776,86.66667175292969,209119.0,1.0
18:21:46.688981,127914.03125,141381.578125,155427.328125,153440.171875,162200.265625,160218.296875,687060.3125,125214.921875,0.098876953125,0.99365234375,0.1494140625,-1.3122557401657104,-0.0915527269244194,0.4577636420726776,86.66667175292969,209120.0,1.0
18:21:46.691413,127937.28125,141415.109375,155426.703125,153440.796875,162191.78125,160214.1875,687423.375,125210.09375,0.0986328125,0.993896484375,0.150390625,-1.2512205839157104,-0.1525878757238388,0.4272460639476776,86.66667175292969,209121.0,1.0
18:21:46.693935,127939.9609375,141412.515625,155428.5,153440.53125,162197.140625,160219.1875,687804.25,125211.6171875,0.099853515625,0.990478515625,0.15185546875,-1.2512205839157104,-0.1831054538488388,0.4882812201976776,86.66667175292969,209122.0,1.0
18:21:46.697448,127909.1171875,141363.53125,155421.15625,153440.984375,162196.875,160209.796875,687634.625,125224.40625,0.09912109375,0.992431640625,0.153076171875,-1.0986326932907104,-0.2136230319738388,0.5798339247703552,86.66667175292969,209123.0,1.0
18:21:46.697523,127911.3515625,141372.46875,155428.140625,153448.671875,162204.296875,160213.640625,687216.8125,125234.0546875,0.099609375,0.9912109375,0.15234375,-1.0070799589157104,-0.1525878757238388,0.5493163466453552,86.66667175292969,209124.0,1.0
18:21:46.698900,127943.09375,141413.140625,155434.671875,153456.890625,162201.25,160214.1875,687443.875,125229.765625,0.1005859375,0.994140625,0.148193359375,-1.0070799589157104,-0.1831054538488388,0.6103515028953552,86.66667175292969,209125.0,1.0
18:21:46.702191,127968.484375,141438.265625,155450.40625,153466.90625,162217.078125,160235.1875,687910.625,125237.546875,0.101318359375,0.99658203125,0.15234375,-0.9460448622703552,-0.2136230319738388,0.7019042372703552,86.66667175292969,209126.0,1.0
18:21:46.702256,127932.5390625,141386.0625,155437.25,153456.625,162210.28125,160223.921875,687794.75,125232.984375,0.099609375,0.998046875,0.153076171875,-1.0681151151657104,-0.1220703050494194,0.7324218153953552,86.66667175292969,209127.0,1.0
18:21:46.704150,127911.53125,141369.515625,155428.046875,153445.984375,162204.203125,160216.5,687345.9375,125225.4765625,0.099365234375,0.998779296875,0.15234375,-1.0070799589157104,-0.0915527269244194,0.7629393935203552,86.66667175292969,209128.0,1.0
18:21:46.716540,127938.171875,141411.71875,155436.0,153451.265625,162205.453125,160224.203125,687410.5625,125220.3828125,0.101318359375,1.00048828125,0.155029296875,-0.9765624403953552,-0.0915527269244194,0.7934569716453552,86.66667175292969,209129.0,1.0
18:21:46.720310,127952.296875,141427.453125,155438.6875,153451.96875,162207.421875,160227.328125,687901.4375,125218.6796875,0.099609375,1.001220703125,0.15771484375,-0.9155272841453552,-0.0915527269244194,0.9155272841453552,86.66667175292969,209130.0,1.0
18:21:46.720341,127931.2890625,141391.59375,155434.75,153450.640625,162207.328125,160226.15625,687864.0,125224.8515625,0.100830078125,0.99951171875,0.155029296875,-0.9460448622703552,-0.2136230319738388,0.9155272841453552,86.66667175292969,209131.0,1.0
18:21:46.720345,127914.03125,141372.46875,155428.578125,153448.046875,162201.4375,160220.796875,687421.875,125225.296875,0.099853515625,1.00146484375,0.154052734375,-1.0070799589157104,-0.2136230319738388,0.9155272841453552,86.66667175292969,209132.0,1.0
18:21:46.735992,127930.5703125,141404.296875,155428.765625,153446.875,162193.03125,160218.296875,687304.125,125216.0,0.101318359375,1.0009765625,0.15234375,-1.1291502714157104,-0.2136230319738388,0.8850097060203552,86.66667175292969,209133.0,1.0
18:21:46.736041,127939.3359375,141418.234375,155421.4375,153437.40625,162181.84375,160211.328125,687782.0625,125198.4765625,0.100830078125,1.001708984375,0.15185546875,-1.1901854276657104,-0.1831054538488388,0.7934569716453552,86.66667175292969,209134.0,1.0
18:21:46.741807,127930.0390625,141394.453125,155427.59375,153443.75,162195.359375,160219.453125,687819.6875,125210.9921875,0.099365234375,1.00244140625,0.14990234375,-1.2512205839157104,-0.1525878757238388,0.7629393935203552,86.66667175292969,209135.0,1.0
18:21:46.744543,127908.9375,141367.453125,155425.015625,153444.90625,162197.046875,160215.796875,687389.375,125220.5546875,0.10107421875,0.998779296875,0.150634765625,-1.2817381620407104,-0.1220703050494194,0.7934569716453552,86.66667175292969,209136.0,1.0
18:21:46.744596,127930.125,141405.09375,155433.234375,153449.375,162198.921875,160224.28125,687119.6875,125220.5546875,0.100341796875,0.99853515625,0.1513671875,-1.3122557401657104,-0.0915527269244194,0.6713866591453552,86.66667175292969,209137.0,1.0
18:21:46.750287,127939.875,141422.796875,155422.234375,153437.046875,162182.125,160213.640625,687544.625,125196.59375,0.10009765625,0.99853515625,0.150146484375,-1.3427733182907104,-0.1525878757238388,0.6103515028953552,86.66667175292969,209138.0,1.0
18:21:46.752749,127925.296875,141395.53125,155419.28125,153431.671875,162184.171875,160208.28125,687645.5625,125199.7265625,0.1005859375,0.998046875,0.150634765625,-1.3732908964157104,-0.2441406100988388,0.7019042372703552,86.66667175292969,209139.0,1.0
18:21:46.755261,127899.28125,141357.984375,155413.921875,153429.0,162182.5625,160200.5,687251.0,125203.9296875,0.102294921875,0.998779296875,0.15185546875,-1.3732908964157104,-0.2136230319738388,0.7019042372703552,86.66667175292969,209140.0,1.0
18:21:46.757804,127915.8203125,141386.5,155423.3125,153437.21875,162189.265625,160207.125,686856.1875,125207.859375,0.10302734375,0.998779296875,0.151611328125,-1.3732908964157104,-0.1220703050494194,0.7324218153953552,86.66667175292969,209141.0,1.0
18:21:46.793145,127937.6328125,141417.609375,155423.578125,153436.15625,162182.65625,160204.609375,687206.9375,125198.4765625,0.103271484375,0.995849609375,0.152099609375,-1.3122557401657104,-0.1525878757238388,0.7934569716453552,86.66667175292969,209142.0,1.0
18:21:46.795410,127946.3984375,141419.765625,155436.984375,153445.09375,162200.1875,160223.03125,687407.1875,125210.09375,0.1025390625,0.990966796875,0.14892578125,-1.1291502714157104,-0.0915527269244194,0.8239745497703552,86.66667175292969,209143.0,1.0
18:21:46.797931,127913.3203125,141371.296875,155425.359375,153441.328125,162194.90625,160212.9375,687049.0,125217.875,0.103515625,0.990966796875,0.151123046875,-1.0681151151657104,-0.03051757626235485,0.8239745497703552,86.66667175292969,209144.0,1.0
18:21:46.811097,127921.1875,141390.078125,155433.765625,153447.953125,162202.5,160220.703125,686555.5625,125224.40625,0.104248046875,0.9892578125,0.14892578125,-0.9155272841453552,-0.0610351525247097,0.8850097060203552,86.66667175292969,209145.0,1.0
18:21:46.812825,127935.9375,141416.28125,155426.4375,153441.0625,162188.921875,160210.609375,686771.125,125210.09375,0.10400390625,0.989990234375,0.14990234375,-0.7629393935203552,0.0915527269244194,1.0375975370407104,86.66667175292969,209146.0,1.0
18:21:46.815662,127935.3984375,141410.90625,155424.734375,153433.828125,162190.796875,160213.28125,687031.9375,125203.390625,0.103759765625,0.988525390625,0.14892578125,-0.7324218153953552,0.03051757626235485,1.0986326932907104,86.66667175292969,209147.0,1.0
18:21:46.818082,127913.3203125,141372.828125,155424.921875,153439.28125,162197.40625,160214.1875,686742.0625,125217.515625,0.100830078125,0.990234375,0.1494140625,-0.6103515028953552,0.0610351525247097,1.0070799589157104,86.66667175292969,209148.0,1.0
18:21:46.823319,127908.671875,141376.671875,155424.109375,153441.96875,162195.984375,160214.625,686184.0,125220.5546875,0.099365234375,0.990234375,0.150390625,-0.6103515028953552,0.1525878757238388,1.0375975370407104,86.66667175292969,209149.0,1.0
18:21:46.826098,127930.6640625,141410.546875,155421.96875,153442.765625,162184.625,160207.828125,686243.375,125212.78125,0.097900390625,0.991455078125,0.1474609375,-0.5493163466453552,0.0915527269244194,0.9765624403953552,86.66667175292969,209150.0,1.0
18:21:46.826220,127940.40625,141419.84375,155424.65625,153438.109375,162187.75,160213.109375,686572.0625,125204.734375,0.095947265625,0.9951171875,0.146484375,-0.5187987685203552,0.03051757626235485,0.7934569716453552,86.66667175292969,209151.0,1.0
18:21:46.827757,127903.3046875,141366.46875,155408.375,153425.421875,162178.453125,160199.34375,686335.75,125199.3671875,0.096435546875,0.99267578125,0.145751953125,-0.3967284858226776,0.0,0.7934569716453552,86.66667175292969,209152.0,1.0
18:21:46.833987,127891.234375,141357.71875,155406.6875,153425.6875,162178.359375,160199.34375,685963.375,125201.875,0.100341796875,0.992431640625,0.1474609375,-0.3356933295726776,-0.0915527269244194,0.8239745497703552,86.66667175292969,209153.0,1.0
18:21:46.836380,127913.046875,141393.203125,155409.71875,153427.390625,162174.078125,160198.71875,685955.3125,125195.5234375,0.102783203125,0.993896484375,0.14306640625,-0.2746581733226776,-0.1525878757238388,0.9460448622703552,86.66667175292969,209154.0,1.0
18:21:46.842837,127927.3515625,141408.40625,155412.9375,153426.3125,162176.046875,160201.84375,686167.375,125190.515625,0.106689453125,0.995361328125,0.14404296875,-0.2746581733226776,-0.1831054538488388,1.0986326932907104,86.66667175292969,209155.0,1.0
18:21:46.845287,127912.6953125,141380.421875,155417.140625,153432.578125,162187.578125,160209.171875,686024.75,125207.234375,0.106689453125,0.9990234375,0.14306640625,-0.1831054538488388,-0.0610351525247097,1.2817381620407104,86.66667175292969,209156.0,1.0
18:21:46.847749,127900.3515625,141363.96875,155417.40625,153437.40625,162190.34375,160209.625,685744.6875,125217.96875,0.10888671875,1.001708984375,0.142578125,-0.1525878757238388,0.1220703050494194,1.2817381620407104,86.66667175292969,209157.0,1.0
18:21:46.854015,127906.8828125,141382.484375,155406.234375,153425.328125,162170.671875,160193.078125,685683.25,125194.6328125,0.108642578125,1.003173828125,0.144775390625,-0.2441406100988388,0.1220703050494194,1.3732908964157104,86.66667175292969,209158.0,1.0
18:21:46.856488,127927.8046875,141406.34375,155409.984375,153426.046875,162169.515625,160195.140625,685856.4375,125186.671875,0.104736328125,1.003662109375,0.143310546875,-0.1831054538488388,0.2441406100988388,1.4953612089157104,86.66667175292969,209159.0,1.0
18:21:46.858955,127912.3359375,141377.734375,155408.296875,153423.1875,162172.828125,160197.015625,685844.25,125189.1796875,0.103759765625,1.001220703125,0.1474609375,-0.2136230319738388,0.3967284858226776,1.4343260526657104,86.66667175292969,209160.0,1.0
18:21:46.896985,127881.1328125,141342.609375,155396.84375,153413.34375,162166.109375,160185.390625,685658.5,125188.90625,0.10400390625,0.998779296875,0.14599609375,-0.3356933295726776,0.3356933295726776,1.2817381620407104,86.66667175292969,209161.0,1.0
18:21:46.897004,127905.2734375,141383.90625,155411.234375,153425.78125,162177.203125,160198.984375,685456.75,125197.578125,0.102294921875,0.99853515625,0.1455078125,-0.2746581733226776,0.3051757514476776,1.1596678495407104,86.66667175292969,209162.0,1.0
18:21:46.909157,127928.515625,141415.375,155415.703125,153428.734375,162177.65625,160202.296875,685740.375,125192.84375,0.1025390625,0.99951171875,0.14794921875,-0.1831054538488388,0.2441406100988388,1.1291502714157104,86.66667175292969,209163.0,1.0
18:21:46.911631,127930.3046875,141407.515625,155426.96875,153435.875,162194.1875,160216.6875,685832.625,125203.65625,0.10205078125,1.00048828125,0.146484375,-0.2746581733226776,0.3051757514476776,0.9765624403953552,86.66667175292969,209164.0,1.0
18:21:46.914639,127895.96875,141357.453125,155409.625,153425.875,162178.984375,160196.03125,685639.5,125199.9921875,0.10009765625,1.000244140625,0.148193359375,-0.2746581733226776,0.3051757514476776,1.0070799589157104,86.66667175292969,209165.0,1.0
18:21:46.914662,127894.453125,141366.390625,155401.3125,153416.5625,162165.9375,160183.96875,685277.8125,125187.390625,0.1005859375,1.000244140625,0.146728515625,-0.4272460639476776,0.2746581733226776,0.8239745497703552,86.66667175292969,209166.0,1.0
18:21:46.916521,127919.578125,141401.4375,155405.515625,153418.265625,162164.0625,160187.1875,685668.875,125182.5625,0.10205078125,0.99853515625,0.14892578125,-0.5493163466453552,0.2441406100988388,0.8239745497703552,86.66667175292969,209167.0,1.0
18:21:46.919019,127924.046875,141402.328125,155416.25,153425.0625,162179.703125,160205.328125,685925.0,125190.3359375,0.10302734375,1.0009765625,0.148193359375,-0.5493163466453552,0.3051757514476776,0.6713866591453552,86.66667175292969,209168.0,1.0
18:21:46.924927,127897.4921875,141360.75,155412.3125,153426.765625,162181.84375,160201.3125,685669.5,125201.6015625,0.103759765625,1.00146484375,0.14697265625,-0.6408690810203552,0.3662109076976776,0.5798339247703552,86.66667175292969,209169.0,1.0
18:21:46.924957,127903.6640625,141375.953125,155418.296875,153430.609375,162186.328125,160204.703125,685245.6875,125206.1640625,0.10888671875,1.00244140625,0.145751953125,-0.7324218153953552,0.3662109076976776,0.6103515028953552,86.66667175292969,209170.0,1.0
18:21:46.927200,127928.3359375,141409.65625,155419.828125,153433.375,162179.96875,160200.40625,685524.125,125198.921875,0.109619140625,1.00244140625,0.145263671875,-0.6408690810203552,0.3051757514476776,0.5493163466453552,86.66667175292969,209171.0,1.0
18:21:46.927218,127941.65625,141418.15625,155429.5625,153440.625,162190.875,160213.375,685891.9375,125204.2890625,0.111572265625,1.004150390625,0.147216796875,-0.7934569716453552,0.4272460639476776,0.6713866591453552,86.66667175292969,209172.0,1.0
18:21:46.929019,127895.4375,141357.265625,155401.3125,153417.546875,162164.859375,160188.078125,685675.75,125188.1953125,0.11181640625,1.00439453125,0.1484375,-0.7934569716453552,0.4882812201976776,0.8850097060203552,86.66667175292969,209173.0,1.0
18:21:46.932062,127888.015625,141356.375,155398.09375,153415.5,162162.265625,160184.5,685209.0,125192.21875,0.109375,1.0048828125,0.147216796875,-0.9765624403953552,0.7324218153953552,1.0375975370407104,86.66667175292969,209174.0,1.0
18:21:46.932070,127914.9296875,141395.078125,155403.28125,153420.953125,162161.46875,160185.578125,685356.3125,125183.8125,0.109375,1.004150390625,0.14697265625,-1.1596678495407104,0.7934569716453552,1.0375975370407104,86.66667175292969,209175.0,1.0
18:21:46.934662,127927.625,141407.875,155409.8125,153423.71875,162169.15625,160194.328125,685788.75,125185.8671875,0.106201171875,1.001953125,0.146728515625,-1.3122557401657104,0.8239745497703552,1.0681151151657104,86.66667175292969,209176.0,1.0
18:21:46.934670,127897.2265625,141363.609375,155401.578125,153418.890625,162166.921875,160189.15625,685662.6875,125189.3515625,0.103759765625,1.002197265625,0.14794921875,-1.3427733182907104,0.8239745497703552,1.0070799589157104,86.66667175292969,209177.0,1.0
18:21:46.936591,127889.1796875,141359.765625,155405.96875,153421.125,162173.265625,160193.4375,685229.75,125191.3203125,0.104248046875,1.0,0.1455078125,-1.4953612089157104,0.9765624403953552,1.0375975370407104,86.66667175292969,209178.0,1.0
18:21:46.939095,127907.6875,141390.078125,155404.796875,153421.390625,162165.3125,160187.0,685224.6875,125181.21875,0.102294921875,1.00146484375,0.1484375,-1.5563963651657104,0.8850097060203552,0.9765624403953552,86.66667175292969,209179.0,1.0
18:21:46.941526,127920.203125,141401.703125,155401.859375,153417.546875,162159.953125,160185.21875,685680.5625,125173.7109375,0.102294921875,0.999755859375,0.14892578125,-1.6174315214157104,0.7934569716453552,1.0070799589157104,86.66667175292969,209180.0,1.0
18:21:46.944103,127892.484375,141358.15625,155391.21875,153407.453125,162153.328125,160177.078125,685653.3125,125171.0234375,0.103515625,0.99755859375,0.14892578125,-1.6784666776657104,0.9155272841453552,1.0070799589157104,86.66667175292969,209181.0,1.0
18:21:46.946414,127854.9375,141319.0,155369.3125,153387.25,162135.265625,160156.0625,685265.4375,125158.78125,0.102783203125,0.998291015625,0.150390625,-1.8615721464157104,0.8239745497703552,1.0375975370407104,86.66667175292969,209182.0,1.0
18:21:46.951602,127879.609375,141359.328125,155379.59375,153396.359375,162142.515625,160165.453125,685187.375,125163.15625,0.10400390625,0.99658203125,0.146484375,-1.9226073026657104,0.8850097060203552,0.9460448622703552,86.66667175292969,209183.0,1.0
18:21:46.953958,127904.9140625,141389.0,155388.0,153401.90625,162146.625,160172.609375,685609.6875,125164.9453125,0.10302734375,0.994384765625,0.1474609375,-1.9531248807907104,0.8239745497703552,0.9460448622703552,86.66667175292969,209184.0,1.0
18:21:46.956480,127890.4296875,141360.125,155387.1875,153401.734375,162150.375,160171.625,685688.0,125170.21875,0.101806640625,0.99365234375,0.149658203125,-2.014159917831421,0.7629393935203552,0.8850097060203552,86.66667175292969,209185.0,1.0
18:21:46.958972,127853.234375,141314.265625,155368.234375,153388.765625,162134.828125,160150.34375,685336.875,125165.390625,0.100830078125,0.994384765625,0.1474609375,-2.044677495956421,0.7629393935203552,0.7934569716453552,86.66667175292969,209186.0,1.0
18:21:46.961367,127863.875,141337.5,155366.625,153389.125,162128.203125,160147.03125,685169.625,125160.4765625,0.099365234375,0.994384765625,0.146728515625,-1.9531248807907104,0.6713866591453552,0.7934569716453552,86.66667175292969,209187.0,1.0
18:21:46.966564,127913.5859375,141393.828125,155395.953125,153419.34375,162152.890625,160173.40625,685573.5625,125184.8828125,0.1005859375,0.994384765625,0.15234375,-1.9226073026657104,0.6103515028953552,0.7629393935203552,86.66667175292969,209188.0,1.0
18:21:46.971558,127918.1484375,141390.25,155411.421875,153432.578125,162174.96875,160194.25,685772.625,125205.4453125,0.101318359375,0.9951171875,0.151611328125,-1.9226073026657104,0.5798339247703552,0.7324218153953552,86.66667175292969,209189.0,1.0
18:21:46.974691,127858.421875,141319.453125,155374.046875,153398.953125,162143.5,160157.234375,685428.625,125180.1484375,0.1005859375,0.993408203125,0.150146484375,-1.9226073026657104,0.3967284858226776,0.7019042372703552,86.66667175292969,209190.0,1.0
18:21:46.974734,127867.359375,141342.0625,155378.0625,153397.609375,162144.296875,160162.421875,685102.375,125170.1328125,0.099853515625,0.990478515625,0.1494140625,-1.9531248807907104,0.4882812201976776,0.5798339247703552,86.66667175292969,209191.0,1.0
18:21:46.977148,127885.421875,141371.65625,155373.15625,153390.546875,162131.25,160157.5,685473.3125,125155.5625,0.100341796875,0.989013671875,0.1494140625,-1.8005369901657104,0.4577636420726776,0.7629393935203552,86.66667175292969,209192.0,1.0
18:21:46.977183,127881.3984375,141360.390625,155369.75,153385.640625,162129.1875,160157.765625,685773.5625,125148.3203125,0.100341796875,0.98876953125,0.14794921875,-1.7395018339157104,0.3967284858226776,0.6408690810203552,86.66667175292969,209193.0,1.0
18:21:46.983320,127868.703125,141334.015625,155377.984375,153398.859375,162142.328125,160167.78125,685561.1875,125171.1171875,0.10009765625,0.989990234375,0.14794921875,-1.5563963651657104,0.3967284858226776,0.6713866591453552,86.66667175292969,209194.0,1.0
18:21:46.983345,127866.203125,141345.375,155378.421875,153395.46875,162141.4375,160169.75,685154.125,125167.984375,0.100830078125,0.990478515625,0.14453125,-1.4038084745407104,0.2136230319738388,0.7019042372703552,86.66667175292969,209195.0,1.0
18:21:46.983357,127881.1328125,141369.34375,155373.0625,153390.109375,162129.90625,160157.671875,685432.1875,125154.21875,0.1015625,0.990966796875,0.149658203125,-1.3122557401657104,0.1525878757238388,0.7324218153953552,86.66667175292969,209196.0,1.0
18:21:46.983366,127889.890625,141372.734375,155378.0625,153392.25,162137.234375,160165.1875,685843.4375,125153.7734375,0.099609375,0.990966796875,0.14697265625,-1.3122557401657104,0.1525878757238388,0.7934569716453552,86.66667175292969,209197.0,1.0
18:21:46.986503,127862.4453125,141329.109375,155371.8125,153392.078125,162136.796875,160160.984375,685706.6875,125161.546875,0.102783203125,0.99267578125,0.14501953125,-1.1596678495407104,0.0915527269244194,0.9765624403953552,86.66667175292969,209198.0,1.0
18:21:46.986526,127863.6953125,141336.875,155378.875,153397.4375,162143.046875,160167.875,685306.1875,125171.0234375,0.10302734375,0.99267578125,0.146240234375,-1.0375975370407104,-0.0610351525247097,0.9460448622703552,86.66667175292969,209199.0,1.0
18:21:46.986537,127887.8359375,141375.328125,155379.953125,153392.96875,162135.625,160166.4375,685467.75,125154.21875,0.103515625,0.9931640625,0.1455078125,-1.0375975370407104,-0.0610351525247097,1.0681151151657104,86.66667175292969,209200.0,1.0
18:21:46.993339,127907.0625,141394.8125,155390.9375,153398.515625,162146.625,160178.515625,685825.0625,125158.8671875,0.103515625,0.99462890625,0.1455078125,-0.8239745497703552,-0.0610351525247097,1.1291502714157104,86.66667175292969,209201.0,1.0
18:21:46.993373,127903.484375,141377.03125,155408.921875,153421.578125,162170.9375,160196.5625,685851.3125,125192.9296875,0.103515625,0.996826171875,0.147705078125,-0.7629393935203552,-0.1525878757238388,1.2207030057907104,86.66667175292969,209202.0,1.0
18:21:46.995175,127875.859375,141353.875,155392.828125,153403.15625,162156.015625,160183.6875,685486.0,125175.671875,0.1025390625,0.998291015625,0.14599609375,-0.7324218153953552,-0.1525878757238388,1.2512205839157104,86.66667175292969,209203.0,1.0
18:21:47.000196,127887.65625,141375.78125,155386.921875,153397.4375,162143.671875,160169.125,685498.375,125161.4609375,0.1015625,1.000244140625,0.145263671875,-0.6103515028953552,-0.1220703050494194,1.2207030057907104,86.66667175292969,209204.0,1.0
18:21:47.002682,127905.09375,141394.90625,155390.234375,153399.84375,162145.546875,160171.53125,685762.375,125162.171875,0.1015625,1.00244140625,0.14404296875,-0.6713866591453552,-0.1220703050494194,1.3122557401657104,86.66667175292969,209205.0,1.0
18:21:47.005703,127880.5078125,141353.15625,155381.203125,153394.046875,162142.515625,160163.84375,685823.4375,125161.1953125,0.10302734375,1.00146484375,0.14501953125,-0.7324218153953552,-0.0610351525247097,1.1901854276657104,86.66667175292969,209206.0,1.0
18:21:47.005724,127864.859375,141331.96875,155380.9375,153398.6875,162145.28125,160162.234375,685623.25,125171.1171875,0.103515625,1.000732421875,0.144287109375,-0.7019042372703552,-0.1220703050494194,1.1901854276657104,86.66667175292969,209207.0,1.0
18:21:47.007671,127899.1875,141379.890625,155402.03125,153417.828125,162161.203125,160178.15625,685544.375,125184.4375,0.10302734375,0.998779296875,0.1435546875,-0.7629393935203552,-0.1525878757238388,1.2512205839157104,86.66667175292969,209208.0,1.0
18:21:47.010190,127909.4765625,141396.0625,155394.609375,153409.421875,162150.5625,160169.5625,685801.375,125170.046875,0.100341796875,1.0,0.144775390625,-0.7324218153953552,-0.3356933295726776,1.1901854276657104,86.66667175292969,209209.0,1.0
18:21:47.012670,127909.828125,141382.921875,155405.25,153419.515625,162165.84375,160185.484375,685820.1875,125185.15625,0.102294921875,0.99609375,0.14404296875,-0.7324218153953552,-0.3967284858226776,1.0681151151657104,86.66667175292969,209210.0,1.0
18:21:47.017691,127883.453125,141348.6875,155396.75,153415.234375,162160.578125,160177.53125,685736.1875,125189.53125,0.103759765625,0.9931640625,0.14501953125,-0.6713866591453552,-0.3051757514476776,1.0375975370407104,86.66667175292969,209211.0,1.0
18:21:47.024800,127893.3828125,141373.890625,155398.359375,153413.34375,162158.875,160178.515625,685587.5625,125181.9375,0.106201171875,0.99462890625,0.14501953125,-0.7019042372703552,-0.3356933295726776,1.0681151151657104,86.66667175292969,209212.0,1.0
18:21:47.024829,127908.671875,141397.40625,155393.171875,153405.9375,162148.59375,160170.8125,685846.5,125169.0625,0.108642578125,0.99658203125,0.14501953125,-0.7019042372703552,-0.3356933295726776,0.9765624403953552,86.66667175292969,209213.0,1.0
18:21:47.028954,127911.3515625,141390.34375,155401.765625,153414.25,162161.5625,160184.953125,685891.8125,125182.3828125,0.11328125,0.9990234375,0.143310546875,-0.6103515028953552,-0.2136230319738388,0.9765624403953552,86.66667175292969,209214.0,1.0
18:21:47.035272,127884.8828125,141351.1875,155396.390625,153416.390625,162159.140625,160180.46875,685779.0,125188.640625,0.113037109375,0.999755859375,0.14453125,-0.6103515028953552,-0.2136230319738388,0.9765624403953552,86.66667175292969,209215.0,1.0
18:21:47.038295,127883.546875,141362.8125,155390.3125,153406.90625,162149.390625,160174.3125,685656.125,125174.3359375,0.11328125,1.000732421875,0.142822265625,-0.5798339247703552,-0.1525878757238388,1.0070799589157104,86.66667175292969,209216.0,1.0
18:21:47.038308,127907.953125,141398.390625,155392.375,153408.796875,162142.609375,160173.140625,685869.6875,125168.5234375,0.110107421875,0.997802734375,0.1455078125,-0.5493163466453552,-0.03051757626235485,1.0986326932907104,86.66667175292969,209217.0,1.0
18:21:47.040699,127894.359375,141375.421875,155380.65625,153394.046875,162133.484375,160163.046875,686004.3125,125153.59375,0.110107421875,0.998046875,0.14013671875,-0.6408690810203552,0.03051757626235485,1.1291502714157104,86.66667175292969,209218.0,1.0
18:21:47.040722,127865.84375,141331.078125,155375.125,153394.046875,162133.21875,160157.234375,685836.375,125161.3671875,0.109375,0.995361328125,0.14404296875,-0.6103515028953552,0.0915527269244194,1.0986326932907104,86.66667175292969,209219.0,1.0
18:21:47.042660,127872.90625,141345.828125,155384.6875,153404.859375,162142.328125,160163.3125,685731.4375,125172.1875,0.107666015625,0.9970703125,0.143798828125,-0.5798339247703552,0.2746581733226776,0.9765624403953552,86.66667175292969,209220.0,1.0
18:21:47.049466,127890.34375,141374.875,155380.84375,153398.953125,162131.34375,160155.890625,685910.5,125154.84375,0.109375,0.999755859375,0.1455078125,-0.6103515028953552,0.4577636420726776,0.8850097060203552,86.66667175292969,209221.0,1.0
18:21:47.049486,127907.953125,141389.1875,155394.078125,153405.484375,162146.984375,160173.59375,686148.6875,125157.4375,0.109619140625,1.001953125,0.143310546875,-0.7019042372703552,0.4272460639476776,0.8850097060203552,86.66667175292969,209222.0,1.0
18:21:47.051979,127889.7109375,141353.59375,155397.65625,153414.875,162154.9375,160174.484375,685996.0,125176.8359375,0.107666015625,1.002197265625,0.14453125,-0.7629393935203552,0.4882812201976776,0.9460448622703552,86.66667175292969,209223.0,1.0
18:21:47.052001,127889.0,141359.59375,155404.625,153421.3125,162165.3125,160182.0,685817.625,125187.65625,0.106689453125,1.0,0.1455078125,-0.8850097060203552,0.4577636420726776,0.7324218153953552,86.66667175292969,209224.0,1.0
18:21:47.058878,127899.640625,141384.984375,155395.140625,153411.65625,162150.5625,160170.015625,685938.9375,125171.4765625,0.105224609375,0.998779296875,0.145751953125,-0.9460448622703552,0.5798339247703552,0.4882812201976776,86.66667175292969,209225.0,1.0
18:21:47.061427,127921.1875,141407.6875,155408.203125,153419.609375,162164.0625,160184.5,686266.25,125177.734375,0.105224609375,0.99853515625,0.1435546875,-1.0070799589157104,0.4882812201976776,0.4577636420726776,86.66667175292969,209226.0,1.0
18:21:47.063918,127894.6328125,141362.453125,155400.15625,153418.0,162162.546875,160175.640625,686185.625,125185.5078125,0.1044921875,0.998291015625,0.14306640625,-1.0986326932907104,0.5187987685203552,0.2441406100988388,86.66667175292969,209227.0,1.0
18:21:47.074502,127880.6875,141347.796875,155398.09375,153420.5,162161.90625,160171.53125,685928.9375,125192.484375,0.103515625,1.0009765625,0.142822265625,-1.1901854276657104,0.6103515028953552,0.1831054538488388,86.66667175292969,209228.0,1.0
18:21:47.074525,127901.4296875,141384.53125,155402.03125,153420.5,162158.78125,160170.8125,685967.5625,125182.5625,0.103271484375,1.001220703125,0.1435546875,-1.1596678495407104,0.4272460639476776,0.03051757626235485,86.66667175292969,209229.0,1.0
18:21:47.077011,127915.4609375,141400.359375,155401.40625,153418.171875,162156.28125,160171.171875,686343.9375,125175.5,0.10400390625,1.000732421875,0.1435546875,-1.1596678495407104,0.4882812201976776,0.03051757626235485,86.66667175292969,209230.0,1.0
18:21:47.077032,127893.828125,141362.546875,155396.578125,153413.171875,162158.421875,160168.9375,686374.4375,125180.7734375,0.103759765625,1.0,0.14208984375,-1.2817381620407104,0.5187987685203552,0.1525878757238388,86.66667175292969,209231.0,1.0
18:21:47.088896,127866.828125,141332.328125,155385.21875,153404.046875,162149.9375,160158.921875,685993.3125,125177.28125,0.1025390625,0.999267578125,0.1455078125,-1.3732908964157104,0.5187987685203552,0.2746581733226776,86.66667175292969,209232.0,1.0
18:21:47.093214,127888.1015625,141369.515625,155393.0,153409.953125,162151.09375,160164.390625,685870.0,125175.3203125,0.102783203125,0.997802734375,0.147216796875,-1.4953612089157104,0.3967284858226776,0.2441406100988388,86.66667175292969,209233.0,1.0
18:21:47.093238,127913.765625,141400.625,155399.4375,153415.046875,162152.796875,160168.859375,686356.0625,125173.7109375,0.103271484375,0.99755859375,0.146240234375,-1.5563963651657104,0.4577636420726776,0.1220703050494194,86.66667175292969,209234.0,1.0
18:21:47.100766,127905.2734375,141380.15625,155401.765625,153416.03125,162160.390625,160178.328125,686500.0,125177.734375,0.1025390625,0.997802734375,0.14501953125,-1.5258787870407104,0.4577636420726776,0.3051757514476776,86.66667175292969,209235.0,1.0
18:21:47.100805,127872.0078125,141338.046875,155387.453125,153405.75,162148.40625,160164.828125,686152.4375,125175.2265625,0.104248046875,0.998291015625,0.14697265625,-1.5869139432907104,0.3967284858226776,0.2746581733226776,86.66667175292969,209236.0,1.0
18:21:47.102696,127879.078125,141359.6875,155385.125,153402.625,162141.890625,160161.796875,685880.1875,125166.734375,0.103759765625,0.99609375,0.1484375,-1.6174315214157104,0.3356933295726776,0.3051757514476776,86.66667175292969,209237.0,1.0
18:21:47.110330,127899.640625,141389.8125,155383.4375,153401.640625,162133.578125,160160.09375,686346.75,125156.1875,0.10498046875,0.997802734375,0.146240234375,-1.7089842557907104,0.3662109076976776,0.4272460639476776,86.66667175292969,209238.0,1.0
18:21:47.120848,127895.796875,141378.90625,155386.46875,153399.140625,162141.0,160169.65625,686593.125,125157.171875,0.103271484375,0.99853515625,0.146484375,-1.7395018339157104,0.3051757514476776,0.5798339247703552,86.66667175292969,209239.0,1.0
18:21:47.120929,127868.6171875,141339.296875,155380.484375,153400.75,162140.546875,160165.09375,686315.1875,125167.6328125,0.1015625,1.000732421875,0.1455078125,-1.7089842557907104,0.2136230319738388,0.6103515028953552,86.66667175292969,209240.0,1.0
18:21:47.130944,127891.4140625,141372.46875,155400.59375,153420.0625,162157.359375,160180.46875,685971.75,125189.53125,0.100341796875,0.99951171875,0.147216796875,-1.8310545682907104,0.0915527269244194,0.7019042372703552,86.66667175292969,209241.0,1.0
18:21:47.131016,127903.75,141393.5625,155391.484375,153409.234375,162141.796875,160165.90625,686337.8125,125166.1953125,0.100341796875,1.000732421875,0.1435546875,-1.8310545682907104,0.0,0.6408690810203552,86.66667175292969,209242.0,1.0
18:21:47.137508,127897.9375,141381.234375,155389.15625,153401.453125,162143.234375,160165.015625,686676.1875,125156.5390625,0.099365234375,0.999755859375,0.146240234375,-1.8005369901657104,-0.0915527269244194,0.7629393935203552,86.66667175292969,209243.0,1.0
18:21:47.137561,127866.5546875,141332.859375,155378.515625,153397.4375,162137.328125,160154.015625,686465.125,125160.4765625,0.098388671875,0.998779296875,0.14599609375,-1.8310545682907104,-0.1220703050494194,0.8544921278953552,86.66667175292969,209244.0,1.0
