Timestamp,Fz,FC3,FCz,FC4,Cz,C3,C4
18:10:09.987800,138086.484375,144056.640625,163643.65625,160127.546875,186846.375,183860.625,685870.9375,133024.625,0.071533203125,1.009765625,-0.07861328125,-2.441406011581421,0.3356933295726776,0.8544921278953552,86.66667175292969,34815.0,1.0
18:10:09.987840,138079.15625,144051.546875,163634.71875,160123.703125,186834.671875,183847.9375,685907.5625,133024.09375,0.069580078125,1.01123046875,-0.076904296875,-2.441406011581421,0.3356933295726776,0.8544921278953552,86.66667175292969,34816.0,1.0
18:10:09.989865,138093.375,144076.140625,163637.9375,160121.640625,186834.75,183849.1875,686021.9375,133015.328125,0.066650390625,1.010986328125,-0.07568359375,-2.441406011581421,0.5493163466453552,0.8239745497703552,86.66667175292969,34817.0,1.0
18:10:09.992272,138092.296875,144080.78125,163640.703125,160113.15625,186843.515625,183861.875,686004.8125,133005.046875,0.06591796875,1.011962890625,-0.078125,-2.441406011581421,0.6713866591453552,0.7324218153953552,86.66667175292969,34818.0,1.0
18:10:09.995278,138080.59375,144060.484375,163638.5625,160118.78125,186840.75,183856.96875,685882.1875,133013.265625,0.06298828125,1.01025390625,-0.078857421875,-2.441406011581421,0.7934569716453552,0.6713866591453552,86.66667175292969,34819.0,1.0
18:10:09.995287,138065.65625,144040.375,163621.390625,160112.890625,186816.6875,183833.546875,685934.8125,133011.578125,0.061279296875,1.0087890625,-0.077392578125,-2.471923589706421,0.8544921278953552,0.6103515028953552,86.66667175292969,34820.0,1.0
18:10:10.004783,138083.8125,144065.765625,163627.828125,160113.234375,186820.1875,183839.625,686016.75,133006.390625,0.060546875,1.0078125,-0.077880859375,-2.380370855331421,0.8850097060203552,0.5798339247703552,86.66667175292969,34821.0,1.0
18:10:10.007790,138092.03125,144077.46875,163635.78125,160110.109375,186832.78125,183855.0,686067.4375,133000.75,0.057861328125,1.009521484375,-0.078369140625,-2.349853277206421,1.0070799589157104,0.6103515028953552,86.66667175292969,34822.0,1.0
18:10:10.007801,138080.046875,144061.375,163635.609375,160112.53125,186836.453125,183858.390625,685890.6875,133004.328125,0.05908203125,1.00830078125,-0.0751953125,-2.410888433456421,0.9155272841453552,0.4272460639476776,86.66667175292969,34823.0,1.0
18:10:10.013466,138066.828125,144038.3125,163620.671875,160110.921875,186816.78125,183833.984375,685954.3125,133005.9375,0.0576171875,1.0087890625,-0.07568359375,-2.410888433456421,0.9155272841453552,0.3662109076976776,86.66667175292969,34824.0,1.0
18:10:10.020622,138079.34375,144062.09375,163623.53125,160111.984375,186817.765625,183840.78125,686001.875,133004.15625,0.056884765625,1.0087890625,-0.076416015625,-2.319335699081421,0.9460448622703552,0.3967284858226776,86.66667175292969,34825.0,1.0
18:10:10.023390,138083.984375,144073.1875,163624.96875,160105.375,186822.5,183849.546875,686097.75,132996.1875,0.0556640625,1.009765625,-0.072509765625,-2.227782964706421,0.8850097060203552,0.3051757514476776,86.66667175292969,34826.0,1.0
18:10:10.023478,138078.265625,144060.390625,163632.5625,160109.390625,186836.984375,183858.9375,685908.1875,133002.984375,0.053466796875,1.0087890625,-0.073486328125,-2.288818120956421,0.7934569716453552,0.3051757514476776,86.66667175292969,34827.0,1.0
18:10:10.025651,138066.546875,144037.421875,163620.140625,160109.484375,186819.375,183838.015625,685952.0625,133008.359375,0.056396484375,1.008544921875,-0.07275390625,-2.227782964706421,0.7324218153953552,0.1831054538488388,86.66667175292969,34828.0,1.0
18:10:10.028487,138073.796875,144053.25,163620.140625,160107.25,186815.359375,183836.3125,685978.5625,133003.171875,0.053466796875,1.005859375,-0.0751953125,-2.166747808456421,0.5493163466453552,0.1525878757238388,86.66667175292969,34829.0,1.0
18:10:10.044190,138092.03125,144079.703125,163632.03125,160111.1875,186827.78125,183852.578125,686120.4375,133002.1875,0.05322265625,1.003173828125,-0.076171875,-2.105712652206421,0.5798339247703552,0.2136230319738388,86.66667175292969,34830.0,1.0
18:10:10.044209,138091.671875,144076.671875,163643.75,160117.171875,186847.1875,183870.734375,685931.0625,133008.078125,0.052490234375,1.002197265625,-0.0751953125,-2.105712652206421,0.6408690810203552,0.2136230319738388,86.66667175292969,34831.0,1.0
18:10:10.051095,138079.703125,144051.90625,163634.265625,160122.8125,186832.078125,183852.859375,685947.6875,133015.953125,0.0537109375,1.00244140625,-0.07666015625,-1.8615721464157104,0.4272460639476776,0.2746581733226776,86.66667175292969,34832.0,1.0
18:10:10.053573,138076.921875,144055.75,163625.328125,160112.96875,186820.984375,183846.765625,685962.375,133006.296875,0.052734375,1.003173828125,-0.073486328125,-1.7700194120407104,0.3356933295726776,0.2136230319738388,86.66667175292969,34833.0,1.0
18:10:10.056044,138097.578125,144084.09375,163635.4375,160118.25,186830.46875,183856.078125,686122.5625,133007.28125,0.05224609375,1.005126953125,-0.07373046875,-1.7089842557907104,0.1525878757238388,0.2136230319738388,86.66667175292969,34834.0,1.0
18:10:10.064156,138095.25,144082.65625,163645.359375,160119.140625,186847.546875,183872.96875,685969.0625,133011.296875,0.05224609375,1.00537109375,-0.07373046875,-1.6479490995407104,0.0610351525247097,0.2136230319738388,86.66667175292969,34835.0,1.0
18:10:10.064365,138081.21875,144058.25,163639.0,160124.15625,186836.984375,183859.109375,685931.1875,133017.296875,0.052001953125,1.005126953125,-0.070068359375,-1.5869139432907104,0.03051757626235485,0.2746581733226776,86.66667175292969,34836.0,1.0
18:10:10.066195,138077.546875,144056.46875,163630.875,160118.609375,186824.828125,183845.703125,685952.375,133009.34375,0.052490234375,1.00732421875,-0.069091796875,-1.5869139432907104,-0.1525878757238388,0.3967284858226776,86.66667175292969,34837.0,1.0
18:10:10.072963,138096.6875,144079.171875,163638.109375,160122.625,186830.734375,183849.71875,686098.125,133007.453125,0.0517578125,1.009033203125,-0.072265625,-1.4343260526657104,-0.2746581733226776,0.4272460639476776,86.66667175292969,34838.0,1.0
18:10:10.073031,138105.625,144087.75,163655.09375,160127.71875,186854.875,183871.890625,686006.25,133013.265625,0.051025390625,1.00732421875,-0.074462890625,-1.4038084745407104,-0.4272460639476776,0.4882812201976776,86.66667175292969,34839.0,1.0
18:10:10.076630,138090.328125,144063.4375,163647.859375,160130.765625,186846.109375,183861.171875,685921.0,133021.046875,0.052734375,1.005859375,-0.07421875,-1.4038084745407104,-0.3662109076976776,0.4272460639476776,86.66667175292969,34840.0,1.0
18:10:10.076655,138080.046875,144049.765625,163633.46875,160123.53125,186829.296875,183842.578125,685963.375,133018.28125,0.051025390625,1.007080078125,-0.07568359375,-1.3732908964157104,-0.4272460639476776,0.5187987685203552,86.66667175292969,34841.0,1.0
18:10:10.084908,138094.984375,144072.640625,163635.875,160120.390625,186829.203125,183845.875,686079.125,133009.515625,0.052734375,1.0078125,-0.076171875,-1.2817381620407104,-0.5493163466453552,0.6103515028953552,86.66667175292969,34842.0,1.0
18:10:10.087891,138099.71875,144082.65625,163645.359375,160116.546875,186844.328125,183863.40625,686051.3125,133005.578125,0.0537109375,1.0087890625,-0.078857421875,-1.3732908964157104,-0.7629393935203552,0.7019042372703552,86.66667175292969,34843.0,1.0
18:10:10.087956,138084.875,144060.9375,163640.53125,160117.984375,186840.296875,183859.109375,685921.875,133011.03125,0.05517578125,1.009033203125,-0.076171875,-1.2817381620407104,-0.7324218153953552,0.7019042372703552,86.66667175292969,34844.0,1.0
18:10:10.099786,138075.5,144043.5,163628.015625,160118.609375,186822.59375,183839.0,685982.9375,133011.84375,0.0546875,1.00732421875,-0.0732421875,-1.2207030057907104,-0.7934569716453552,0.7019042372703552,86.66667175292969,34845.0,1.0
18:10:10.103301,138090.96875,144068.984375,163633.375,160117.09375,186824.375,183844.71875,686060.625,133006.65625,0.055419921875,1.0078125,-0.0732421875,-1.2512205839157104,-0.8239745497703552,0.7324218153953552,86.66667175292969,34846.0,1.0
18:10:10.103326,138106.34375,144091.0625,163648.84375,160121.640625,186844.40625,183868.5,686109.875,133011.03125,0.057373046875,1.009033203125,-0.075927734375,-1.2207030057907104,-0.7934569716453552,0.7934569716453552,86.66667175292969,34847.0,1.0
18:10:10.104755,138097.046875,144073.359375,163650.0,160125.046875,186848.171875,183868.5,685924.0,133016.484375,0.057373046875,1.010986328125,-0.07568359375,-1.2512205839157104,-0.8239745497703552,0.7934569716453552,86.66667175292969,34848.0,1.0
18:10:10.112276,138078.4375,144046.546875,163629.53125,160119.671875,186822.0625,183840.15625,685967.1875,133016.40625,0.058349609375,1.008544921875,-0.075439453125,-1.2207030057907104,-0.9155272841453552,0.8239745497703552,86.66667175292969,34849.0,1.0
18:10:10.121720,138093.734375,144070.953125,163636.140625,160124.859375,186825.09375,183845.609375,686027.1875,133018.453125,0.05908203125,1.011474609375,-0.076904296875,-1.2207030057907104,-0.9460448622703552,0.8850097060203552,86.66667175292969,34850.0,1.0
18:10:10.121761,138105.71875,144090.609375,163645.265625,160123.703125,186835.109375,183863.140625,686127.0625,133011.921875,0.058837890625,1.01220703125,-0.07470703125,-1.3122557401657104,-0.9155272841453552,0.8544921278953552,86.66667175292969,34851.0,1.0
18:10:10.124053,138091.140625,144068.265625,163643.125,160119.40625,186838.515625,183857.765625,685927.75,133007.546875,0.060546875,1.01171875,-0.076904296875,-1.4343260526657104,-0.7934569716453552,0.7629393935203552,86.66667175292969,34852.0,1.0
18:10:10.124067,138070.671875,144036.796875,163622.828125,160115.296875,186813.46875,183830.046875,685963.8125,133007.640625,0.060791015625,1.009521484375,-0.075927734375,-1.4343260526657104,-0.7934569716453552,0.8544921278953552,86.66667175292969,34853.0,1.0
18:10:10.133474,138083.625,144059.0625,163628.09375,160119.046875,186818.03125,183839.4375,686005.3125,133010.40625,0.06201171875,1.009521484375,-0.07421875,-1.4343260526657104,-0.6408690810203552,0.7324218153953552,86.66667175292969,34854.0,1.0
18:10:10.138208,138106.34375,144090.4375,163643.03125,160124.953125,186832.703125,183859.734375,686149.5,133013.453125,0.06201171875,1.013427734375,-0.0751953125,-1.5869139432907104,-0.6408690810203552,0.7324218153953552,86.66667175292969,34855.0,1.0
18:10:10.138234,138100.078125,144083.90625,163650.546875,160123.96875,186847.71875,183872.875,685955.5,133014.4375,0.06201171875,1.0126953125,-0.077880859375,-1.6479490995407104,-0.5187987685203552,0.6103515028953552,86.66667175292969,34856.0,1.0
18:10:10.161659,138077.546875,144045.828125,163631.5,160122.453125,186824.921875,183842.484375,685972.1875,133015.5,0.063232421875,1.01318359375,-0.07470703125,-1.6784666776657104,-0.5187987685203552,0.6713866591453552,86.66667175292969,34857.0,1.0
18:10:10.161689,138091.5,144064.515625,163638.734375,160128.625,186828.140625,183848.734375,686008.9375,133020.6875,0.062744140625,1.013671875,-0.073974609375,-1.7395018339157104,-0.5493163466453552,0.7934569716453552,86.66667175292969,34858.0,1.0
18:10:10.161696,138104.546875,144086.765625,163642.40625,160124.15625,186830.28125,183854.640625,686161.3125,133011.484375,0.063720703125,1.012451171875,-0.07421875,-1.8005369901657104,-0.3967284858226776,0.6408690810203552,86.66667175292969,34859.0,1.0
18:10:10.161703,138100.625,144087.3125,163649.734375,160120.75,186845.75,183872.96875,686007.4375,133009.515625,0.064208984375,1.01220703125,-0.074462890625,-1.9531248807907104,-0.2441406100988388,0.5493163466453552,86.66667175292969,34860.0,1.0
18:10:10.162222,138082.921875,144059.953125,163637.3125,160121.921875,186829.65625,183856.25,685964.8125,133014.875,0.061767578125,1.013671875,-0.07275390625,-2.014159917831421,-0.2746581733226776,0.4577636420726776,86.66667175292969,34861.0,1.0
18:10:10.164753,138071.46875,144049.3125,163621.75,160111.8125,186811.6875,183836.578125,685988.8125,133006.390625,0.06005859375,1.01318359375,-0.073486328125,-2.075195074081421,-0.3051757514476776,0.5493163466453552,86.66667175292969,34862.0,1.0
18:10:10.167194,138090.96875,144076.9375,163631.40625,160119.140625,186820.0,183845.25,686126.875,133009.515625,0.058349609375,1.01220703125,-0.075927734375,-2.014159917831421,-0.1831054538488388,0.3967284858226776,86.66667175292969,34863.0,1.0
18:10:10.170972,138093.828125,144082.65625,163641.515625,160118.34375,186836.71875,183864.03125,686024.9375,133009.421875,0.058837890625,1.01220703125,-0.074462890625,-2.105712652206421,-0.1220703050494194,0.3662109076976776,86.66667175292969,34864.0,1.0
18:10:10.178463,138071.03125,144047.96875,163627.109375,160112.53125,186822.421875,183843.28125,685922.6875,133005.84375,0.06201171875,1.0126953125,-0.075927734375,-2.136230230331421,-0.0610351525247097,0.3662109076976776,86.66667175292969,34865.0,1.0
18:10:10.183453,138065.84375,144039.65625,163618.0,160111.1875,186809.265625,183828.625,685957.125,133003.171875,0.05908203125,1.010009765625,-0.07470703125,-2.136230230331421,-0.0610351525247097,0.3356933295726776,86.66667175292969,34866.0,1.0
18:10:10.183471,138087.828125,144069.34375,163626.578125,160115.75,186814.1875,183837.828125,686074.875,132999.859375,0.058349609375,1.00927734375,-0.071533203125,-2.166747808456421,0.0,0.3356933295726776,86.66667175292969,34867.0,1.0
18:10:10.183478,138092.484375,144079.171875,163634.359375,160110.296875,186828.5,183857.6875,686068.4375,132996.28125,0.058349609375,1.00927734375,-0.0732421875,-2.044677495956421,-0.0610351525247097,0.3662109076976776,86.66667175292969,34868.0,1.0
18:10:10.186198,138085.15625,144065.40625,163638.375,160119.765625,186834.125,183859.296875,685937.875,133010.59375,0.060791015625,1.009033203125,-0.07568359375,-1.9226073026657104,0.03051757626235485,0.3967284858226776,86.66667175292969,34869.0,1.0
18:10:10.190072,138075.5,144050.203125,163625.78125,160119.234375,186817.046875,183840.328125,685990.625,133013.09375,0.059814453125,1.0068359375,-0.076904296875,-1.8920897245407104,0.03051757626235485,0.3356933295726776,86.66667175292969,34870.0,1.0
18:10:10.199826,138090.78125,144077.46875,163629.96875,160118.421875,186818.484375,183849.28125,686064.375,133007.546875,0.06005859375,1.006103515625,-0.073486328125,-1.7395018339157104,0.03051757626235485,0.4272460639476776,86.66667175292969,34871.0,1.0
18:10:10.202826,138105.265625,144096.78125,163642.671875,160119.953125,186835.203125,183868.859375,686113.625,133007.09375,0.059326171875,1.0029296875,-0.075439453125,-1.6174315214157104,0.0610351525247097,0.5187987685203552,86.66667175292969,34872.0,1.0
18:10:10.202838,138097.75,144083.734375,163648.125,160124.59375,186844.671875,183876.984375,685932.75,133014.703125,0.05908203125,1.001708984375,-0.076171875,-1.5258787870407104,0.0915527269244194,0.5493163466453552,86.66667175292969,34873.0,1.0
18:10:10.212376,138073.609375,144045.46875,163623.984375,160117.171875,186815.984375,183837.46875,685980.0625,133010.234375,0.057373046875,1.002197265625,-0.073486328125,-1.3732908964157104,0.0915527269244194,0.6408690810203552,86.66667175292969,34874.0,1.0
18:10:10.241774,138086.046875,144068.53125,163627.65625,160117.359375,186817.5,183842.125,686019.3125,133007.015625,0.05517578125,1.0029296875,-0.074462890625,-1.2817381620407104,0.1525878757238388,0.5798339247703552,86.66667175292969,34875.0,1.0
18:10:10.266666,138099.71875,144090.171875,163639.0,160119.046875,186830.1875,183857.40625,686126.375,133007.90625,0.0517578125,1.0068359375,-0.074462890625,-1.2207030057907104,0.0610351525247097,0.7324218153953552,86.66667175292969,34876.0,1.0
18:10:10.266686,138097.9375,144087.21875,163649.734375,160125.3125,186847.0,183875.375,685940.9375,133017.296875,0.051513671875,1.007080078125,-0.0712890625,-1.2207030057907104,0.0610351525247097,0.6408690810203552,86.66667175292969,34877.0,1.0
18:10:10.268421,138082.640625,144060.21875,163634.359375,160125.3125,186826.53125,183851.25,685978.9375,133017.828125,0.05322265625,1.002685546875,-0.072265625,-1.2207030057907104,-0.0610351525247097,0.5798339247703552,86.66667175292969,34878.0,1.0
18:10:10.271027,138086.21875,144069.78125,163630.609375,160120.125,186820.265625,183844.984375,685995.25,133009.6875,0.052978515625,1.001708984375,-0.07666015625,-1.1901854276657104,-0.1525878757238388,0.7934569716453552,86.66667175292969,34879.0,1.0
18:10:10.273430,138101.421875,144091.59375,163638.828125,160119.671875,186829.203125,183857.6875,686141.625,133006.5625,0.055419921875,1.003173828125,-0.07666015625,-1.1596678495407104,-0.2136230319738388,0.7324218153953552,86.66667175292969,34880.0,1.0
18:10:10.276056,138105.0,144092.671875,163654.828125,160127.453125,186852.453125,183877.796875,685962.4375,133015.421875,0.061279296875,1.005859375,-0.077392578125,-1.0070799589157104,-0.1220703050494194,0.7324218153953552,86.66667175292969,34881.0,1.0
18:10:10.278420,138084.875,144061.734375,163637.484375,160126.03125,186830.28125,183855.359375,685954.4375,133019.625,0.065185546875,1.0087890625,-0.078369140625,-0.9765624403953552,0.0,0.8544921278953552,86.66667175292969,34882.0,1.0
18:10:10.280990,138083.625,144068.890625,163631.140625,160118.703125,186821.96875,183853.203125,685978.75,133012.5625,0.06787109375,1.009521484375,-0.079833984375,-0.9460448622703552,0.03051757626235485,1.0375975370407104,86.66667175292969,34883.0,1.0
18:10:10.283430,138100.078125,144090.703125,163638.921875,160121.921875,186828.671875,183858.21875,686134.0625,133010.59375,0.068603515625,1.007568359375,-0.077880859375,-0.8239745497703552,0.0610351525247097,1.2207030057907104,86.66667175292969,34884.0,1.0
18:10:10.286088,138098.734375,144088.734375,163646.703125,160120.65625,186843.15625,183870.28125,686002.0625,133011.03125,0.068115234375,1.00634765625,-0.080322265625,-0.7324218153953552,0.0915527269244194,1.2817381620407104,86.66667175292969,34885.0,1.0
18:10:10.288464,138079.515625,144054.40625,163633.640625,160122.09375,186827.953125,183849.90625,685963.0625,133017.46875,0.066650390625,1.00390625,-0.08154296875,-0.6713866591453552,0.3967284858226776,1.3427733182907104,86.66667175292969,34886.0,1.0
18:10:10.291061,138077.546875,144053.515625,163626.75,160117.71875,186819.375,183838.546875,685998.3125,133014.515625,0.063720703125,1.0068359375,-0.08056640625,-0.5798339247703552,0.4882812201976776,1.1901854276657104,86.66667175292969,34887.0,1.0
18:10:10.293441,138095.96875,144082.296875,163634.796875,160120.125,186825.1875,183847.046875,686140.375,133011.578125,0.06201171875,1.008544921875,-0.07958984375,-0.4577636420726776,0.5187987685203552,1.0681151151657104,86.66667175292969,34888.0,1.0
18:10:10.295990,138105.53125,144098.65625,163651.875,160123.53125,186848.796875,183875.828125,686054.0,133015.140625,0.058837890625,1.01220703125,-0.07763671875,-0.4272460639476776,0.4882812201976776,0.9460448622703552,86.66667175292969,34889.0,1.0
18:10:10.301582,138084.25,144067.015625,163638.46875,160120.84375,186833.59375,183857.859375,685954.0,133015.5,0.056396484375,1.013671875,-0.074951171875,-0.4882812201976776,0.6713866591453552,0.6408690810203552,86.66667175292969,34890.0,1.0
18:10:10.301631,138074.515625,144052.078125,163624.078125,160114.40625,186815.703125,183837.46875,685990.1875,133014.703125,0.056640625,1.01318359375,-0.0771484375,-0.5187987685203552,0.5187987685203552,0.4577636420726776,86.66667175292969,34891.0,1.0
18:10:10.304066,138090.609375,144078.71875,163630.78125,160114.84375,186819.734375,183845.15625,686088.0625,133008.625,0.05517578125,1.01171875,-0.076171875,-0.6713866591453552,0.5493163466453552,0.3662109076976776,86.66667175292969,34892.0,1.0
18:10:10.304083,138102.40625,144096.421875,163645.71875,160115.65625,186837.703125,183868.671875,686079.125,133004.59375,0.054931640625,1.011474609375,-0.078125,-0.6713866591453552,0.5187987685203552,0.2136230319738388,86.66667175292969,34893.0,1.0
18:10:10.306497,138093.203125,144079.0,163646.421875,160122.09375,186839.046875,183867.515625,685931.0,133012.203125,0.05712890625,1.0107421875,-0.07666015625,-0.7324218153953552,0.3662109076976776,0.1220703050494194,86.66667175292969,34894.0,1.0
18:10:10.306509,138076.828125,144051.640625,163628.8125,160119.328125,186816.15625,183836.671875,685971.375,133012.28125,0.05810546875,1.010986328125,-0.078369140625,-0.8850097060203552,0.3967284858226776,0.0,86.66667175292969,34895.0,1.0
18:10:10.311037,138083.546875,144067.546875,163624.703125,160110.921875,186810.703125,183834.078125,686029.25,133000.125,0.059814453125,1.011962890625,-0.076904296875,-0.8544921278953552,0.3967284858226776,-0.0915527269244194,86.66667175292969,34896.0,1.0
18:10:10.317278,138099.1875,144090.265625,163638.828125,160114.84375,186828.671875,183857.59375,686093.6875,133002.546875,0.063232421875,1.012939453125,-0.078369140625,-0.8850097060203552,0.4272460639476776,-0.1525878757238388,86.66667175292969,34897.0,1.0
18:10:10.320335,138086.9375,144071.578125,163638.375,160115.296875,186831.796875,183857.59375,685917.6875,133004.0625,0.062255859375,1.0146484375,-0.077880859375,-0.9155272841453552,0.3356933295726776,-0.0610351525247097,86.66667175292969,34898.0,1.0
18:10:10.320359,138072.90625,144046.984375,163621.484375,160115.390625,186809.8125,183833.8125,685970.875,133006.65625,0.062255859375,1.014404296875,-0.07666015625,-1.0070799589157104,0.2441406100988388,-0.03051757626235485,86.66667175292969,34899.0,1.0
18:10:10.322227,138082.109375,144066.75,163622.203125,160112.96875,186809.0,183839.0,686004.5,133000.9375,0.06201171875,1.014892578125,-0.07568359375,-1.0986326932907104,0.2746581733226776,0.0915527269244194,86.66667175292969,34900.0,1.0
18:10:10.325349,138098.46875,144089.09375,163634.984375,160116.90625,186822.6875,183852.21875,686128.6875,133001.109375,0.0595703125,1.0146484375,-0.076171875,-1.1901854276657104,0.4272460639476776,0.0915527269244194,86.66667175292969,34901.0,1.0
18:10:10.325370,138096.140625,144082.5625,163645.71875,160122.8125,186837.890625,183863.84375,685939.5625,133008.796875,0.057373046875,1.014892578125,-0.07568359375,-1.3122557401657104,0.4272460639476776,0.1525878757238388,86.66667175292969,34902.0,1.0
18:10:10.327217,138075.765625,144050.296875,163626.21875,160117.359375,186812.21875,183836.484375,685971.5625,133011.125,0.054931640625,1.01416015625,-0.07763671875,-1.4038084745407104,0.3967284858226776,0.2136230319738388,86.66667175292969,34903.0,1.0
18:10:10.333480,138083.453125,144064.0625,163625.859375,160114.140625,186809.359375,183836.484375,685984.375,133008.796875,0.053955078125,1.013916015625,-0.075927734375,-1.5258787870407104,0.3967284858226776,0.2441406100988388,86.66667175292969,34904.0,1.0
18:10:10.337815,138099.015625,144089.71875,163633.828125,160114.3125,186817.140625,183848.375,686124.1875,133001.921875,0.051513671875,1.0126953125,-0.075439453125,-1.5258787870407104,0.3662109076976776,0.3051757514476776,86.66667175292969,34905.0,1.0
18:10:10.337845,138091.234375,144083.015625,163637.75,160112.703125,186830.1875,183860.359375,685933.75,133000.390625,0.051025390625,1.010498046875,-0.074951171875,-1.6784666776657104,0.1831054538488388,0.3051757514476776,86.66667175292969,34906.0,1.0
18:10:10.346543,138073.265625,144049.21875,163622.734375,160115.03125,186812.140625,183834.078125,685931.375,133005.21875,0.051025390625,1.01171875,-0.073486328125,-1.8310545682907104,0.0915527269244194,0.3356933295726776,86.66667175292969,34907.0,1.0
18:10:10.346570,138073.34375,144054.40625,163617.640625,160109.390625,186804.359375,183828.984375,685921.3125,133002.984375,0.049560546875,1.01171875,-0.072509765625,-2.014159917831421,0.0,0.3356933295726776,86.66667175292969,34908.0,1.0
18:10:10.348486,138095.34375,144088.03125,163629.890625,160114.5,186814.8125,183846.765625,686065.4375,133002.28125,0.048583984375,1.012451171875,-0.07470703125,-2.014159917831421,-0.0610351525247097,0.3967284858226776,86.66667175292969,34909.0,1.0
18:10:10.350973,138101.953125,144095.984375,163647.765625,160121.734375,186840.921875,183870.828125,685942.4375,133008.796875,0.0478515625,1.01171875,-0.0751953125,-2.075195074081421,-0.2746581733226776,0.3967284858226776,86.66667175292969,34910.0,1.0
18:10:10.354740,138084.96875,144065.578125,163637.125,160123.53125,186827.875,183852.578125,685883.0625,133013.625,0.04833984375,1.01220703125,-0.074462890625,-2.197265386581421,-0.4577636420726776,0.2746581733226776,86.66667175292969,34911.0,1.0
18:10:10.369767,138070.125,144047.25,163617.28125,160109.578125,186805.421875,183827.734375,685896.75,133002.625,0.04833984375,1.013427734375,-0.072021484375,-2.166747808456421,-0.4577636420726776,0.3356933295726776,86.66667175292969,34912.0,1.0
18:10:10.375934,138093.375,144081.765625,163630.25,160115.484375,186816.15625,183843.90625,686032.375,133003.4375,0.046142578125,1.011474609375,-0.0712890625,-2.227782964706421,-0.6103515028953552,0.3356933295726776,86.66667175292969,34913.0,1.0
18:10:10.375954,138100.53125,144089.8125,163643.390625,160116.015625,186835.921875,183862.859375,685986.3125,133001.46875,0.048095703125,1.009765625,-0.0703125,-2.319335699081421,-0.7324218153953552,0.2746581733226776,86.66667175292969,34914.0,1.0
18:10:10.377222,138082.5625,144061.5625,163633.640625,160116.546875,186825.640625,183847.75,685873.4375,133005.3125,0.0498046875,1.008544921875,-0.07275390625,-2.227782964706421,-0.8239745497703552,0.2441406100988388,86.66667175292969,34915.0,1.0
18:10:10.379716,138078.09375,144054.5,163627.5625,160117.53125,186815.359375,183839.703125,685904.4375,133009.0625,0.052001953125,1.0078125,-0.07080078125,-2.319335699081421,-1.0070799589157104,0.1220703050494194,86.66667175292969,34916.0,1.0
18:10:10.382517,138094.8125,144079.171875,163635.078125,160119.765625,186819.90625,183842.578125,685988.0625,133006.921875,0.0517578125,1.0078125,-0.07275390625,-2.258300542831421,-1.1596678495407104,0.1220703050494194,86.66667175292969,34917.0,1.0
18:10:10.391542,138098.109375,144087.75,163640.890625,160115.484375,186832.078125,183854.46875,685999.1875,133005.3125,0.05322265625,1.0068359375,-0.07470703125,-2.136230230331421,-1.1901854276657104,0.1831054538488388,86.66667175292969,34918.0,1.0
18:10:10.391559,138082.640625,144065.046875,163636.140625,160116.015625,186830.46875,183850.171875,685843.3125,133007.8125,0.054443359375,1.004638671875,-0.075927734375,-1.9836424589157104,-1.1901854276657104,0.1831054538488388,86.66667175292969,34919.0,1.0
18:10:10.393429,138076.828125,144052.34375,163627.46875,160118.15625,186816.609375,183834.96875,685906.5625,133010.671875,0.0556640625,1.003662109375,-0.07666015625,-1.9226073026657104,-1.2512205839157104,0.2746581733226776,86.66667175292969,34920.0,1.0
18:10:10.404067,138091.59375,144080.15625,163634.359375,160117.984375,186820.0,183843.375,685939.8125,133005.21875,0.05712890625,1.00244140625,-0.075927734375,-1.9531248807907104,-1.2512205839157104,0.3051757514476776,86.66667175292969,34921.0,1.0
18:10:10.406535,138105.0,144098.3125,163645.4375,160120.21875,186834.484375,183860.625,686009.25,133006.390625,0.057861328125,0.999755859375,-0.076416015625,-1.8005369901657104,-1.2207030057907104,0.3051757514476776,86.66667175292969,34922.0,1.0
18:10:10.406555,138089.359375,144074.703125,163640.96875,160117.796875,186835.296875,183859.296875,685810.5,133007.015625,0.058837890625,1.000732421875,-0.074462890625,-1.5869139432907104,-1.1596678495407104,0.4577636420726776,86.66667175292969,34923.0,1.0
18:10:10.411009,138074.421875,144047.078125,163624.609375,160118.0625,186813.65625,183830.40625,685904.5,133010.859375,0.059814453125,1.00244140625,-0.076416015625,-1.4648436307907104,-1.0375975370407104,0.5187987685203552,86.66667175292969,34924.0,1.0
18:10:10.414712,138088.8125,144070.59375,163631.140625,160122.453125,186817.3125,183838.09375,685963.375,133013.265625,0.0615234375,1.003662109375,-0.074462890625,-1.2512205839157104,-0.9765624403953552,0.6713866591453552,86.66667175292969,34925.0,1.0
18:10:10.419067,138101.328125,144089.71875,163639.1875,160121.015625,186827.421875,183850.078125,686051.9375,133011.578125,0.06298828125,1.005126953125,-0.075927734375,-1.0681151151657104,-0.9765624403953552,0.6103515028953552,86.66667175292969,34926.0,1.0
18:10:10.419091,138084.078125,144070.140625,163635.875,160113.515625,186830.8125,183850.171875,685857.3125,133007.90625,0.064208984375,1.00390625,-0.078369140625,-1.0070799589157104,-0.8850097060203552,0.7934569716453552,86.66667175292969,34927.0,1.0
18:10:10.430986,138064.140625,144039.65625,163615.578125,160108.59375,186805.703125,183825.5,685905.125,133005.578125,0.062744140625,1.003662109375,-0.0791015625,-0.9155272841453552,-0.7934569716453552,0.8850097060203552,86.66667175292969,34928.0,1.0
18:10:10.434060,138074.6875,144058.078125,163618.359375,160109.125,186805.875,183830.40625,685899.875,133003.25,0.0625,1.005615234375,-0.078369140625,-0.7629393935203552,-0.7019042372703552,1.0681151151657104,86.66667175292969,34929.0,1.0
18:10:10.434072,138091.671875,144083.375,163627.203125,160110.03125,186812.671875,183842.03125,686052.3125,132999.859375,0.0625,1.006591796875,-0.076416015625,-0.7019042372703552,-0.6408690810203552,0.9765624403953552,86.66667175292969,34930.0,1.0
18:10:10.461105,138087.65625,144080.328125,163634.359375,160108.421875,186826.703125,183858.390625,685888.625,133000.671875,0.063720703125,1.005615234375,-0.076904296875,-0.6713866591453552,-0.5493163466453552,0.9460448622703552,86.66667175292969,34931.0,1.0
18:10:10.469893,138073.96875,144054.765625,163625.421875,160118.15625,186814.8125,183844.8125,685890.875,133015.859375,0.062255859375,1.008544921875,-0.076904296875,-0.5493163466453552,-0.3356933295726776,1.0375975370407104,86.66667175292969,34932.0,1.0
18:10:10.472322,138077.8125,144057.53125,163623.53125,160118.609375,186809.453125,183834.4375,685891.5,133012.90625,0.062744140625,1.010009765625,-0.077392578125,-0.3967284858226776,-0.3051757514476776,0.9155272841453552,86.66667175292969,34933.0,1.0
18:10:10.478531,138091.671875,144080.609375,163626.484375,160115.65625,186810.53125,183838.90625,686033.125,133002.8125,0.063232421875,1.011474609375,-0.077880859375,-0.4272460639476776,-0.1220703050494194,0.8544921278953552,86.66667175292969,34934.0,1.0
18:10:10.480935,138087.921875,144079.890625,163632.125,160107.875,186822.6875,183852.859375,685931.25,132994.5,0.06396484375,1.01220703125,-0.076416015625,-0.3967284858226776,-0.0915527269244194,0.7324218153953552,86.66667175292969,34935.0,1.0
18:10:10.483472,138070.484375,144050.03125,163621.125,160109.390625,186807.75,183834.609375,685877.4375,132998.78125,0.063232421875,1.01123046875,-0.07763671875,-0.3662109076976776,0.0,0.7019042372703552,86.66667175292969,34936.0,1.0
18:10:10.488638,138069.5,144052.890625,163615.578125,160106.625,186797.921875,183827.109375,685915.625,132997.265625,0.060791015625,1.012939453125,-0.078857421875,-0.3967284858226776,0.0915527269244194,0.7324218153953552,86.66667175292969,34937.0,1.0
18:10:10.491087,138083.546875,144073.1875,163617.109375,160106.53125,186797.296875,183827.734375,686032.125,132992.4375,0.0615234375,1.01220703125,-0.079345703125,-0.3662109076976776,0.1831054538488388,0.7019042372703552,86.66667175292969,34938.0,1.0
18:10:10.493551,138094.0,144086.765625,163633.109375,160112.265625,186820.625,183851.421875,685984.375,132997.453125,0.062744140625,1.011474609375,-0.07666015625,-0.2746581733226776,0.2746581733226776,0.5187987685203552,86.66667175292969,34939.0,1.0
18:10:10.496214,138077.546875,144061.296875,163627.03125,160114.84375,186814.546875,183842.65625,685876.125,133003.25,0.060302734375,1.010498046875,-0.079345703125,-0.4272460639476776,0.3356933295726776,0.5798339247703552,86.66667175292969,34940.0,1.0
18:10:10.499145,138062.796875,144041.71875,163609.765625,160108.328125,186793.984375,183818.609375,685912.5625,133001.203125,0.061767578125,1.010498046875,-0.0810546875,-0.4577636420726776,0.4272460639476776,0.4272460639476776,86.66667175292969,34941.0,1.0
18:10:10.499167,138072.0,144057.71875,163607.984375,160101.984375,186790.859375,183817.53125,685995.4375,132990.921875,0.0625,1.01025390625,-0.077392578125,-0.5187987685203552,0.4577636420726776,0.4577636420726776,86.66667175292969,34942.0,1.0
18:10:10.510852,138081.390625,144068.71875,163620.328125,160104.03125,186808.375,183834.703125,686028.625,132993.15625,0.0625,1.010498046875,-0.079345703125,-0.6408690810203552,0.5493163466453552,0.5493163466453552,86.66667175292969,34943.0,1.0
18:10:10.510873,138063.0625,144042.96875,163613.4375,160102.78125,186803.1875,183827.28125,685866.875,132994.9375,0.062255859375,1.008544921875,-0.0810546875,-0.6408690810203552,0.5493163466453552,0.6103515028953552,86.66667175292969,34944.0,1.0
18:10:10.510878,138050.640625,144022.9375,163598.6875,160099.828125,186783.609375,183807.796875,685919.1875,132994.5,0.064208984375,1.00830078125,-0.08203125,-0.5798339247703552,0.7019042372703552,0.7019042372703552,86.66667175292969,34945.0,1.0
18:10:10.510881,138074.515625,144059.59375,163612.359375,160107.25,186795.140625,183826.125,685980.4375,132995.390625,0.0634765625,1.007568359375,-0.08203125,-0.5187987685203552,0.8544921278953552,0.6103515028953552,86.66667175292969,34946.0,1.0
18:10:10.511045,138086.9375,144076.046875,163622.46875,160106.625,186807.484375,183838.90625,686069.0625,132991.453125,0.062255859375,1.0078125,-0.07958984375,-0.5187987685203552,0.8850097060203552,0.7324218153953552,86.66667175292969,34947.0,1.0
18:10:10.517850,138077.8125,144063.171875,163626.40625,160108.953125,186813.921875,183843.015625,685882.625,132995.484375,0.057861328125,1.0087890625,-0.078857421875,-0.4882812201976776,0.9765624403953552,0.7629393935203552,86.66667175292969,34948.0,1.0
18:10:10.517874,138074.6875,144050.03125,163622.90625,160118.875,186805.609375,183831.03125,685937.3125,133011.125,0.05712890625,1.009521484375,-0.08056640625,-0.4272460639476776,1.0681151151657104,0.7019042372703552,86.66667175292969,34949.0,1.0
18:10:10.519855,138077.28125,144062.625,163617.546875,160108.953125,186798.546875,183826.390625,685955.75,133000.125,0.055419921875,1.009521484375,-0.0830078125,-0.4882812201976776,1.0681151151657104,0.7629393935203552,86.66667175292969,34950.0,1.0
18:10:10.523921,138084.53125,144075.6875,163619.609375,160104.21875,186802.296875,183830.328125,686086.0,132992.265625,0.055419921875,1.011962890625,-0.08056640625,-0.4882812201976776,0.9765624403953552,0.7324218153953552,86.66667175292969,34951.0,1.0
18:10:10.525368,138078.171875,144065.84375,163624.796875,160103.59375,186814.1875,183841.40625,685904.4375,132992.890625,0.055419921875,1.012451171875,-0.08056640625,-0.6103515028953552,0.9765624403953552,0.7629393935203552,86.66667175292969,34952.0,1.0
18:10:10.525448,138060.46875,144035.90625,163607.984375,160102.0625,186792.46875,183817.171875,685937.8125,132997.71875,0.052734375,1.009521484375,-0.079345703125,-0.6713866591453552,1.0070799589157104,0.5493163466453552,86.66667175292969,34953.0,1.0
18:10:10.527237,138076.03125,144062.984375,163617.546875,160108.0625,186799.171875,183832.203125,685961.125,133001.5625,0.053466796875,1.009765625,-0.079345703125,-0.7934569716453552,0.8544921278953552,0.4882812201976776,86.66667175292969,34954.0,1.0
18:10:10.552837,138090.6875,144083.375,163623.8125,160108.0625,186806.328125,183840.0625,686114.375,132997.625,0.050048828125,1.010986328125,-0.080810546875,-0.8239745497703552,0.6713866591453552,0.4882812201976776,86.66667175292969,34955.0,1.0
18:10:10.552870,138083.1875,144072.015625,163626.21875,160104.21875,186818.921875,183847.484375,685956.8125,132994.9375,0.050048828125,1.012939453125,-0.07861328125,-0.8850097060203552,0.5798339247703552,0.3662109076976776,86.66667175292969,34956.0,1.0
18:10:10.558602,138063.875,144040.1875,163611.46875,160106.171875,186800.25,183825.9375,685957.4375,133000.125,0.048583984375,1.014892578125,-0.07861328125,-0.9155272841453552,0.5187987685203552,0.1831054538488388,86.66667175292969,34957.0,1.0
18:10:10.569842,138060.390625,144039.203125,163602.53125,160101.34375,186786.921875,183813.0625,685967.375,132996.375,0.048583984375,1.0146484375,-0.076416015625,-1.0681151151657104,0.4577636420726776,0.1525878757238388,86.66667175292969,34958.0,1.0
18:10:10.569928,138078.71875,144067.109375,163610.390625,160103.234375,186792.28125,183822.984375,686115.6875,132993.15625,0.05078125,1.012939453125,-0.078369140625,-1.1291502714157104,0.3967284858226776,0.0610351525247097,86.66667175292969,34959.0,1.0
18:10:10.569961,138084.4375,144077.46875,163624.796875,160103.140625,186814.015625,183848.828125,686005.375,132991.640625,0.05322265625,1.012451171875,-0.080810546875,-1.2512205839157104,0.1831054538488388,0.1220703050494194,86.66667175292969,34960.0,1.0
18:10:10.573572,138069.140625,144048.859375,163615.578125,160105.734375,186801.859375,183831.84375,685944.75,132995.390625,0.053466796875,1.013427734375,-0.08056640625,-1.3732908964157104,0.2441406100988388,0.2746581733226776,86.66667175292969,34961.0,1.0
18:10:10.573629,138062.53125,144042.6875,163606.46875,160102.421875,186788.4375,183820.84375,685980.25,132993.6875,0.053466796875,1.014892578125,-0.08056640625,-1.4343260526657104,0.0610351525247097,0.3356933295726776,86.66667175292969,34962.0,1.0
18:10:10.573736,138080.5,144068.625,163612.90625,160103.859375,186791.390625,183823.265625,686111.125,132990.375,0.053466796875,1.01318359375,-0.08056640625,-1.4953612089157104,0.0,0.4577636420726776,86.66667175292969,34963.0,1.0
18:10:10.577233,138077.28125,144064.421875,163613.96875,160095.359375,186800.421875,183829.34375,686061.875,132982.421875,0.05419921875,1.0107421875,-0.08154296875,-1.5258787870407104,0.0915527269244194,0.4882812201976776,86.66667175292969,34964.0,1.0
18:10:10.577279,138066.203125,144043.328125,163612.0,160104.125,186798.453125,183825.5,685941.0,132992.265625,0.05224609375,1.010986328125,-0.081298828125,-1.6174315214157104,0.0,0.5798339247703552,86.66667175292969,34965.0,1.0
18:10:10.577290,138061.28125,144033.84375,163604.578125,160105.90625,186786.75,183812.625,685992.6875,132997.0,0.051025390625,1.00830078125,-0.07958984375,-1.7089842557907104,-0.1220703050494194,0.6713866591453552,86.66667175292969,34966.0,1.0
18:10:10.603574,138079.96875,144063.078125,163613.96875,160111.625,186793.890625,183823.34375,686089.125,132998.78125,0.052490234375,1.008056640625,-0.080322265625,-1.8310545682907104,-0.1220703050494194,0.7019042372703552,86.66667175292969,34967.0,1.0
18:10:10.628522,138083.09375,144073.546875,163618.265625,160104.75,186803.28125,183836.484375,686091.8125,132990.375,0.050537109375,1.009521484375,-0.0830078125,-1.9531248807907104,-0.1220703050494194,0.8850097060203552,86.66667175292969,34968.0,1.0
18:10:10.632834,138071.46875,144054.671875,163618.625,160107.703125,186806.859375,183836.484375,685924.9375,132996.1875,0.04931640625,1.010009765625,-0.080322265625,-1.9226073026657104,-0.3356933295726776,1.0070799589157104,86.66667175292969,34969.0,1.0
18:10:10.632854,138059.578125,144034.734375,163605.5625,160106.71875,186789.328125,183815.65625,685979.375,133001.015625,0.052001953125,1.01025390625,-0.080322265625,-2.044677495956421,-0.3967284858226776,1.1901854276657104,86.66667175292969,34970.0,1.0
18:10:10.635290,138070.9375,144056.828125,163608.96875,160105.375,186790.046875,183818.4375,686039.375,132998.421875,0.051025390625,1.01025390625,-0.080322265625,-2.014159917831421,-0.3662109076976776,1.1596678495407104,86.66667175292969,34971.0,1.0
18:10:10.635309,138083.8125,144076.84375,163619.515625,160105.828125,186803.1875,183833.1875,686125.125,132994.234375,0.0517578125,1.01123046875,-0.07763671875,-2.105712652206421,-0.4272460639476776,1.1901854276657104,86.66667175292969,34972.0,1.0
18:10:10.637186,138074.328125,144062.984375,163622.90625,160106.8125,186812.046875,183838.546875,685929.625,132996.28125,0.05126953125,1.01123046875,-0.079345703125,-2.105712652206421,-0.5187987685203552,1.2512205839157104,86.66667175292969,34973.0,1.0
18:10:10.639708,138060.390625,144036.53125,163609.140625,160107.34375,186793.0,183814.9375,685974.6875,133000.578125,0.05078125,1.010986328125,-0.078125,-2.136230230331421,-0.6408690810203552,1.2512205839157104,86.66667175292969,34974.0,1.0
18:10:10.642185,138070.21875,144052.625,163611.375,160106.8125,186791.65625,183815.125,686014.875,132996.1875,0.053466796875,1.009033203125,-0.07763671875,-2.227782964706421,-0.7629393935203552,1.1291502714157104,86.66667175292969,34975.0,1.0
18:10:10.644714,138082.375,144073.8125,163618.171875,160103.40625,186799.34375,183827.734375,686137.3125,132990.109375,0.054931640625,1.01123046875,-0.07861328125,-2.227782964706421,-0.7629393935203552,1.2512205839157104,86.66667175292969,34976.0,1.0
18:10:10.650938,138084.4375,144073.546875,163632.296875,160112.890625,186820.453125,183849.28125,685948.875,133000.84375,0.05810546875,1.010986328125,-0.07958984375,-2.227782964706421,-0.7934569716453552,1.1291502714157104,86.66667175292969,34977.0,1.0
18:10:10.653477,138075.046875,144050.203125,163624.25,160120.578125,186808.921875,183834.078125,685979.0625,133011.578125,0.05908203125,1.011474609375,-0.078857421875,-2.197265386581421,-0.8544921278953552,1.0375975370407104,86.66667175292969,34978.0,1.0
18:10:10.658448,138081.125,144066.65625,163626.046875,160119.5,186808.734375,183835.421875,685998.9375,133008.4375,0.0595703125,1.01123046875,-0.078369140625,-2.166747808456421,-0.8850097060203552,1.0375975370407104,86.66667175292969,34979.0,1.0
18:10:10.661002,138092.03125,144086.421875,163628.640625,160114.046875,186809.625,183835.78125,686148.0,132998.15625,0.06201171875,1.01123046875,-0.075927734375,-2.136230230331421,-0.7629393935203552,0.9460448622703552,86.66667175292969,34980.0,1.0
18:10:10.663483,138085.78125,144080.0625,163633.28125,160111.71875,186822.421875,183849.0,685979.875,132998.15625,0.062744140625,1.011962890625,-0.075927734375,-2.136230230331421,-0.7324218153953552,1.0070799589157104,86.66667175292969,34981.0,1.0
18:10:10.676564,138062.796875,144040.375,163613.53125,160110.109375,186797.921875,183818.875,685951.9375,133001.375,0.06494140625,1.011962890625,-0.072509765625,-2.166747808456421,-0.7019042372703552,1.0375975370407104,86.66667175292969,34982.0,1.0
18:10:10.676591,138071.5625,144056.109375,163616.65625,160111.546875,186797.03125,183823.703125,685977.5625,133002.625,0.06591796875,1.0107421875,-0.07568359375,-2.197265386581421,-0.4882812201976776,0.9765624403953552,86.66667175292969,34983.0,1.0
18:10:10.678524,138092.484375,144083.90625,163626.671875,160116.640625,186805.515625,183832.734375,686127.3125,133003.96875,0.06591796875,1.006591796875,-0.07666015625,-2.166747808456421,-0.4577636420726776,1.0375975370407104,86.66667175292969,34984.0,1.0
18:10:10.681230,138094.359375,144087.3125,163636.953125,160114.5,186825.09375,183851.6875,686014.6875,133003.25,0.064453125,1.00537109375,-0.076416015625,-2.075195074081421,-0.3662109076976776,0.9765624403953552,86.66667175292969,34985.0,1.0
18:10:10.691146,138072.546875,144053.328125,163622.5625,160111.625,186807.3125,183829.0625,685939.5625,132999.859375,0.064453125,1.007568359375,-0.075439453125,-2.044677495956421,-0.3356933295726776,1.0986326932907104,86.66667175292969,34986.0,1.0
18:10:10.694249,138068.15625,144048.859375,163614.15625,160107.875,186794.078125,183817.984375,685971.6875,132995.203125,0.0634765625,1.008056640625,-0.07470703125,-2.044677495956421,-0.2136230319738388,1.0070799589157104,86.66667175292969,34987.0,1.0
18:10:10.694320,138082.734375,144072.46875,163618.890625,160109.046875,186796.484375,183822.71875,686095.0625,132992.625,0.064208984375,1.005126953125,-0.07470703125,-1.8920897245407104,-0.1525878757238388,0.9765624403953552,86.66667175292969,34988.0,1.0
18:10:10.696200,138088.90625,144081.046875,163630.0625,160110.734375,186813.03125,183841.046875,686057.5,132994.140625,0.066162109375,1.00390625,-0.0751953125,-1.9226073026657104,-0.03051757626235485,1.0070799589157104,86.66667175292969,34989.0,1.0
18:10:10.698452,138075.765625,144058.703125,163625.59375,160115.390625,186808.734375,183834.875,685931.4375,133001.921875,0.06640625,1.004150390625,-0.074951171875,-1.8310545682907104,0.0915527269244194,0.9460448622703552,86.66667175292969,34990.0,1.0
18:10:10.700934,138066.203125,144045.203125,163613.34375,160111.625,186791.921875,183818.609375,685974.0,133001.296875,0.065185546875,1.0048828125,-0.07568359375,-1.8005369901657104,0.2746581733226776,0.8850097060203552,86.66667175292969,34991.0,1.0
18:10:10.703504,138077.8125,144067.375,163615.5,160106.71875,186791.390625,183821.921875,686064.5625,132992.53125,0.06591796875,1.005859375,-0.07666015625,-1.6479490995407104,0.3356933295726776,0.7629393935203552,86.66667175292969,34992.0,1.0
18:10:10.706534,138092.578125,144086.765625,163630.421875,160109.9375,186811.515625,183846.421875,686105.9375,132996.015625,0.06640625,1.00390625,-0.076904296875,-1.6479490995407104,0.4272460639476776,0.7629393935203552,86.66667175292969,34993.0,1.0
18:10:10.706552,138078.625,144062.28125,163627.921875,160114.046875,186813.296875,183844.984375,685939.375,133001.734375,0.065673828125,1.00537109375,-0.076171875,-1.6174315214157104,0.4882812201976776,0.6408690810203552,86.66667175292969,34994.0,1.0
18:10:10.708528,138072.640625,144049.484375,163619.96875,160118.25,186799.4375,183826.828125,685997.3125,133008.890625,0.063720703125,1.00537109375,-0.073974609375,-1.5258787870407104,0.4882812201976776,0.6713866591453552,86.66667175292969,34995.0,1.0
18:10:10.713447,138086.140625,144072.828125,163623.359375,160116.1875,186799.609375,183830.953125,686063.0625,133002.453125,0.061767578125,1.005859375,-0.074462890625,-1.4343260526657104,0.5798339247703552,0.6408690810203552,86.66667175292969,34996.0,1.0
18:10:10.716039,138093.640625,144086.0625,163629.4375,160114.578125,186809.90625,183841.9375,686150.5625,133002.09375,0.058837890625,1.00537109375,-0.074951171875,-1.3122557401657104,0.5187987685203552,0.5187987685203552,86.66667175292969,34997.0,1.0
18:10:10.719048,138090.0625,144080.609375,163638.734375,160122.1875,186825.09375,183856.96875,685957.875,133011.03125,0.05712890625,1.0078125,-0.07470703125,-1.3427733182907104,0.7019042372703552,0.4882812201976776,86.66667175292969,34998.0,1.0
18:10:10.719075,138075.046875,144056.90625,163622.90625,160120.578125,186802.75,183834.875,685996.875,133008.265625,0.055908203125,1.0078125,-0.07373046875,-1.2512205839157104,0.5798339247703552,0.4882812201976776,86.66667175292969,34999.0,1.0
18:10:10.720992,138080.859375,144067.734375,163619.515625,160115.484375,186796.84375,183827.109375,686040.6875,132999.40625,0.054931640625,1.009765625,-0.0771484375,-1.0986326932907104,0.5798339247703552,0.5187987685203552,86.66667175292969,35000.0,1.0
18:10:10.723620,138092.578125,144085.4375,163623.453125,160112.609375,186801.046875,183835.5,686169.625,132992.265625,0.055908203125,1.007568359375,-0.0732421875,-1.1291502714157104,0.4577636420726776,0.4272460639476776,86.66667175292969,35001.0,1.0
18:10:10.726606,138089.4375,144080.609375,163634.09375,160116.375,186818.84375,183852.578125,685974.1875,132998.78125,0.05419921875,1.007568359375,-0.0732421875,-1.1596678495407104,0.3356933295726776,0.4882812201976776,86.66667175292969,35002.0,1.0
18:10:10.726637,138081.3125,144060.125,163628.90625,160126.921875,186809.265625,183838.546875,685989.125,133015.0625,0.05224609375,1.008056640625,-0.075927734375,-1.1291502714157104,0.3356933295726776,0.4577636420726776,86.66667175292969,35003.0,1.0
18:10:10.728495,138081.21875,144065.84375,163622.828125,160119.40625,186800.15625,183832.640625,686019.25,133006.390625,0.0537109375,1.0087890625,-0.07470703125,-1.0986326932907104,0.2441406100988388,0.4882812201976776,86.66667175292969,35004.0,1.0
18:10:10.739142,138086.21875,144080.421875,163619.96875,160111.359375,186796.578125,183832.921875,686161.5625,132993.515625,0.0537109375,1.009033203125,-0.073486328125,-1.1291502714157104,0.1220703050494194,0.4882812201976776,86.66667175292969,35005.0,1.0
18:10:10.739163,138078.0,144072.109375,163622.640625,160105.734375,186807.03125,183841.671875,685998.125,132989.125,0.0546875,1.00830078125,-0.076416015625,-1.0681151151657104,0.0610351525247097,0.6103515028953552,86.66667175292969,35006.0,1.0
18:10:10.741015,138060.296875,144043.046875,163609.6875,160104.125,186789.15625,183822.359375,685978.5625,132991.453125,0.05419921875,1.007568359375,-0.074462890625,-0.9765624403953552,0.03051757626235485,0.5798339247703552,86.66667175292969,35007.0,1.0
18:10:10.748484,138056.625,144041.078125,163601.453125,160096.078125,186777.71875,183811.90625,686001.375,132983.765625,0.05517578125,1.010498046875,-0.073974609375,-1.0070799589157104,0.0,0.5798339247703552,86.66667175292969,35008.0,1.0
18:10:10.755316,138081.390625,144073.265625,163614.15625,160104.03125,186786.921875,183820.390625,686156.3125,132985.828125,0.055908203125,1.010009765625,-0.074951171875,-0.9460448622703552,-0.1220703050494194,0.6713866591453552,86.66667175292969,35009.0,1.0
18:10:10.755339,138097.046875,144092.140625,163638.015625,160115.390625,186818.484375,183854.46875,686052.125,133000.75,0.05810546875,1.009033203125,-0.07568359375,-0.9460448622703552,-0.1220703050494194,0.7019042372703552,86.66667175292969,35010.0,1.0
18:10:10.757801,138076.390625,144059.59375,163624.875,160114.578125,186803.28125,183836.140625,685973.125,133001.46875,0.0556640625,1.008056640625,-0.077880859375,-0.9765624403953552,-0.2136230319738388,0.6713866591453552,86.66667175292969,35011.0,1.0
18:10:10.757820,138076.203125,144057.984375,163619.609375,160115.5625,186795.59375,183827.734375,686006.875,133001.015625,0.056640625,1.008544921875,-0.07763671875,-0.9155272841453552,-0.0915527269244194,0.7324218153953552,86.66667175292969,35012.0,1.0
18:10:10.769729,138094.53125,144083.375,163627.390625,160117.4375,186800.59375,183833.0,686128.3125,132998.34375,0.056396484375,1.009521484375,-0.076416015625,-0.8850097060203552,-0.1220703050494194,0.7629393935203552,86.66667175292969,35013.0,1.0
18:10:10.772884,138092.21875,144084.984375,163630.953125,160110.109375,186809.90625,183843.640625,686087.8125,132991.8125,0.058349609375,1.01123046875,-0.076416015625,-0.8544921278953552,-0.1831054538488388,0.7934569716453552,86.66667175292969,35014.0,1.0
18:10:10.772909,138084.53125,144065.578125,163632.921875,160119.671875,186812.765625,183839.625,685961.8125,133004.421875,0.058837890625,1.01220703125,-0.07666015625,-0.8850097060203552,-0.2746581733226776,0.8850097060203552,86.66667175292969,35015.0,1.0
18:10:10.777213,138079.515625,144056.375,163623.8125,160119.765625,186799.890625,183827.109375,686013.5,133008.625,0.0595703125,1.00927734375,-0.073974609375,-0.8239745497703552,-0.2441406100988388,0.8544921278953552,86.66667175292969,35016.0,1.0
18:10:10.780934,138093.828125,144085.078125,163628.546875,160118.609375,186802.125,183836.484375,686099.375,133003.890625,0.060302734375,1.0078125,-0.078857421875,-0.7934569716453552,-0.1831054538488388,0.8544921278953552,86.66667175292969,35017.0,1.0
18:10:10.789777,138102.3125,144100.09375,163638.5625,160117.71875,186816.875,183856.875,686122.0625,133002.359375,0.062744140625,1.006591796875,-0.074951171875,-0.8239745497703552,-0.2441406100988388,0.8850097060203552,86.66667175292969,35018.0,1.0
18:10:10.792800,138077.640625,144066.75,163627.203125,160109.21875,186809.8125,183844.359375,685944.25,132998.34375,0.062744140625,1.00732421875,-0.0751953125,-0.8239745497703552,-0.2136230319738388,0.7629393935203552,86.66667175292969,35019.0,1.0
18:10:10.792827,138061.453125,144041.078125,163609.765625,160105.90625,186786.65625,183818.34375,685997.25,132996.375,0.061767578125,1.00732421875,-0.07373046875,-0.7934569716453552,-0.0915527269244194,0.8850097060203552,86.66667175292969,35020.0,1.0
18:10:10.797191,138068.4375,144057.265625,163607.359375,160099.5625,186780.3125,183814.3125,686041.75,132984.921875,0.059814453125,1.00732421875,-0.076904296875,-0.7629393935203552,-0.0915527269244194,0.8850097060203552,86.66667175292969,35021.0,1.0
18:10:10.805289,138080.40625,144076.765625,163613.796875,160097.78125,186790.3125,183830.046875,686140.375,132982.6875,0.060546875,1.0087890625,-0.077880859375,-0.7324218153953552,0.0,0.8544921278953552,86.66667175292969,35022.0,1.0
18:10:10.811578,138090.25,144085.4375,163636.953125,160119.328125,186821.078125,183861.171875,685964.0625,133008.890625,0.06201171875,1.009033203125,-0.076904296875,-0.7019042372703552,0.0,0.8850097060203552,86.66667175292969,35023.0,1.0
18:10:10.811607,138062.078125,144044.9375,163610.125,160107.609375,186791.390625,183825.5,685995.125,133001.015625,0.0615234375,1.010986328125,-0.075927734375,-0.7629393935203552,-0.0915527269244194,0.8239745497703552,86.66667175292969,35024.0,1.0
18:10:10.816033,138064.671875,144053.953125,163603.515625,160098.9375,186782.71875,183818.78125,686023.0,132986.984375,0.060546875,1.012939453125,-0.07421875,-0.8239745497703552,-0.03051757626235485,0.8239745497703552,86.66667175292969,35025.0,1.0
18:10:10.819095,138082.375,144078.453125,163613.796875,160101.890625,186792.28125,183829.96875,686162.5625,132985.546875,0.059326171875,1.012939453125,-0.07275390625,-0.8850097060203552,-0.0915527269244194,0.7934569716453552,86.66667175292969,35026.0,1.0
18:10:10.819112,138071.921875,144068.4375,163616.65625,160097.859375,186802.390625,183840.875,685961.1875,132984.75,0.059814453125,1.013671875,-0.07666015625,-1.0681151151657104,-0.1220703050494194,0.7934569716453552,86.66667175292969,35027.0,1.0
18:10:10.832510,138059.125,144043.234375,163606.375,160103.5,186787.90625,183821.65625,685971.75,132994.40625,0.05908203125,1.01123046875,-0.07568359375,-1.0681151151657104,-0.0915527269244194,0.7019042372703552,86.66667175292969,35028.0,1.0
18:10:10.838550,138062.078125,144050.734375,163602.796875,160099.390625,186782.265625,183816.828125,685990.5625,132990.203125,0.058837890625,1.010498046875,-0.076171875,-1.0375975370407104,-0.0915527269244194,0.7324218153953552,86.66667175292969,35029.0,1.0
18:10:10.841108,138069.59375,144065.671875,163601.984375,160093.125,186780.9375,183815.921875,686138.3125,132980.90625,0.059814453125,1.0087890625,-0.073974609375,-1.0986326932907104,-0.1220703050494194,0.7629393935203552,86.66667175292969,35030.0,1.0
18:10:10.843536,138065.484375,144063.265625,163608.421875,160089.734375,186795.328125,183830.59375,685979.4375,132978.046875,0.058837890625,1.011474609375,-0.0732421875,-1.1291502714157104,0.03051757626235485,0.6713866591453552,86.66667175292969,35031.0,1.0
18:10:10.845931,138048.21875,144032.328125,163595.015625,160091.78125,186777.53125,183808.15625,685945.375,132983.3125,0.0615234375,1.01220703125,-0.0751953125,-1.1291502714157104,0.03051757626235485,0.6408690810203552,86.66667175292969,35032.0,1.0
18:10:10.849055,138053.671875,144044.75,163596.09375,160094.015625,186773.953125,183809.484375,685959.625,132986.265625,0.0615234375,1.01171875,-0.075927734375,-1.1901854276657104,0.03051757626235485,0.5493163466453552,86.66667175292969,35033.0,1.0
18:10:10.849078,138074.25,144070.859375,163606.546875,160099.109375,186782.1875,183817.265625,686096.125,132985.734375,0.0625,1.01025390625,-0.073486328125,-1.1291502714157104,0.0610351525247097,0.5798339247703552,86.66667175292969,35034.0,1.0
18:10:10.856029,138067.53125,144066.65625,163609.0625,160089.28125,186792.375,183826.484375,686002.625,132977.6875,0.062744140625,1.01123046875,-0.0751953125,-1.1596678495407104,0.1220703050494194,0.4882812201976776,86.66667175292969,35035.0,1.0
18:10:10.862843,138049.390625,144036.96875,163597.875,160090.171875,186779.765625,183810.390625,685918.1875,132983.40625,0.06298828125,1.010498046875,-0.073974609375,-1.0681151151657104,0.2441406100988388,0.5798339247703552,86.66667175292969,35036.0,1.0
18:10:10.862864,138051.4375,144037.6875,163596.984375,160096.796875,186773.953125,183805.203125,685956.5625,132993.25,0.0634765625,1.009521484375,-0.078125,-1.2207030057907104,0.2136230319738388,0.5493163466453552,86.66667175292969,35037.0,1.0
18:10:10.864710,138076.484375,144071.21875,163611.296875,160104.296875,186784.859375,183819.234375,686073.125,132993.15625,0.060546875,1.009765625,-0.076416015625,-1.0681151151657104,0.1525878757238388,0.6103515028953552,86.66667175292969,35038.0,1.0
18:10:10.875385,138083.984375,144084.453125,163624.171875,160103.59375,186804.4375,183843.46875,686056.9375,132991.015625,0.060546875,1.007080078125,-0.078369140625,-1.0375975370407104,0.3662109076976776,0.6103515028953552,86.66667175292969,35039.0,1.0
18:10:10.875478,138069.0625,144061.65625,163619.34375,160107.078125,186800.953125,183835.421875,685929.1875,132996.8125,0.060302734375,1.005615234375,-0.077392578125,-1.0070799589157104,0.2746581733226776,0.6713866591453552,86.66667175292969,35040.0,1.0
18:10:10.877226,138057.078125,144043.328125,163604.40625,160102.6875,186780.9375,183812.078125,685966.375,132995.296875,0.058837890625,1.00439453125,-0.075439453125,-0.8544921278953552,0.3051757514476776,0.7934569716453552,86.66667175292969,35041.0,1.0
18:10:10.883699,138069.859375,144062.984375,163606.375,160101.625,186779.328125,183810.390625,686037.1875,132988.59375,0.05615234375,1.003173828125,-0.077880859375,-0.7934569716453552,0.2441406100988388,0.8544921278953552,86.66667175292969,35042.0,1.0
18:10:10.890414,138087.203125,144085.25,163622.46875,160107.609375,186799.4375,183835.859375,686100.3125,132991.546875,0.055419921875,1.001708984375,-0.07763671875,-0.8239745497703552,0.3356933295726776,0.7629393935203552,86.66667175292969,35043.0,1.0
18:10:10.890443,138068.875,144060.3125,163616.390625,160103.859375,186797.46875,183830.5,685916.75,132991.1875,0.05517578125,1.00244140625,-0.076416015625,-0.7019042372703552,0.2136230319738388,0.7629393935203552,86.66667175292969,35044.0,1.0
18:10:10.903040,138048.3125,144030.984375,163595.734375,160096.25,186772.171875,183801.53125,685951.0,132987.609375,0.05322265625,1.00390625,-0.07275390625,-0.7019042372703552,0.2136230319738388,0.7324218153953552,86.66667175292969,35045.0,1.0
18:10:10.903070,138063.6875,144056.1875,163603.25,160098.765625,186776.1875,183806.890625,685977.75,132986.265625,0.054443359375,1.00390625,-0.073974609375,-0.7629393935203552,0.0915527269244194,0.6408690810203552,86.66667175292969,35046.0,1.0
18:10:10.905304,138087.109375,144086.0625,163622.28125,160106.71875,186796.84375,183831.75,686092.5625,132991.09375,0.05322265625,1.003662109375,-0.079345703125,-0.7019042372703552,0.03051757626235485,0.5798339247703552,86.66667175292969,35047.0,1.0
18:10:10.905326,138076.828125,144074.4375,163626.40625,160106.0,186807.03125,183842.578125,685899.4375,132992.34375,0.05517578125,1.004150390625,-0.0830078125,-0.6408690810203552,-0.1831054538488388,0.4577636420726776,86.66667175292969,35048.0,1.0
18:10:10.911031,138066.375,144053.953125,163616.65625,160111.09375,186791.84375,183825.40625,685942.8125,133002.1875,0.0576171875,1.004638671875,-0.0849609375,-0.5493163466453552,-0.2441406100988388,0.5493163466453552,86.66667175292969,35049.0,1.0
18:10:10.919130,138079.515625,144072.640625,163621.390625,160117.09375,186794.703125,183826.828125,685956.125,133006.390625,0.060791015625,1.009765625,-0.084228515625,-0.3967284858226776,-0.2441406100988388,0.6103515028953552,86.66667175292969,35050.0,1.0
18:10:10.919192,138090.78125,144089.71875,163625.59375,160113.515625,186798.71875,183832.203125,686103.25,132996.546875,0.0634765625,1.01025390625,-0.084716796875,-0.3356933295726776,-0.1220703050494194,0.7019042372703552,86.66667175292969,35051.0,1.0
18:10:10.921595,138078.890625,144074.703125,163625.59375,160104.296875,186805.515625,183835.78125,685930.875,132988.234375,0.06640625,1.01318359375,-0.0849609375,-0.3662109076976776,-0.03051757626235485,0.9155272841453552,86.66667175292969,35052.0,1.0
18:10:10.921623,138066.46875,144051.71875,163616.46875,160109.9375,186791.75,183819.765625,685952.625,132996.8125,0.06640625,1.012451171875,-0.085205078125,-0.3967284858226776,-0.0610351525247097,0.9765624403953552,86.66667175292969,35053.0,1.0
18:10:10.932239,138073.703125,144064.875,163617.28125,160111.71875,186792.015625,183819.6875,685966.75,132999.6875,0.066162109375,1.01123046875,-0.083251953125,-0.3356933295726776,-0.0610351525247097,0.9460448622703552,86.66667175292969,35054.0,1.0
18:10:10.935490,138094.1875,144093.921875,163629.171875,160117.359375,186803.28125,183831.578125,686125.625,133002.1875,0.066162109375,1.009033203125,-0.0849609375,-0.2441406100988388,0.1220703050494194,1.0375975370407104,86.66667175292969,35055.0,1.0
18:10:10.935566,138085.953125,144086.234375,163632.75,160109.9375,186814.8125,183842.84375,685976.3125,132997.09375,0.06396484375,1.007080078125,-0.08642578125,-0.1220703050494194,0.2441406100988388,0.9460448622703552,86.66667175292969,35056.0,1.0
18:10:10.937640,138071.734375,144061.734375,163625.140625,160116.734375,186803.015625,183829.515625,685929.75,133006.828125,0.0625,1.0078125,-0.083984375,-0.03051757626235485,0.3051757514476776,0.8239745497703552,86.66667175292969,35057.0,1.0
18:10:10.948051,138068.609375,144057.796875,163617.109375,160112.96875,186792.546875,183816.546875,685941.125,133005.046875,0.06103515625,1.009033203125,-0.0830078125,0.03051757626235485,0.2441406100988388,0.8544921278953552,86.66667175292969,35058.0,1.0
18:10:10.973035,138086.3125,144085.703125,163624.609375,160115.65625,186798.09375,183824.515625,686072.0,133002.625,0.060546875,1.010498046875,-0.078369140625,-0.03051757626235485,0.3051757514476776,0.6408690810203552,86.66667175292969,35059.0,1.0
18:10:10.973083,138093.640625,144094.375,163638.375,160119.5,186818.75,183843.828125,685989.4375,133005.765625,0.059326171875,1.011962890625,-0.077880859375,0.0,0.3051757514476776,0.4577636420726776,86.66667175292969,35060.0,1.0
18:10:11.009741,138080.140625,144069.78125,163631.40625,160124.15625,186810.34375,183834.078125,685890.5,133013.625,0.058837890625,1.01123046875,-0.07861328125,-0.0915527269244194,0.3051757514476776,0.3356933295726776,86.66667175292969,35061.0,1.0
18:10:11.013450,138079.96875,144066.75,163627.828125,160127.28125,186802.125,183826.203125,685913.625,133022.21875,0.056396484375,1.01171875,-0.0810546875,-0.1525878757238388,0.3356933295726776,0.1525878757238388,86.66667175292969,35062.0,1.0
18:10:11.013471,138089.703125,144085.515625,163626.9375,160120.65625,186799.609375,183825.3125,686001.5625,133009.421875,0.057373046875,1.01220703125,-0.082275390625,-0.2746581733226776,0.3356933295726776,0.2136230319738388,86.66667175292969,35063.0,1.0
18:10:11.013475,138097.9375,144099.46875,163639.359375,160119.046875,186818.65625,183847.671875,686009.3125,133005.3125,0.060302734375,1.01220703125,-0.08203125,-0.4272460639476776,0.1831054538488388,0.1220703050494194,86.66667175292969,35064.0,1.0
18:10:11.017267,138079.609375,144069.78125,163632.21875,160118.875,186813.46875,183833.625,685871.1875,133007.90625,0.06201171875,1.0146484375,-0.082763671875,-0.4882812201976776,0.3051757514476776,0.0915527269244194,86.66667175292969,35065.0,1.0
18:10:11.017284,138070.390625,144054.578125,163619.609375,160116.546875,186794.609375,183814.40625,685921.1875,133009.515625,0.0615234375,1.0146484375,-0.08251953125,-0.5493163466453552,0.2441406100988388,0.1220703050494194,86.66667175292969,35066.0,1.0
18:10:11.017287,138088.640625,144084.09375,163628.8125,160119.59375,186800.515625,183828.890625,685991.1875,133007.453125,0.062255859375,1.014892578125,-0.07763671875,-0.6713866591453552,0.2441406100988388,0.2136230319738388,86.66667175292969,35067.0,1.0
18:10:11.021592,138094.09375,144098.3125,163634.53125,160114.21875,186811.421875,183845.515625,686065.1875,133000.75,0.0615234375,1.01318359375,-0.08203125,-0.7019042372703552,0.2441406100988388,0.1831054538488388,86.66667175292969,35068.0,1.0
18:10:11.021621,138078.71875,144077.03125,163631.859375,160113.953125,186812.671875,183840.328125,685893.8125,133003.25,0.060791015625,1.013916015625,-0.081787109375,-0.7324218153953552,0.3051757514476776,0.3051757514476776,86.66667175292969,35069.0,1.0
18:10:11.021625,138060.390625,144049.21875,163612.453125,160107.96875,186788.4375,183814.59375,685943.9375,133002.984375,0.059814453125,1.013916015625,-0.080078125,-0.8850097060203552,0.2746581733226776,0.3356933295726776,86.66667175292969,35070.0,1.0
18:10:11.021628,138071.03125,144071.125,163614.15625,160105.90625,186788.625,183819.6875,685978.3125,132999.59375,0.058349609375,1.01513671875,-0.080078125,-1.0375975370407104,0.2746581733226776,0.2136230319738388,86.66667175292969,35071.0,1.0
18:10:11.023462,138081.3125,144085.078125,163619.78125,160104.5625,186797.203125,183827.640625,686092.9375,132995.484375,0.0595703125,1.014404296875,-0.079345703125,-1.2207030057907104,0.3662109076976776,0.2136230319738388,86.66667175292969,35072.0,1.0
18:10:11.026006,138074.875,144075.59375,163625.59375,160106.53125,186808.375,183837.828125,685890.5,132998.609375,0.059326171875,1.01416015625,-0.078369140625,-1.2817381620407104,0.4577636420726776,0.1831054538488388,86.66667175292969,35073.0,1.0
18:10:11.030424,138059.125,144047.703125,163610.21875,160107.4375,186787.09375,183811.546875,685920.875,133004.59375,0.05712890625,1.011474609375,-0.077392578125,-1.4038084745407104,0.2746581733226776,0.1525878757238388,86.66667175292969,35074.0,1.0
18:10:11.030963,138064.859375,144064.234375,163609.0625,160104.5625,186785.3125,183812.703125,685915.4375,133001.921875,0.05615234375,1.01171875,-0.078369140625,-1.5258787870407104,0.3662109076976776,0.1831054538488388,86.66667175292969,35075.0,1.0
18:10:11.034090,138083.890625,144087.3125,163621.65625,160110.03125,186797.375,183825.84375,686060.8125,132998.96875,0.056884765625,1.01025390625,-0.079345703125,-1.6479490995407104,0.3356933295726776,0.2136230319738388,86.66667175292969,35076.0,1.0
18:10:11.034109,138073.53125,144075.15625,163622.5625,160102.6875,186805.25,183833.8125,685877.8125,132991.015625,0.057861328125,1.0107421875,-0.0810546875,-1.7700194120407104,0.2136230319738388,0.1525878757238388,86.66667175292969,35077.0,1.0
18:10:11.036561,138061.375,144052.96875,163611.734375,160105.828125,186788.984375,183817.265625,685890.6875,132997.625,0.05712890625,1.009033203125,-0.078125,-1.7700194120407104,0.0,0.2441406100988388,86.66667175292969,35078.0,1.0
18:10:11.036589,138074.6875,144067.1875,163619.25,160113.953125,186794.34375,183820.125,685900.4375,133007.09375,0.05517578125,1.00927734375,-0.077392578125,-1.9531248807907104,0.0915527269244194,0.1525878757238388,86.66667175292969,35079.0,1.0
18:10:11.038557,138080.328125,144079.703125,163615.765625,160107.15625,186790.59375,183819.140625,686047.375,132994.765625,0.053955078125,1.008544921875,-0.0751953125,-2.014159917831421,-0.03051757626235485,0.2136230319738388,86.66667175292969,35080.0,1.0
18:10:11.041149,138073.796875,144076.3125,163619.78125,160100.8125,186802.296875,183832.640625,685918.1875,132990.46875,0.05322265625,1.008544921875,-0.076904296875,-2.075195074081421,-0.1220703050494194,0.1220703050494194,86.66667175292969,35081.0,1.0
18:10:11.044047,138058.78125,144049.9375,163610.578125,160105.375,186789.515625,183819.953125,685881.8125,132997.265625,0.055419921875,1.00732421875,-0.080078125,-2.136230230331421,-0.1525878757238388,0.1831054538488388,86.66667175292969,35082.0,1.0
18:10:11.044059,138054.390625,144046.359375,163601.640625,160099.828125,186777.359375,183806.625,685900.9375,132993.25,0.054443359375,1.009033203125,-0.078369140625,-2.166747808456421,-0.1831054538488388,0.03051757626235485,86.66667175292969,35083.0,1.0
18:10:11.059096,138069.953125,144070.671875,163605.5625,160098.3125,186779.328125,183808.859375,686030.25,132987.609375,0.053955078125,1.00634765625,-0.0791015625,-2.227782964706421,-0.1831054538488388,-0.0915527269244194,86.66667175292969,35084.0,1.0
18:10:11.059124,138078.359375,144083.28125,163621.75,160102.78125,186801.671875,183834.4375,685980.1875,132991.453125,0.054931640625,1.005859375,-0.080322265625,-2.258300542831421,-0.3356933295726776,-0.1525878757238388,86.66667175292969,35085.0,1.0
18:10:11.062193,138060.65625,144052.796875,163612.625,160105.109375,186790.40625,183817.0,685877.625,132997.265625,0.055908203125,1.0029296875,-0.079345703125,-2.288818120956421,-0.3662109076976776,-0.2136230319738388,86.66667175292969,35086.0,1.0
18:10:11.062214,138053.59375,144039.75,163601.28125,160104.125,186774.671875,183797.6875,685903.625,132998.609375,0.056396484375,1.001708984375,-0.079833984375,-2.166747808456421,-0.3662109076976776,-0.1220703050494194,86.66667175292969,35087.0,1.0
18:10:11.069999,138072.359375,144068.4375,163609.234375,160106.265625,186779.5,183806.546875,686001.0625,132993.6875,0.05859375,1.001220703125,-0.08203125,-2.105712652206421,-0.4272460639476776,-0.0915527269244194,86.66667175292969,35088.0,1.0
18:10:11.075000,138076.921875,144081.671875,163617.90625,160101.34375,186794.703125,183826.296875,686006.0,132987.96875,0.05859375,1.00244140625,-0.0830078125,-2.075195074081421,-0.3356933295726776,0.03051757626235485,86.66667175292969,35089.0,1.0
18:10:11.101578,138061.453125,144057.796875,163614.515625,160103.046875,186792.90625,183820.390625,685842.125,132993.25,0.058837890625,1.003173828125,-0.081298828125,-1.8310545682907104,-0.3051757514476776,-0.03051757626235485,86.66667175292969,35090.0,1.0
18:10:11.101596,138043.578125,144031.96875,163594.125,160094.5625,186767.25,183791.34375,685877.8125,132988.6875,0.060546875,1.002685546875,-0.081298828125,-1.8005369901657104,-0.3662109076976776,0.0915527269244194,86.66667175292969,35091.0,1.0
18:10:11.107224,138066.640625,144068.890625,163608.25,160101.0,186779.5,183807.96875,685938.3125,132992.265625,0.060546875,1.004638671875,-0.0791015625,-1.7395018339157104,-0.3662109076976776,0.2441406100988388,86.66667175292969,35092.0,1.0
18:10:11.109798,138083.453125,144094.375,163624.25,160106.09375,186800.59375,183834.875,686028.0625,132994.9375,0.0595703125,1.005615234375,-0.079833984375,-1.6479490995407104,-0.3051757514476776,0.3662109076976776,86.66667175292969,35093.0,1.0
18:10:11.115971,138073.703125,144076.484375,163627.296875,160110.921875,186808.828125,183839.0,685853.5625,133000.75,0.05908203125,1.00732421875,-0.078369140625,-1.5563963651657104,-0.3356933295726776,0.4882812201976776,86.66667175292969,35094.0,1.0
18:10:11.115996,138049.921875,144037.953125,163602.34375,160103.234375,186777.09375,183801.625,685899.4375,132995.921875,0.058837890625,1.0068359375,-0.08251953125,-1.3732908964157104,-0.3356933295726776,0.5798339247703552,86.66667175292969,35095.0,1.0
18:10:11.117200,138063.6875,144060.484375,163606.734375,160103.9375,186778.703125,183811.375,685928.75,132993.15625,0.056396484375,1.0087890625,-0.081298828125,-1.2817381620407104,-0.3356933295726776,0.6713866591453552,86.66667175292969,35096.0,1.0
18:10:11.119787,138075.046875,144079.078125,163612.8125,160100.28125,186786.03125,183818.078125,686068.3125,132985.28125,0.057373046875,1.009521484375,-0.080810546875,-1.1596678495407104,-0.3051757514476776,0.7019042372703552,86.66667175292969,35097.0,1.0
18:10:11.122257,138061.453125,144062.71875,163612.09375,160096.078125,186793.0,183823.34375,685882.1875,132984.75,0.05615234375,1.01025390625,-0.0830078125,-1.2207030057907104,-0.2441406100988388,0.7019042372703552,86.66667175292969,35098.0,1.0
18:10:11.126548,138046.703125,144036.796875,163597.875,160098.671875,186773.515625,183800.28125,685917.9375,132995.203125,0.056884765625,1.010009765625,-0.083984375,-1.0986326932907104,-0.2746581733226776,0.7019042372703552,86.66667175292969,35099.0,1.0
18:10:11.127254,138057.078125,144057.09375,163600.296875,160099.109375,186773.0625,183805.46875,685932.25,132991.359375,0.056396484375,1.009765625,-0.08056640625,-1.0375975370407104,-0.3051757514476776,0.7629393935203552,86.66667175292969,35100.0,1.0
18:10:11.129743,138070.84375,144078.71875,163606.109375,160096.4375,186778.703125,183816.90625,686081.1875,132981.984375,0.056884765625,1.01123046875,-0.08349609375,-1.0070799589157104,-0.4272460639476776,0.7934569716453552,86.66667175292969,35101.0,1.0
18:10:11.133400,138067.09375,144075.0625,163614.15625,160096.703125,186794.96875,183834.875,685909.375,132983.5,0.05615234375,1.01220703125,-0.081787109375,-1.0375975370407104,-0.2746581733226776,0.7324218153953552,86.66667175292969,35102.0,1.0
18:10:11.133424,138043.21875,144033.03125,163592.96875,160093.390625,186769.125,183799.65625,685900.5,132986.984375,0.057861328125,1.013427734375,-0.081787109375,-1.0681151151657104,-0.3662109076976776,0.7324218153953552,86.66667175292969,35103.0,1.0
18:10:11.134737,138042.859375,144034.734375,163587.421875,160090.265625,186761.703125,183791.703125,685907.125,132984.03125,0.056884765625,1.01611328125,-0.078857421875,-1.0986326932907104,-0.3051757514476776,0.7324218153953552,86.66667175292969,35104.0,1.0
18:10:11.138222,138067.0,144069.875,163602.34375,160096.609375,186775.296875,183808.5,686060.875,132987.15625,0.056640625,1.016357421875,-0.0830078125,-1.1901854276657104,-0.2441406100988388,0.5798339247703552,86.66667175292969,35105.0,1.0
18:10:11.138258,138061.1875,144065.578125,163605.65625,160090.4375,186786.109375,183819.953125,685931.625,132981.171875,0.05908203125,1.01611328125,-0.082763671875,-1.1901854276657104,-0.2746581733226776,0.5493163466453552,86.66667175292969,35106.0,1.0
18:10:11.139817,138049.46875,144037.421875,163600.734375,160101.4375,186777.984375,183803.046875,685876.25,132994.140625,0.0576171875,1.01416015625,-0.078369140625,-1.2512205839157104,-0.2441406100988388,0.4882812201976776,86.66667175292969,35107.0,1.0
18:10:11.150353,138049.828125,144038.9375,163596.09375,160100.90625,186768.859375,183796.703125,685903.25,132992.703125,0.05810546875,1.0126953125,-0.078369140625,-1.3122557401657104,-0.2136230319738388,0.4882812201976776,86.66667175292969,35108.0,1.0
18:10:11.150384,138068.515625,144070.671875,163603.875,160101.625,186773.953125,183807.96875,686041.75,132987.15625,0.0595703125,1.01220703125,-0.076171875,-1.4343260526657104,-0.1525878757238388,0.4272460639476776,86.66667175292969,35109.0,1.0
18:10:11.157946,138070.21875,144074.171875,163613.796875,160098.125,186792.28125,183826.75,685995.75,132986.265625,0.059814453125,1.0107421875,-0.080078125,-1.4953612089157104,-0.0915527269244194,0.4577636420726776,86.66667175292969,35110.0,1.0
18:10:11.157974,138054.484375,144047.609375,163607.796875,160101.703125,186785.140625,183812.0,685896.75,132993.59375,0.062255859375,1.009033203125,-0.08349609375,-1.5563963651657104,-0.03051757626235485,0.5187987685203552,86.66667175292969,35111.0,1.0
18:10:11.164217,138045.625,144034.296875,163595.203125,160097.6875,186768.5,183789.546875,685936.25,132994.765625,0.065185546875,1.008056640625,-0.078857421875,-1.5869139432907104,-0.03051757626235485,0.5798339247703552,86.66667175292969,35112.0,1.0
18:10:11.164242,138063.421875,144060.484375,163602.171875,160098.484375,186772.078125,183796.53125,686029.625,132990.921875,0.06591796875,1.008056640625,-0.08349609375,-1.5869139432907104,0.1220703050494194,0.5798339247703552,86.66667175292969,35113.0,1.0
18:10:11.171006,138070.125,144072.28125,163611.375,160094.203125,186785.40625,183814.5,686040.4375,132982.96875,0.06494140625,1.00732421875,-0.0830078125,-1.4953612089157104,0.2136230319738388,0.6408690810203552,86.66667175292969,35114.0,1.0
18:10:11.179115,138059.765625,144051.90625,163612.8125,160101.0,186789.15625,183813.0625,685893.8125,132990.5625,0.06494140625,1.008544921875,-0.0849609375,-1.4648436307907104,0.2746581733226776,0.7019042372703552,86.66667175292969,35115.0,1.0
18:10:11.179131,138054.484375,144042.609375,163605.203125,160103.59375,186776.90625,183801.0,685955.25,132996.546875,0.06298828125,1.008544921875,-0.083740234375,-1.4648436307907104,0.4577636420726776,0.6408690810203552,86.66667175292969,35116.0,1.0
18:10:11.185326,138074.515625,144074.4375,163616.296875,160108.859375,186785.84375,183813.421875,686017.875,132997.796875,0.0625,1.00927734375,-0.08349609375,-1.4038084745407104,0.5187987685203552,0.7019042372703552,86.66667175292969,35117.0,1.0
18:10:11.185347,138082.28125,144088.109375,163622.109375,160104.21875,186795.859375,183826.03125,686097.3125,132992.078125,0.060302734375,1.0068359375,-0.084228515625,-1.4343260526657104,0.5798339247703552,0.5187987685203552,86.66667175292969,35118.0,1.0
18:10:11.187236,138066.828125,144066.203125,163618.171875,160101.703125,186795.953125,183825.578125,685915.5,132992.171875,0.060546875,1.0087890625,-0.084716796875,-1.4648436307907104,0.7324218153953552,0.4882812201976776,86.66667175292969,35119.0,1.0
18:10:11.198515,138049.65625,144037.59375,163598.953125,160098.046875,186770.109375,183796.703125,685973.5625,132991.90625,0.060546875,1.01025390625,-0.07958984375,-1.5258787870407104,0.7934569716453552,0.3967284858226776,86.66667175292969,35120.0,1.0
18:10:11.203511,138070.84375,144070.328125,163611.5625,160107.4375,186780.390625,183811.1875,686016.625,132997.0,0.05859375,1.011962890625,-0.078369140625,-1.4953612089157104,0.7324218153953552,0.3356933295726776,86.66667175292969,35121.0,1.0
18:10:11.203615,138086.3125,144093.125,163622.640625,160110.03125,186792.46875,183827.546875,686139.5,132995.65625,0.0556640625,1.009521484375,-0.0810546875,-1.5258787870407104,0.7019042372703552,0.3051757514476776,86.66667175292969,35122.0,1.0
18:10:11.203631,138078.71875,144080.78125,163627.203125,160111.1875,186803.1875,183838.453125,685932.6875,132997.890625,0.0546875,1.007568359375,-0.081787109375,-1.6479490995407104,0.6103515028953552,0.0915527269244194,86.66667175292969,35123.0,1.0
18:10:11.208491,138057.609375,144045.640625,163607.625,160109.84375,186778.609375,183808.421875,685958.25,133001.734375,0.052001953125,1.0068359375,-0.083984375,-1.6479490995407104,0.6103515028953552,0.1220703050494194,86.66667175292969,35124.0,1.0
18:10:11.210969,138059.671875,144052.34375,163602.96875,160105.203125,186771.546875,183797.15625,685992.4375,132996.8125,0.049560546875,1.0078125,-0.078125,-1.7089842557907104,0.4882812201976776,0.0610351525247097,86.66667175292969,35125.0,1.0
18:10:11.214752,138078.71875,144079.890625,163613.4375,160107.703125,186781.46875,183810.296875,686142.375,132993.15625,0.0478515625,1.00927734375,-0.077392578125,-1.6784666776657104,0.3662109076976776,-0.1220703050494194,86.66667175292969,35126.0,1.0
18:10:11.233809,138084.53125,144088.203125,163632.03125,160115.484375,186807.484375,183838.8125,685965.875,133000.484375,0.04833984375,1.008056640625,-0.075927734375,-1.7395018339157104,0.1525878757238388,-0.1831054538488388,86.66667175292969,35127.0,1.0
18:10:11.233836,138056.625,144048.328125,163607.265625,160109.21875,186779.765625,183810.203125,685948.4375,132997.71875,0.051025390625,1.00927734375,-0.0771484375,-1.8615721464157104,0.1220703050494194,-0.1525878757238388,86.66667175292969,35128.0,1.0
18:10:11.240933,138048.046875,144040.734375,163591.0,160096.34375,186760.375,183788.921875,685967.5,132985.828125,0.052978515625,1.009765625,-0.075927734375,-1.8920897245407104,0.1220703050494194,-0.0610351525247097,86.66667175292969,35129.0,1.0
18:10:11.240957,138071.375,144073.8125,163603.78125,160101.703125,186770.203125,183803.234375,686127.5,132986.890625,0.052734375,1.010009765625,-0.077392578125,-1.8920897245407104,0.0,0.0610351525247097,86.66667175292969,35130.0,1.0
18:10:11.240965,138075.578125,144081.3125,163618.0,160102.78125,186790.3125,183826.390625,685998.5625,132987.4375,0.052490234375,1.009521484375,-0.076904296875,-1.9226073026657104,-0.2136230319738388,0.2136230319738388,86.66667175292969,35131.0,1.0
18:10:11.250299,138059.046875,144050.03125,163607.453125,160106.453125,186777.796875,183808.328125,685956.625,132993.59375,0.052490234375,1.009521484375,-0.076904296875,-1.8920897245407104,-0.2136230319738388,0.2746581733226776,86.66667175292969,35132.0,1.0
18:10:11.250331,138053.5,144044.390625,163597.703125,160104.390625,186765.015625,183796.53125,685987.6875,132991.640625,0.05224609375,1.008056640625,-0.0771484375,-1.9531248807907104,-0.2136230319738388,0.3051757514476776,86.66667175292969,35133.0,1.0
18:10:11.250342,138075.3125,144079.265625,163610.84375,160111.71875,186777.09375,183810.109375,686115.0625,132993.15625,0.052490234375,1.0087890625,-0.078857421875,-1.9836424589157104,-0.3662109076976776,0.4882812201976776,86.66667175292969,35134.0,1.0
18:10:11.251158,138080.671875,144089.28125,163624.171875,160111.0,186799.53125,183831.390625,686051.0,132994.234375,0.05224609375,1.010498046875,-0.077880859375,-1.9836424589157104,-0.3051757514476776,0.5798339247703552,86.66667175292969,35135.0,1.0
18:10:11.261378,138065.65625,144063.96875,163618.078125,160113.59375,186793.359375,183824.234375,685927.625,133001.109375,0.05419921875,1.011962890625,-0.07763671875,-2.075195074081421,-0.3967284858226776,0.7019042372703552,86.66667175292969,35136.0,1.0
18:10:11.268629,138051.796875,144044.84375,163600.46875,160106.453125,186769.484375,183799.296875,685972.0,132996.109375,0.05517578125,1.012939453125,-0.07861328125,-2.166747808456421,-0.4272460639476776,0.7324218153953552,86.66667175292969,35137.0,1.0
18:10:11.268686,138068.703125,144072.734375,163606.640625,160107.78125,186772.171875,183804.390625,686076.0,132993.875,0.054931640625,1.012451171875,-0.07958984375,-2.197265386581421,-0.4577636420726776,0.8544921278953552,86.66667175292969,35138.0,1.0
18:10:11.268705,138083.09375,144087.75,163622.5625,160114.578125,186795.765625,183827.015625,686090.25,133002.546875,0.052978515625,1.011474609375,-0.07666015625,-2.258300542831421,-0.4272460639476776,0.9460448622703552,86.66667175292969,35139.0,1.0
18:10:11.271073,138067.890625,144063.53125,163618.359375,160114.5,186796.046875,183822.0,685926.6875,133003.609375,0.053466796875,1.01220703125,-0.07568359375,-2.288818120956421,-0.5187987685203552,1.1596678495407104,86.66667175292969,35140.0,1.0
18:10:11.274788,138048.140625,144036.078125,163597.4375,160106.625,186770.5625,183796.25,685970.25,132998.515625,0.053466796875,1.01220703125,-0.075439453125,-2.349853277206421,-0.6103515028953552,1.0681151151657104,86.66667175292969,35141.0,1.0
18:10:11.287425,138065.21875,144064.234375,163604.5,160108.953125,186774.40625,183803.765625,686038.25,132996.28125,0.05224609375,1.010986328125,-0.077880859375,-2.410888433456421,-0.7019042372703552,1.0375975370407104,86.66667175292969,35142.0,1.0
18:10:11.293777,138076.75,144083.734375,163616.125,160110.375,186788.984375,183821.921875,686113.0,132995.75,0.053955078125,1.01123046875,-0.079833984375,-2.471923589706421,-0.6103515028953552,1.0681151151657104,86.66667175292969,35143.0,1.0
18:10:11.293878,138060.46875,144060.84375,163612.546875,160108.421875,186790.046875,183819.140625,685920.25,132997.171875,0.054931640625,1.011474609375,-0.07666015625,-2.380370855331421,-0.7629393935203552,1.0986326932907104,86.66667175292969,35144.0,1.0
18:10:11.293907,138041.4375,144031.421875,163591.359375,160101.4375,186762.515625,183788.390625,685970.625,132993.421875,0.05517578125,1.01220703125,-0.078369140625,-2.471923589706421,-0.7934569716453552,1.1596678495407104,86.66667175292969,35145.0,1.0
18:10:11.296182,138052.875,144051.8125,163593.59375,160098.3125,186762.25,183791.421875,686004.0625,132987.609375,0.057861328125,1.01318359375,-0.07763671875,-2.502441167831421,-0.7324218153953552,1.0986326932907104,86.66667175292969,35146.0,1.0
18:10:11.302438,138065.75,144069.421875,163600.828125,160097.78125,186770.375,183802.609375,686133.5625,132982.875,0.058349609375,1.010986328125,-0.07470703125,-2.563476324081421,-0.6713866591453552,1.0375975370407104,86.66667175292969,35147.0,1.0
18:10:11.309319,138056.546875,144055.921875,163603.875,160095.984375,186779.59375,183811.546875,685942.4375,132982.0625,0.06103515625,1.0107421875,-0.074951171875,-2.563476324081421,-0.7019042372703552,0.9460448622703552,86.66667175292969,35148.0,1.0
18:10:11.309408,138038.390625,144022.40625,163587.0625,160097.421875,186757.953125,183782.046875,685970.6875,132986.53125,0.061279296875,1.01025390625,-0.074951171875,-2.502441167831421,-0.6713866591453552,0.8544921278953552,86.66667175292969,35149.0,1.0
18:10:11.337053,138042.234375,144034.734375,163585.359375,160091.609375,186754.734375,183780.96875,685987.875,132981.625,0.064208984375,1.009521484375,-0.07421875,-2.441406011581421,-0.5798339247703552,0.8544921278953552,86.66667175292969,35150.0,1.0
18:10:11.337167,138064.140625,144067.453125,163599.046875,160096.796875,186768.59375,183802.78125,686144.4375,132985.546875,0.06494140625,1.009033203125,-0.075927734375,-2.410888433456421,-0.5493163466453552,0.8850097060203552,86.66667175292969,35151.0,1.0
18:10:11.364675,138070.21875,144072.5625,163616.03125,160105.203125,186792.734375,183826.390625,685981.875,132990.921875,0.0654296875,1.00732421875,-0.07373046875,-2.380370855331421,-0.5187987685203552,0.9155272841453552,86.66667175292969,35152.0,1.0
18:10:11.364693,138054.03125,144042.96875,163603.421875,160108.5,186777.359375,183802.96875,685962.9375,132998.15625,0.065185546875,1.007568359375,-0.07421875,-2.380370855331421,-0.3662109076976776,0.8239745497703552,86.66667175292969,35153.0,1.0
18:10:11.364699,138049.921875,144036.96875,163593.40625,160099.296875,186763.40625,183787.046875,685990.25,132989.125,0.067626953125,1.009033203125,-0.0751953125,-2.319335699081421,-0.3051757514476776,0.7629393935203552,86.66667175292969,35154.0,1.0
18:10:11.368978,138065.75,144063.609375,163601.1875,160099.734375,186767.96875,183794.640625,686137.625,132983.40625,0.068359375,1.005615234375,-0.07666015625,-2.258300542831421,-0.1525878757238388,0.8239745497703552,86.66667175292969,35155.0,1.0
18:10:11.369001,138068.609375,144067.90625,163614.59375,160101.4375,186789.515625,183815.21875,686016.0,132986.890625,0.06787109375,1.00439453125,-0.07421875,-2.136230230331421,0.03051757626235485,0.7934569716453552,86.66667175292969,35156.0,1.0
18:10:11.369006,138053.40625,144036.796875,163605.484375,160105.90625,186778.609375,183797.859375,685951.75,132995.125,0.06689453125,1.003173828125,-0.07275390625,-2.044677495956421,0.2136230319738388,0.7934569716453552,86.66667175292969,35157.0,1.0
18:10:11.369010,138048.765625,144032.5,163596.71875,160100.71875,186766.09375,183785.53125,685982.125,132991.1875,0.064697265625,1.004150390625,-0.07763671875,-1.8920897245407104,0.3051757514476776,0.6713866591453552,86.66667175292969,35158.0,1.0
18:10:11.371284,138068.34375,144064.328125,163606.8125,160104.390625,186773.0625,183797.78125,686113.125,132988.0625,0.0654296875,1.003662109375,-0.0751953125,-1.8920897245407104,0.5187987685203552,0.6713866591453552,86.66667175292969,35159.0,1.0
18:10:11.373494,138079.0625,144079.265625,163623.09375,160108.5,186797.03125,183823.703125,686062.25,132992.796875,0.0634765625,1.00390625,-0.07373046875,-1.8615721464157104,0.6103515028953552,0.7019042372703552,86.66667175292969,35160.0,1.0
18:10:11.376021,138069.5,144057.890625,163621.390625,160117.09375,186796.484375,183819.6875,685935.9375,133004.15625,0.060546875,1.004150390625,-0.07470703125,-1.7700194120407104,0.6713866591453552,0.6103515028953552,86.66667175292969,35161.0,1.0
18:10:11.378598,138048.21875,144030.09375,163597.609375,160104.296875,186769.671875,183787.765625,685978.375,132995.65625,0.058837890625,1.006103515625,-0.07177734375,-1.5869139432907104,0.6408690810203552,0.6103515028953552,86.66667175292969,35162.0,1.0
18:10:11.380993,138066.46875,144061.109375,163605.921875,160108.328125,186775.03125,183798.3125,686084.9375,132997.171875,0.057373046875,1.00732421875,-0.0703125,-1.4953612089157104,0.7019042372703552,0.4577636420726776,86.66667175292969,35163.0,1.0
18:10:11.383559,138077.375,144076.484375,163617.28125,160109.671875,186790.671875,183819.5,686104.6875,132998.78125,0.058837890625,1.007568359375,-0.071533203125,-1.4038084745407104,0.8239745497703552,0.3967284858226776,86.66667175292969,35164.0,1.0
18:10:11.385968,138070.671875,144062.71875,163620.953125,160116.28125,186796.578125,183823.890625,685948.5,133003.609375,0.05419921875,1.007568359375,-0.075927734375,-1.4038084745407104,0.7629393935203552,0.4882812201976776,86.66667175292969,35165.0,1.0
18:10:11.391258,138057.515625,144043.953125,163606.109375,160111.71875,186775.921875,183799.828125,686002.0,133001.203125,0.056640625,1.006591796875,-0.075927734375,-1.3732908964157104,0.7019042372703552,0.5493163466453552,86.66667175292969,35166.0,1.0
18:10:11.393534,138072.1875,144071.65625,163612.984375,160115.125,186780.65625,183810.03125,686066.6875,133000.671875,0.054931640625,1.00634765625,-0.07470703125,-1.3427733182907104,0.6713866591453552,0.5493163466453552,86.66667175292969,35167.0,1.0
18:10:11.396152,138079.15625,144080.328125,163618.359375,160112.171875,186789.0625,183817.71875,686143.0,132996.734375,0.055419921875,1.0048828125,-0.075927734375,-1.2207030057907104,0.5798339247703552,0.3967284858226776,86.66667175292969,35168.0,1.0
18:10:11.399109,138061.71875,144058.15625,163613.53125,160104.21875,186789.609375,183816.28125,685940.9375,132991.1875,0.055908203125,1.00634765625,-0.0751953125,-1.0986326932907104,0.5798339247703552,0.3967284858226776,86.66667175292969,35169.0,1.0
18:10:11.399126,138053.140625,144040.109375,163604.5,160110.828125,186775.921875,183799.921875,685985.4375,133002.09375,0.05419921875,1.00830078125,-0.072265625,-1.0681151151657104,0.5187987685203552,0.4577636420726776,86.66667175292969,35170.0,1.0
18:10:11.400974,138067.890625,144061.921875,163611.828125,160116.546875,186782.0,183804.296875,686037.1875,133006.65625,0.053466796875,1.00732421875,-0.0712890625,-1.0375975370407104,0.3356933295726776,0.4882812201976776,86.66667175292969,35171.0,1.0
18:10:11.403980,138071.921875,144073.625,163609.5,160105.640625,186780.03125,183807.515625,686154.0,132992.171875,0.0546875,1.00634765625,-0.073974609375,-0.9460448622703552,0.3356933295726776,0.3967284858226776,86.66667175292969,35172.0,1.0
18:10:11.406003,138066.109375,144068.265625,163615.578125,160104.390625,186792.546875,183821.65625,685959.25,132990.921875,0.05517578125,1.006591796875,-0.074951171875,-0.8850097060203552,0.2136230319738388,0.4577636420726776,86.66667175292969,35173.0,1.0
18:10:11.415305,138042.140625,144029.640625,163593.046875,160099.65625,186764.65625,183789.28125,685980.5,132990.203125,0.052734375,1.0068359375,-0.07666015625,-0.8544921278953552,0.2136230319738388,0.4577636420726776,86.66667175292969,35174.0,1.0
18:10:11.415324,138051.890625,144045.640625,163596.625,160101.078125,186764.5625,183792.328125,686008.0625,132991.359375,0.05419921875,1.00634765625,-0.074951171875,-0.8544921278953552,0.1525878757238388,0.5798339247703552,86.66667175292969,35175.0,1.0
18:10:11.417980,138078.796875,144082.75,163613.890625,160111.90625,186781.375,183816.109375,686165.4375,132997.359375,0.052734375,1.007080078125,-0.074462890625,-0.7324218153953552,0.0915527269244194,0.6103515028953552,86.66667175292969,35176.0,1.0
18:10:11.418000,138075.9375,144080.328125,163623.1875,160112.078125,186800.15625,183831.75,685989.9375,133001.296875,0.05322265625,1.00732421875,-0.076416015625,-0.7324218153953552,0.03051757626235485,0.6408690810203552,86.66667175292969,35177.0,1.0
18:10:11.426570,138049.125,144039.125,163600.203125,160104.75,186774.9375,183798.765625,685955.9375,132996.109375,0.0556640625,1.006591796875,-0.077392578125,-0.7629393935203552,-0.03051757626235485,0.5798339247703552,86.66667175292969,35178.0,1.0
18:10:11.432837,138049.390625,144044.75,163595.828125,160102.25,186767.96875,183797.515625,685992.25,132992.34375,0.056396484375,1.006103515625,-0.07861328125,-0.6713866591453552,-0.0610351525247097,0.7934569716453552,86.66667175292969,35179.0,1.0
18:10:11.432857,138068.34375,144074.609375,163605.296875,160105.203125,186774.578125,183806.546875,686143.75,132990.109375,0.056640625,1.00537109375,-0.076171875,-0.5798339247703552,-0.0915527269244194,0.7629393935203552,86.66667175292969,35180.0,1.0
18:10:11.434749,138072.1875,144081.046875,163616.46875,160105.46875,186792.734375,183827.109375,686021.5,132991.8125,0.056884765625,1.005859375,-0.07958984375,-0.4882812201976776,-0.1831054538488388,0.6408690810203552,86.66667175292969,35181.0,1.0
18:10:11.442654,138054.03125,144050.203125,163604.046875,160106.453125,186779.046875,183810.921875,685949.6875,132997.453125,0.058349609375,1.0078125,-0.078369140625,-0.4272460639476776,-0.1831054538488388,0.7934569716453552,86.66667175292969,35182.0,1.0
18:10:11.449057,138044.828125,144036.609375,163591.359375,160100.90625,186764.125,183790.171875,685988.5625,132996.375,0.059326171875,1.007568359375,-0.079833984375,-0.4577636420726776,-0.1831054538488388,0.7629393935203552,86.66667175292969,35183.0,1.0
18:10:11.449074,138068.78125,144075.78125,163605.296875,160108.140625,186774.671875,183808.0625,686111.25,132999.234375,0.059326171875,1.008544921875,-0.076171875,-0.3356933295726776,-0.03051757626235485,0.7324218153953552,86.66667175292969,35184.0,1.0
18:10:11.456674,138076.296875,144086.859375,163616.921875,160107.078125,186791.578125,183828.171875,686063.25,132996.8125,0.060791015625,1.0078125,-0.078125,-0.3051757514476776,-0.1220703050494194,0.7629393935203552,86.66667175292969,35185.0,1.0
18:10:11.456876,138054.125,144050.828125,163605.125,160103.140625,186782.1875,183809.84375,685934.5,132995.296875,0.060546875,1.00830078125,-0.076904296875,-0.3662109076976776,-0.1831054538488388,0.7934569716453552,86.66667175292969,35186.0,1.0
18:10:11.462801,138050.015625,144041.796875,163598.234375,160104.5625,186771.71875,183799.125,685983.625,132999.859375,0.060302734375,1.010009765625,-0.079345703125,-0.4272460639476776,-0.1220703050494194,0.7629393935203552,86.66667175292969,35187.0,1.0
18:10:11.462817,138067.984375,144066.484375,163606.375,160107.34375,186776.28125,183803.671875,686072.1875,132997.890625,0.05908203125,1.0107421875,-0.080078125,-0.5187987685203552,0.0,0.6713866591453552,86.66667175292969,35188.0,1.0
18:10:11.464809,138081.390625,144085.875,163620.671875,160110.296875,186793.453125,183824.421875,686096.75,133001.296875,0.06005859375,1.009765625,-0.0771484375,-0.5187987685203552,0.0610351525247097,0.6713866591453552,86.66667175292969,35189.0,1.0
18:10:11.473812,138071.03125,144067.734375,163620.046875,160114.40625,186795.59375,183825.84375,685936.25,133004.6875,0.059814453125,1.009521484375,-0.076904296875,-0.6103515028953552,0.0610351525247097,0.7324218153953552,86.66667175292969,35190.0,1.0
18:10:11.477905,138043.3125,144029.46875,163589.65625,160099.296875,186762.15625,183789.28125,685988.125,132993.25,0.058837890625,1.010986328125,-0.07373046875,-0.7019042372703552,0.0610351525247097,0.6103515028953552,86.66667175292969,35191.0,1.0
18:10:11.477928,138060.65625,144060.671875,163598.59375,160102.875,186768.5,183798.140625,686047.3125,132991.984375,0.058349609375,1.01220703125,-0.074462890625,-0.7324218153953552,0.0610351525247097,0.6408690810203552,86.66667175292969,35192.0,1.0
18:10:11.487252,138068.15625,144075.59375,163602.96875,160097.5,186776.015625,183809.765625,686141.875,132984.65625,0.058837890625,1.014892578125,-0.07861328125,-0.8544921278953552,0.0915527269244194,0.6713866591453552,86.66667175292969,35193.0,1.0
18:10:11.489879,138058.0625,144064.15625,163607.265625,160096.4375,186785.765625,183820.484375,685942.875,132987.703125,0.058837890625,1.01318359375,-0.078369140625,-0.9155272841453552,0.0610351525247097,0.5798339247703552,86.66667175292969,35194.0,1.0
18:10:11.507850,138042.0625,144038.3125,163590.90625,160095.71875,186764.125,183796.96875,685969.0,132991.1875,0.055908203125,1.0126953125,-0.080078125,-0.9460448622703552,0.1525878757238388,0.4272460639476776,86.66667175292969,35195.0,1.0
18:10:11.507869,138046.96875,144050.46875,163588.671875,160091.0625,186758.125,183791.78125,686000.0,132981.796875,0.0556640625,1.013916015625,-0.077880859375,-1.0070799589157104,0.1220703050494194,0.3662109076976776,86.66667175292969,35196.0,1.0
18:10:11.509822,138058.0625,144067.546875,163592.96875,160088.828125,186762.609375,183798.046875,686125.8125,132974.734375,0.05810546875,1.0107421875,-0.0791015625,-1.0070799589157104,-0.03051757626235485,0.3662109076976776,86.66667175292969,35197.0,1.0
18:10:11.512891,138051.0,144057.453125,163598.765625,160087.765625,186775.296875,183808.6875,685930.75,132974.5625,0.05615234375,1.010498046875,-0.081298828125,-1.0681151151657104,0.1220703050494194,0.3967284858226776,86.66667175292969,35198.0,1.0
18:10:11.512908,138043.671875,144037.6875,163593.59375,160097.78125,186764.296875,183794.375,685959.0,132986.8125,0.057373046875,1.01025390625,-0.0791015625,-1.1596678495407104,0.1220703050494194,0.3051757514476776,86.66667175292969,35199.0,1.0
18:10:11.517238,138046.96875,144047.609375,163590.546875,160093.21875,186759.46875,183790.171875,685959.25,132983.140625,0.057373046875,1.011474609375,-0.0791015625,-1.2207030057907104,0.1220703050494194,0.3967284858226776,86.66667175292969,35200.0,1.0
18:10:11.520380,138060.109375,144068.171875,163593.40625,160089.734375,186761.890625,183796.4375,686104.5,132977.515625,0.05859375,1.00927734375,-0.0830078125,-1.1596678495407104,0.0915527269244194,0.4882812201976776,86.66667175292969,35201.0,1.0
18:10:11.520399,138055.640625,144061.375,163599.484375,160088.203125,186774.140625,183807.703125,685949.0625,132975.453125,0.0595703125,1.006591796875,-0.082763671875,-1.0681151151657104,0.0610351525247097,0.4272460639476776,86.66667175292969,35202.0,1.0
18:10:11.522207,138045.71875,144040.546875,163594.578125,160099.296875,186765.640625,183797.859375,685931.0625,132989.40625,0.060302734375,1.006103515625,-0.07958984375,-1.0986326932907104,0.03051757626235485,0.5493163466453552,86.66667175292969,35203.0,1.0
18:10:11.537859,138046.078125,144042.96875,163591.171875,160098.671875,186759.5625,183789.28125,685946.75,132989.578125,0.059326171875,1.006103515625,-0.07861328125,-1.0070799589157104,0.0,0.7019042372703552,86.66667175292969,35204.0,1.0
18:10:11.537871,138062.265625,144067.453125,163596.09375,160098.3125,186763.40625,183792.765625,686087.75,132983.859375,0.05859375,1.0068359375,-0.082763671875,-1.0986326932907104,0.0,0.7324218153953552,86.66667175292969,35205.0,1.0
18:10:11.540300,138065.75,144074.34375,163607.71875,160098.671875,186782.09375,183816.828125,685985.875,132984.921875,0.057861328125,1.003173828125,-0.0830078125,-1.0681151151657104,0.0915527269244194,0.6713866591453552,86.66667175292969,35206.0,1.0
18:10:11.540311,138054.75,144050.921875,163603.0625,160107.609375,186774.578125,183803.140625,685921.3125,132994.5,0.057373046875,1.00146484375,-0.082275390625,-0.9765624403953552,0.1220703050494194,0.7934569716453552,86.66667175292969,35207.0,1.0
18:10:11.542239,138055.734375,144051.1875,163600.828125,160110.5625,186766.0,183795.546875,685947.0625,132996.109375,0.05517578125,1.001708984375,-0.080078125,-0.9460448622703552,-0.03051757626235485,0.8544921278953552,86.66667175292969,35208.0,1.0
18:10:11.549748,138074.25,144079.171875,163608.78125,160110.375,186771.28125,183804.9375,686056.6875,132992.265625,0.052490234375,1.005859375,-0.07958984375,-0.9155272841453552,-0.1220703050494194,0.7934569716453552,86.66667175292969,35209.0,1.0
18:10:11.560517,138073.265625,144083.109375,163614.15625,160104.390625,186784.953125,183820.578125,686029.875,132986.890625,0.052978515625,1.006591796875,-0.07861328125,-0.9155272841453552,-0.2441406100988388,0.7324218153953552,86.66667175292969,35210.0,1.0
18:10:11.560600,138051.359375,144049.84375,163601.015625,160099.46875,186772.796875,183803.40625,685892.75,132986.1875,0.05517578125,1.005859375,-0.0771484375,-0.8544921278953552,-0.1831054538488388,0.7019042372703552,86.66667175292969,35211.0,1.0
18:10:11.563300,138041.875,144034.203125,163585.8125,160095.890625,186751.96875,183782.84375,685938.4375,132986.71875,0.056396484375,1.00537109375,-0.079833984375,-0.8850097060203552,-0.2441406100988388,0.5493163466453552,86.66667175292969,35212.0,1.0
18:10:11.563365,138054.578125,144057.71875,163588.671875,160095.0,186752.40625,183785.703125,686006.0,132984.21875,0.057373046875,1.0048828125,-0.081787109375,-0.8850097060203552,-0.1831054538488388,0.5798339247703552,86.66667175292969,35213.0,1.0
18:10:11.569916,138073.171875,144080.78125,163607.265625,160103.40625,186775.484375,183810.828125,686063.9375,132989.9375,0.061279296875,1.0048828125,-0.08203125,-0.8544921278953552,-0.3356933295726776,0.7019042372703552,86.66667175292969,35214.0,1.0
18:10:11.585360,138059.046875,144059.59375,163606.28125,160102.953125,186777.71875,183809.21875,685887.0625,132990.296875,0.062744140625,1.008544921875,-0.0830078125,-0.8544921278953552,-0.2746581733226776,0.7324218153953552,86.66667175292969,35215.0,1.0
18:10:11.585400,138046.796875,144035.453125,163592.15625,160102.515625,186758.046875,183785.96875,685938.3125,132992.796875,0.067138671875,1.011474609375,-0.08935546875,-0.8850097060203552,-0.2136230319738388,0.8239745497703552,86.66667175292969,35216.0,1.0
18:10:11.588567,138059.40625,144060.046875,163595.828125,160102.515625,186760.015625,183790.453125,685983.375,132988.953125,0.06787109375,1.0107421875,-0.089599609375,-0.8544921278953552,-0.0610351525247097,1.0070799589157104,86.66667175292969,35217.0,1.0
18:10:11.588791,138066.109375,144074.609375,163601.015625,160097.859375,186767.96875,183801.0,686087.8125,132981.625,0.0703125,1.010009765625,-0.087890625,-0.6713866591453552,0.0610351525247097,1.0681151151657104,86.66667175292969,35218.0,1.0
18:10:11.588816,138056.625,144061.109375,163606.1875,160098.84375,186780.390625,183812.265625,685903.5625,132985.46875,0.06591796875,1.00927734375,-0.0859375,-0.6408690810203552,0.0915527269244194,1.2207030057907104,86.66667175292969,35219.0,1.0
18:10:11.592262,138035.34375,144025.890625,163584.640625,160093.65625,186753.484375,183780.171875,685954.75,132983.59375,0.064208984375,1.00830078125,-0.087646484375,-0.6103515028953552,0.2136230319738388,1.1291502714157104,86.66667175292969,35220.0,1.0
18:10:11.597328,138048.046875,144048.328125,163588.9375,160097.15625,186756.171875,183784.015625,685972.9375,132984.296875,0.06396484375,1.009521484375,-0.08447265625,-0.5493163466453552,0.3051757514476776,1.1901854276657104,86.66667175292969,35221.0,1.0
18:10:11.605220,138064.5,144073.625,163599.40625,160100.09375,186767.78125,183798.9375,686107.75,132985.28125,0.060302734375,1.010986328125,-0.0830078125,-0.4882812201976776,0.4272460639476776,1.0375975370407104,86.66667175292969,35222.0,1.0
18:10:11.609133,138065.03125,144072.734375,163612.71875,160107.78125,186786.46875,183816.375,685924.1875,132994.859375,0.06201171875,1.01220703125,-0.0859375,-0.4577636420726776,0.3967284858226776,0.7934569716453552,86.66667175292969,35223.0,1.0
18:10:11.609147,138038.03125,144032.6875,163586.875,160101.171875,186755.546875,183782.046875,685939.1875,132991.640625,0.060546875,1.012451171875,-0.081298828125,-0.4882812201976776,0.3356933295726776,0.7629393935203552,86.66667175292969,35224.0,1.0
18:10:11.621613,138046.4375,144046.8125,163587.859375,160101.171875,186754.5625,183785.265625,685937.9375,132994.765625,0.059814453125,1.011962890625,-0.08203125,-0.6713866591453552,0.3356933295726776,0.6103515028953552,86.66667175292969,35225.0,1.0
18:10:11.621629,138060.65625,144067.640625,163593.671875,160101.796875,186759.109375,183790.453125,686085.75,132990.734375,0.05810546875,1.013427734375,-0.080322265625,-0.7324218153953552,0.3662109076976776,0.4272460639476776,86.66667175292969,35226.0,1.0
18:10:11.623501,138051.53125,144066.03125,163597.703125,160093.84375,186770.828125,183807.796875,685932.875,132980.546875,0.05908203125,1.01318359375,-0.08203125,-0.7629393935203552,0.3356933295726776,0.2441406100988388,86.66667175292969,35227.0,1.0
18:10:11.626667,138042.6875,144040.109375,163592.78125,160107.15625,186763.046875,183788.65625,685912.5625,132995.84375,0.057861328125,1.012939453125,-0.0810546875,-0.9765624403953552,0.2441406100988388,0.1220703050494194,86.66667175292969,35228.0,1.0
18:10:11.626693,138037.859375,144034.828125,163581.515625,160097.59375,186748.203125,183773.546875,685915.4375,132986.53125,0.0615234375,1.01220703125,-0.0810546875,-0.9765624403953552,0.1525878757238388,0.0,86.66667175292969,35229.0,1.0
18:10:11.636047,138056.09375,144061.734375,163589.5625,160098.484375,186752.046875,183782.484375,686045.6875,132981.796875,0.061279296875,1.01171875,-0.07861328125,-1.0986326932907104,0.1220703050494194,0.0610351525247097,86.66667175292969,35230.0,1.0
18:10:11.640316,138064.765625,144074.703125,163605.921875,160102.78125,186775.5625,183806.0,685978.375,132986.0,0.062255859375,1.01220703125,-0.078857421875,-1.1596678495407104,0.0915527269244194,0.1220703050494194,86.66667175292969,35231.0,1.0
18:10:11.640333,138048.046875,144045.640625,163595.375,160103.859375,186764.390625,183791.34375,685902.625,132990.46875,0.064453125,1.013671875,-0.081298828125,-1.1291502714157104,0.2441406100988388,-0.03051757626235485,86.66667175292969,35232.0,1.0
18:10:11.649735,138043.671875,144039.65625,163586.53125,160102.609375,186752.671875,183779.984375,685941.875,132992.171875,0.064208984375,1.01513671875,-0.0810546875,-1.2207030057907104,0.3051757514476776,0.0915527269244194,86.66667175292969,35233.0,1.0
18:10:11.654717,138052.96875,144062.625,163585.1875,160096.515625,186748.75,183786.328125,686046.25,132982.515625,0.065185546875,1.013427734375,-0.082763671875,-1.4038084745407104,0.3356933295726776,0.0610351525247097,86.66667175292969,35234.0,1.0
18:10:11.654742,138060.390625,144075.234375,163595.375,160096.875,186763.765625,183803.40625,686039.6875,132982.421875,0.06298828125,1.013427734375,-0.08056640625,-1.5258787870407104,0.4272460639476776,0.1831054538488388,86.66667175292969,35235.0,1.0
18:10:11.654749,138046.078125,144050.296875,163589.296875,160097.859375,186758.21875,183794.109375,685888.5,132987.796875,0.06103515625,1.01220703125,-0.078857421875,-1.5563963651657104,0.3967284858226776,0.2136230319738388,86.66667175292969,35236.0,1.0
18:10:11.657253,138032.125,144027.9375,163573.734375,160094.46875,186737.203125,183770.953125,685927.9375,132986.890625,0.05859375,1.010986328125,-0.078369140625,-1.7089842557907104,0.4577636420726776,0.1525878757238388,86.66667175292969,35237.0,1.0
18:10:11.660987,138051.71875,144058.25,163585.359375,160101.625,186747.578125,183783.828125,686001.1875,132991.1875,0.0576171875,1.011962890625,-0.07763671875,-1.6784666776657104,0.3967284858226776,0.1831054538488388,86.66667175292969,35238.0,1.0
18:10:11.667336,138067.09375,144079.984375,163603.15625,160104.296875,186769.3125,183807.25,686058.5625,132992.796875,0.055419921875,1.013916015625,-0.077392578125,-1.7700194120407104,0.3662109076976776,0.2746581733226776,86.66667175292969,35239.0,1.0
18:10:11.682873,138059.3125,144061.109375,163607.453125,160110.734375,186777.359375,183805.828125,685882.25,132996.46875,0.05517578125,1.01220703125,-0.078125,-1.8920897245407104,0.3051757514476776,0.1831054538488388,86.66667175292969,35240.0,1.0
18:10:11.682891,138041.78125,144035.28125,163587.78125,160105.015625,186752.671875,183777.578125,685926.8125,132992.703125,0.05322265625,1.01220703125,-0.078125,-2.105712652206421,0.1831054538488388,0.1220703050494194,86.66667175292969,35241.0,1.0
18:10:11.714147,138046.265625,144049.9375,163584.015625,160096.078125,186747.046875,183775.25,685944.5,132981.890625,0.053955078125,1.01123046875,-0.076904296875,-2.258300542831421,0.2441406100988388,0.0610351525247097,86.66667175292969,35242.0,1.0
18:10:11.714174,138062.078125,144073.890625,163595.28125,160097.59375,186760.375,183794.5625,686061.0,132981.796875,0.05517578125,1.0126953125,-0.078369140625,-2.410888433456421,0.0915527269244194,0.0610351525247097,86.66667175292969,35243.0,1.0
18:10:11.714180,138060.5625,144068.0,163605.84375,160104.390625,186776.109375,183809.84375,685873.6875,132991.8125,0.05419921875,1.011962890625,-0.077392578125,-2.441406011581421,0.03051757626235485,0.1220703050494194,86.66667175292969,35244.0,1.0
18:10:11.714185,138044.828125,144041.71875,163590.375,160104.921875,186753.75,183783.921875,685913.75,132995.390625,0.0537109375,1.01123046875,-0.078125,-2.502441167831421,-0.03051757626235485,-0.0610351525247097,86.66667175292969,35245.0,1.0
18:10:11.744740,138052.515625,144058.96875,163591.53125,160104.21875,186753.296875,183787.046875,685924.625,132992.890625,0.0517578125,1.010009765625,-0.0810546875,-2.624511480331421,-0.0915527269244194,-0.0610351525247097,86.66667175292969,35246.0,1.0
18:10:11.744766,138063.328125,144075.78125,163596.8125,160101.890625,186760.90625,183797.234375,686076.25,132987.796875,0.051513671875,1.011474609375,-0.077880859375,-2.655029058456421,-0.1525878757238388,-0.1220703050494194,86.66667175292969,35247.0,1.0
18:10:11.744773,138061.640625,144071.390625,163607.359375,160105.640625,186778.421875,183809.40625,685902.5,132991.71875,0.052490234375,1.010009765625,-0.07861328125,-2.777099370956421,-0.2136230319738388,-0.1831054538488388,86.66667175292969,35248.0,1.0
18:10:11.769837,138043.484375,144038.765625,163590.453125,160105.828125,186756.515625,183782.484375,685901.25,132993.59375,0.052001953125,1.009765625,-0.074951171875,-2.838134527206421,-0.3051757514476776,-0.2136230319738388,86.66667175292969,35249.0,1.0
18:10:11.772472,138051.0,144050.921875,163591.625,160105.828125,186755.09375,183782.40625,685916.125,132992.890625,0.0517578125,1.006591796875,-0.079345703125,-2.838134527206421,-0.4882812201976776,-0.2746581733226776,86.66667175292969,35250.0,1.0
18:10:11.775633,138073.796875,144081.3125,163605.125,160111.0,186767.078125,183797.328125,686069.0625,132996.46875,0.05322265625,1.005126953125,-0.07861328125,-2.838134527206421,-0.5798339247703552,-0.3051757514476776,86.66667175292969,35251.0,1.0
18:10:11.777917,138069.328125,144077.390625,163611.734375,160107.78125,186782.1875,183811.015625,685914.625,132996.90625,0.052978515625,1.0029296875,-0.07666015625,-2.716064214706421,-0.6713866591453552,-0.2746581733226776,86.66667175292969,35252.0,1.0
18:10:11.777967,138045.453125,144042.421875,163592.515625,160104.84375,186758.9375,183786.15625,685881.4375,132994.140625,0.0537109375,1.001220703125,-0.076416015625,-2.502441167831421,-0.7629393935203552,-0.2136230319738388,86.66667175292969,35253.0,1.0
18:10:11.779767,138044.65625,144044.125,163586.609375,160101.625,186748.46875,183776.59375,685886.1875,132990.109375,0.05322265625,1.002685546875,-0.07666015625,-2.532958745956421,-0.7629393935203552,-0.0610351525247097,86.66667175292969,35254.0,1.0
18:10:11.782371,138072.8125,144083.734375,163604.5,160112.96875,186762.609375,183797.421875,686025.25,132995.296875,0.05419921875,1.002685546875,-0.074462890625,-2.441406011581421,-0.7019042372703552,0.1220703050494194,86.66667175292969,35255.0,1.0
18:10:11.785095,138066.015625,144080.875,163605.921875,160104.921875,186771.984375,183808.328125,685948.3125,132987.875,0.054931640625,1.003662109375,-0.0771484375,-2.319335699081421,-0.7324218153953552,0.2441406100988388,86.66667175292969,35256.0,1.0
18:10:11.787471,138041.078125,144044.75,163587.515625,160099.390625,186752.59375,183785.96875,685855.0,132986.265625,0.056884765625,1.00244140625,-0.0791015625,-2.166747808456421,-0.8239745497703552,0.2441406100988388,86.66667175292969,35257.0,1.0
18:10:11.789780,138036.953125,144036.078125,163579.109375,160099.109375,186740.96875,183770.859375,685888.875,132988.140625,0.057373046875,1.003662109375,-0.079833984375,-2.014159917831421,-0.7629393935203552,0.3967284858226776,86.66667175292969,35258.0,1.0
18:10:11.792227,138059.84375,144066.828125,163591.4375,160107.078125,186750.171875,183781.234375,685989.75,132989.578125,0.056396484375,1.003173828125,-0.081298828125,-1.8310545682907104,-0.7934569716453552,0.6103515028953552,86.66667175292969,35259.0,1.0
18:10:11.794749,138063.953125,144075.59375,163599.84375,160101.796875,186764.21875,183797.421875,685991.0,132983.234375,0.058837890625,1.005859375,-0.078125,-1.7395018339157104,-0.7934569716453552,0.6103515028953552,86.66667175292969,35260.0,1.0
18:10:11.797337,138044.65625,144047.171875,163590.90625,160101.171875,186757.859375,183789.46875,685848.8125,132986.453125,0.059326171875,1.007080078125,-0.0791015625,-1.7395018339157104,-0.7934569716453552,0.7324218153953552,86.66667175292969,35261.0,1.0
18:10:11.799776,138031.6875,144027.3125,163575.4375,160098.671875,186736.671875,183767.203125,685901.875,132987.796875,0.057861328125,1.005859375,-0.077392578125,-1.5258787870407104,-0.7934569716453552,0.7934569716453552,86.66667175292969,35262.0,1.0
18:10:11.802255,138043.671875,144048.15625,163576.6875,160094.90625,186735.328125,183765.859375,685970.25,132983.3125,0.0595703125,1.007080078125,-0.080322265625,-1.4343260526657104,-0.7629393935203552,0.7934569716453552,86.66667175292969,35263.0,1.0
18:10:11.804732,138053.5,144064.15625,163585.8125,160094.375,186748.75,183781.6875,686042.375,132980.453125,0.05810546875,1.009033203125,-0.080078125,-1.4038084745407104,-0.7934569716453552,0.8239745497703552,86.66667175292969,35264.0,1.0
18:10:11.807276,138045.90625,144052.171875,163590.09375,160099.65625,186757.78125,183790.796875,685871.1875,132985.828125,0.058837890625,1.009765625,-0.08056640625,-1.3122557401657104,-0.7324218153953552,0.7019042372703552,86.66667175292969,35265.0,1.0
18:10:11.809789,138037.046875,144031.703125,163579.734375,160102.6875,186741.859375,183769.703125,685945.3125,132989.75,0.059326171875,1.01123046875,-0.0810546875,-1.2817381620407104,-0.7629393935203552,0.8239745497703552,86.66667175292969,35266.0,1.0
18:10:11.812246,138041.96875,144047.25,163576.15625,160094.375,186735.421875,183765.59375,685957.8125,132976.53125,0.059326171875,1.012451171875,-0.081787109375,-1.2512205839157104,-0.7324218153953552,0.7629393935203552,86.66667175292969,35267.0,1.0
18:10:11.819710,138054.65625,144066.5625,163585.546875,160092.671875,186746.421875,183777.484375,686069.0625,132973.125,0.058837890625,1.01220703125,-0.081298828125,-1.2207030057907104,-0.6713866591453552,0.7324218153953552,86.66667175292969,35268.0,1.0
18:10:11.819732,138056.625,144065.5,163600.5625,160103.234375,186767.875,183799.921875,685882.8125,132986.71875,0.058837890625,1.010986328125,-0.080078125,-1.2207030057907104,-0.5493163466453552,0.7324218153953552,86.66667175292969,35269.0,1.0
18:10:11.819736,138050.546875,144047.34375,163594.125,160114.84375,186756.25,183784.359375,685928.0625,133001.015625,0.05908203125,1.013916015625,-0.078857421875,-1.2512205839157104,-0.4882812201976776,0.5493163466453552,86.66667175292969,35270.0,1.0
18:10:11.822883,138054.484375,144056.734375,163590.453125,160109.21875,186750.359375,183777.75,685941.0,132992.96875,0.062255859375,1.014892578125,-0.078125,-1.2817381620407104,-0.4577636420726776,0.3356933295726776,86.66667175292969,35271.0,1.0
18:10:11.822896,138059.125,144068.625,163587.78125,160099.734375,186747.84375,183779.265625,686088.25,132980.640625,0.060302734375,1.01513671875,-0.08154296875,-1.3732908964157104,-0.3967284858226776,0.3967284858226776,86.66667175292969,35272.0,1.0
18:10:11.835316,138063.515625,144073.8125,163604.40625,160107.25,186771.28125,183805.90625,685919.125,132989.21875,0.0615234375,1.0107421875,-0.083740234375,-1.4038084745407104,-0.3662109076976776,0.3051757514476776,86.66667175292969,35273.0,1.0
18:10:11.835332,138046.078125,144041.71875,163589.5625,160109.046875,186751.78125,183782.125,685916.75,132992.96875,0.060791015625,1.0107421875,-0.081298828125,-1.4343260526657104,-0.1831054538488388,0.2746581733226776,86.66667175292969,35274.0,1.0
18:10:11.837239,138046.171875,144045.015625,163582.234375,160101.0,186742.03125,183770.421875,685937.1875,132987.15625,0.06201171875,1.009765625,-0.081298828125,-1.4343260526657104,-0.1525878757238388,0.2441406100988388,86.66667175292969,35275.0,1.0
18:10:11.840306,138069.234375,144076.140625,163596.984375,160108.234375,186755.625,183785.625,686101.6875,132991.453125,0.06298828125,1.0087890625,-0.0791015625,-1.4038084745407104,-0.0610351525247097,0.2441406100988388,86.66667175292969,35276.0,1.0
18:10:11.840319,138067.453125,144077.46875,163605.921875,160105.734375,186772.53125,183805.640625,685962.9375,132988.0625,0.065185546875,1.009033203125,-0.079345703125,-1.4038084745407104,0.0,0.2441406100988388,86.66667175292969,35277.0,1.0
18:10:11.842326,138044.109375,144040.8125,163587.6875,160103.3125,186752.046875,183780.796875,685918.1875,132989.578125,0.06591796875,1.009521484375,-0.08056640625,-1.3427733182907104,0.1220703050494194,0.3662109076976776,86.66667175292969,35278.0,1.0
18:10:11.844822,138042.6875,144041.625,163581.34375,160100.90625,186740.875,183773.8125,685954.9375,132986.09375,0.0673828125,1.008544921875,-0.08154296875,-1.4343260526657104,0.3356933295726776,0.3356933295726776,86.66667175292969,35279.0,1.0
18:10:11.847215,138058.78125,144063.171875,163586.53125,160101.171875,186743.296875,183774.265625,686093.625,132980.453125,0.065673828125,1.00830078125,-0.08203125,-1.4343260526657104,0.3967284858226776,0.3967284858226776,86.66667175292969,35280.0,1.0
18:10:11.849739,138058.0625,144064.875,163594.125,160097.5,186757.234375,183789.015625,686016.0,132977.59375,0.065673828125,1.008056640625,-0.079833984375,-1.3732908964157104,0.4882812201976776,0.3967284858226776,86.66667175292969,35281.0,1.0
18:10:11.852373,138043.390625,144038.140625,163586.703125,160099.390625,186749.015625,183775.609375,685914.1875,132982.6875,0.062255859375,1.0087890625,-0.08154296875,-1.4343260526657104,0.5493163466453552,0.2746581733226776,86.66667175292969,35282.0,1.0
18:10:11.855371,138037.3125,144029.640625,163577.765625,160097.59375,186736.3125,183761.65625,685960.6875,132983.859375,0.059326171875,1.010986328125,-0.081298828125,-1.4038084745407104,0.6713866591453552,0.2746581733226776,86.66667175292969,35283.0,1.0
18:10:11.855384,138057.515625,144057.359375,163587.234375,160103.5,186743.015625,183770.15625,686075.0,132986.1875,0.05859375,1.009033203125,-0.08056640625,-1.3427733182907104,0.7019042372703552,0.3051757514476776,86.66667175292969,35284.0,1.0
18:10:11.857895,138061.640625,144068.625,163594.578125,160100.1875,186757.15625,183788.03125,686070.9375,132984.578125,0.05810546875,1.009033203125,-0.08056640625,-1.3427733182907104,0.6713866591453552,0.2746581733226776,86.66667175292969,35285.0,1.0
18:10:11.857910,138041.875,144040.546875,163586.609375,160099.390625,186751.0625,183777.484375,685924.125,132987.34375,0.055908203125,1.009765625,-0.081787109375,-1.4038084745407104,0.6408690810203552,0.3051757514476776,86.66667175292969,35286.0,1.0
18:10:11.859699,138036.328125,144030.53125,163577.140625,160100.28125,186736.671875,183766.390625,685989.75,132992.265625,0.05517578125,1.010498046875,-0.082275390625,-1.5258787870407104,0.6713866591453552,0.1525878757238388,86.66667175292969,35287.0,1.0
18:10:11.869143,138053.234375,144057.171875,163583.21875,160100.09375,186739.71875,183774.625,686063.125,132987.15625,0.054931640625,1.01025390625,-0.0791015625,-1.5258787870407104,0.6713866591453552,0.0610351525247097,86.66667175292969,35288.0,1.0
18:10:11.869167,138054.578125,144058.875,163582.765625,160091.34375,186743.296875,183772.5625,686124.0,132972.859375,0.052490234375,1.0087890625,-0.080322265625,-1.4953612089157104,0.5798339247703552,-0.0610351525247097,86.66667175292969,35289.0,1.0
18:10:11.873521,138053.234375,144054.3125,163594.578125,160101.171875,186759.828125,183789.28125,685943.6875,132984.65625,0.05029296875,1.00830078125,-0.07763671875,-1.5869139432907104,0.5493163466453552,-0.1831054538488388,86.66667175292969,35290.0,1.0
18:10:11.877848,138051.984375,144044.75,163593.40625,160112.96875,186751.15625,183779.625,686005.9375,132998.96875,0.048583984375,1.01025390625,-0.07763671875,-1.6479490995407104,0.4577636420726776,-0.3051757514476776,86.66667175292969,35291.0,1.0
18:10:11.877861,138051.984375,144050.5625,163585.359375,160102.515625,186741.0625,183768.0,686049.1875,132984.75,0.04931640625,1.009765625,-0.076416015625,-1.7700194120407104,0.3051757514476776,-0.2746581733226776,86.66667175292969,35292.0,1.0
18:10:11.879720,138066.109375,144070.328125,163595.109375,160105.46875,186753.21875,183783.296875,686153.0625,132985.375,0.04931640625,1.01171875,-0.078125,-1.6479490995407104,0.1525878757238388,-0.3356933295726776,86.66667175292969,35293.0,1.0
18:10:11.889831,138063.25,144066.203125,163606.015625,160111.1875,186769.3125,183801.4375,685951.3125,132992.625,0.052001953125,1.01025390625,-0.0791015625,-1.7395018339157104,0.2136230319738388,-0.3356933295726776,86.66667175292969,35294.0,1.0
18:10:11.894109,138042.234375,144031.515625,163585.8125,160107.15625,186744.625,183769.34375,685985.0,132992.890625,0.052734375,1.01123046875,-0.078857421875,-1.7395018339157104,0.1831054538488388,-0.2136230319738388,86.66667175292969,35295.0,1.0
