Timestamp,Fz,FC3,FCz,FC4,Cz,C3,C4
18:19:20.600872,130923.203125,142810.484375,157873.421875,155308.25,167517.03125,165392.546875,686105.1875,127818.3671875,0.056884765625,1.0078125,-0.01171875,-1.2207030057907104,0.8850097060203552,0.6103515028953552,86.66667175292969,172576.0,1.0
18:19:20.600900,130946.0,142837.84375,157890.578125,155320.046875,167535.0,165411.046875,686217.75,127826.234375,0.054931640625,1.00927734375,-0.011962890625,-1.1596678495407104,0.8239745497703552,0.7019042372703552,86.66667175292969,172577.0,1.0
18:19:20.604031,130949.671875,142838.03125,157908.109375,155328.890625,167559.859375,165431.4375,686071.4375,127843.4921875,0.054443359375,1.009765625,-0.01220703125,-1.1901854276657104,0.7324218153953552,0.6408690810203552,86.66667175292969,172578.0,1.0
18:19:20.604051,130929.1953125,142808.34375,157891.296875,155322.546875,167539.125,165407.484375,686052.0625,127843.1328125,0.052490234375,1.0107421875,-0.010498046875,-1.0986326932907104,0.7934569716453552,0.5187987685203552,86.66667175292969,172579.0,1.0
18:19:20.604059,130933.9296875,142820.765625,157888.53125,155315.65625,167532.859375,165405.328125,686102.125,127826.4140625,0.05322265625,1.009033203125,-0.010009765625,-1.1291502714157104,0.6408690810203552,0.5493163466453552,86.66667175292969,172580.0,1.0
18:19:20.607680,130954.2265625,142842.859375,157899.25,155328.453125,167541.703125,165412.84375,686218.8125,127836.875,0.051025390625,1.0107421875,-0.009033203125,-1.1596678495407104,0.6103515028953552,0.6408690810203552,86.66667175292969,172581.0,1.0
18:19:20.607700,130954.3203125,142841.328125,157908.46875,155330.59375,167557.0,165428.046875,686088.875,127839.375,0.0517578125,1.01318359375,-0.01171875,-1.1596678495407104,0.5798339247703552,0.5798339247703552,86.66667175292969,172582.0,1.0
18:19:20.607708,130931.0703125,142808.34375,157890.40625,155323.890625,167535.8125,165403.71875,686056.3125,127835.53125,0.05322265625,1.01318359375,-0.009033203125,-1.0681151151657104,0.5187987685203552,0.5798339247703552,86.66667175292969,172583.0,1.0
18:19:20.615189,130917.8359375,142799.671875,157872.96875,155308.953125,167515.25,165385.125,686099.4375,127820.515625,0.050537109375,1.011962890625,-0.009033203125,-1.0070799589157104,0.4577636420726776,0.5798339247703552,86.66667175292969,172584.0,1.0
18:19:20.615231,130935.09375,142826.3125,157880.125,155313.609375,167521.5,165393.171875,686208.25,127822.2109375,0.05224609375,1.01123046875,-0.010986328125,-0.9765624403953552,0.2746581733226776,0.7324218153953552,86.66667175292969,172585.0,1.0
18:19:20.615244,130933.75,142827.03125,157886.296875,155311.46875,167533.125,165408.1875,686138.6875,127819.796875,0.0517578125,1.010498046875,-0.012451171875,-1.0986326932907104,0.2136230319738388,0.6103515028953552,86.66667175292969,172586.0,1.0
18:19:20.618014,130907.2890625,142788.84375,157866.71875,155302.15625,167512.03125,165386.015625,686029.0625,127815.59375,0.051513671875,1.01123046875,-0.01171875,-1.0986326932907104,0.0610351525247097,0.4882812201976776,86.66667175292969,172587.0,1.0
18:19:20.620380,130901.4765625,142782.765625,157855.71875,155297.15625,167497.640625,165374.21875,686047.9375,127812.2890625,0.05078125,1.011962890625,-0.01025390625,-1.0986326932907104,0.0,0.3967284858226776,86.66667175292969,172588.0,1.0
18:19:20.622769,130912.921875,142801.8125,157856.703125,155291.96875,167497.546875,165373.0625,686133.875,127799.953125,0.0517578125,1.012451171875,-0.010986328125,-1.0986326932907104,-0.0610351525247097,0.4272460639476776,86.66667175292969,172589.0,1.0
18:19:20.625375,130924.8984375,142814.953125,157872.703125,155300.546875,167519.453125,165395.859375,686134.9375,127807.7265625,0.050537109375,1.010986328125,-0.01123046875,-1.0375975370407104,-0.0610351525247097,0.3967284858226776,86.66667175292969,172590.0,1.0
18:19:20.627784,130908.1796875,142790.28125,157867.078125,155300.734375,167514.984375,165390.125,685998.25,127811.9296875,0.0517578125,1.0107421875,-0.010498046875,-0.9765624403953552,-0.2441406100988388,0.4577636420726776,86.66667175292969,172591.0,1.0
18:19:20.634074,130892.5390625,142773.390625,157850.265625,155285.984375,167495.3125,165369.65625,686078.125,127800.9296875,0.053955078125,1.011474609375,-0.01318359375,-0.7934569716453552,-0.3967284858226776,0.3967284858226776,86.66667175292969,172592.0,1.0
18:19:20.636595,130906.484375,142799.578125,157854.109375,155284.546875,167497.1875,165378.859375,686151.9375,127798.7890625,0.05419921875,1.0107421875,-0.013671875,-0.7934569716453552,-0.3967284858226776,0.3356933295726776,86.66667175292969,172593.0,1.0
18:19:20.639030,130920.703125,142815.40625,157865.8125,155290.1875,167509.96875,165396.484375,686188.5625,127802.9921875,0.05419921875,1.009033203125,-0.012451171875,-0.7934569716453552,-0.4882812201976776,0.4882812201976776,86.66667175292969,172594.0,1.0
18:19:20.642342,130913.0078125,142799.140625,157870.46875,155301.09375,167517.21875,165398.265625,686033.875,127818.8125,0.053955078125,1.008056640625,-0.01416015625,-0.6713866591453552,-0.5798339247703552,0.4577636420726776,86.66667175292969,172595.0,1.0
18:19:20.642433,130900.2265625,142780.53125,157858.390625,155299.296875,167502.734375,165379.046875,686041.25,127821.5,0.0546875,1.009033203125,-0.014892578125,-0.5493163466453552,-0.6408690810203552,0.5493163466453552,86.66667175292969,172596.0,1.0
18:19:20.644568,130911.578125,142801.546875,157860.90625,155297.78125,167503.796875,165382.359375,686080.375,127806.7421875,0.0546875,1.008544921875,-0.016845703125,-0.4577636420726776,-0.6103515028953552,0.4577636420726776,86.66667175292969,172597.0,1.0
18:19:20.648265,130917.2109375,142808.15625,157860.984375,155293.046875,167505.671875,165383.78125,686193.125,127799.7734375,0.05322265625,1.0068359375,-0.017822265625,-0.2441406100988388,-0.7019042372703552,0.4882812201976776,86.66667175292969,172598.0,1.0
18:19:20.650535,130913.3671875,142797.34375,157871.1875,155302.515625,167521.234375,165394.78125,686030.75,127813.0,0.0537109375,1.0078125,-0.011962890625,-0.2441406100988388,-0.7324218153953552,0.4272460639476776,86.66667175292969,172599.0,1.0
18:19:20.661008,130900.671875,142775.171875,157860.359375,155304.484375,167506.3125,165374.9375,686052.25,127817.6484375,0.052734375,1.008544921875,-0.01025390625,-0.3051757514476776,-0.7629393935203552,0.5187987685203552,86.66667175292969,172600.0,1.0
18:19:20.661086,130913.3671875,142795.734375,157864.75,155306.90625,167508.453125,165378.234375,686101.75,127817.3828125,0.052734375,1.012451171875,-0.012451171875,-0.2136230319738388,-0.7629393935203552,0.3662109076976776,86.66667175292969,172601.0,1.0
18:19:20.663735,130932.4140625,142820.140625,157875.390625,155310.5625,167517.03125,165390.671875,686211.1875,127814.8828125,0.051513671875,1.011962890625,-0.011962890625,-0.1831054538488388,-0.8850097060203552,0.3662109076976776,86.66667175292969,172602.0,1.0
18:19:20.663815,130937.5078125,142822.5625,157893.53125,155322.734375,167540.28125,165414.359375,686070.1875,127831.0625,0.05322265625,1.01025390625,-0.01171875,-0.1525878757238388,-0.9460448622703552,0.4272460639476776,86.66667175292969,172603.0,1.0
18:19:20.669644,130913.1875,142788.21875,157873.328125,155316.921875,167516.765625,165386.109375,686050.0,127833.03125,0.053466796875,1.007080078125,-0.015380859375,-0.1220703050494194,-0.9765624403953552,0.4577636420726776,86.66667175292969,172604.0,1.0
18:19:20.678018,130909.34375,142792.34375,157863.859375,155302.78125,167505.328125,165377.25,686089.75,127815.59375,0.05712890625,1.00732421875,-0.013916015625,-0.1525878757238388,-1.0375975370407104,0.3967284858226776,86.66667175292969,172605.0,1.0
18:19:20.685031,130927.8515625,142816.5625,157872.609375,155309.859375,167511.765625,165386.734375,686193.875,127815.5078125,0.05810546875,1.0087890625,-0.01708984375,-0.1525878757238388,-1.0375975370407104,0.3967284858226776,86.66667175292969,172606.0,1.0
18:19:20.685085,130934.734375,142821.3125,157890.40625,155319.59375,167536.796875,165408.1875,686093.0625,127831.421875,0.061767578125,1.009033203125,-0.021484375,-0.1831054538488388,-0.8544921278953552,0.4577636420726776,86.66667175292969,172607.0,1.0
18:19:20.687382,130907.6484375,142783.578125,157869.390625,155307.609375,167514.890625,165382.984375,686042.375,127827.9375,0.06640625,1.010498046875,-0.023681640625,-0.1525878757238388,-0.7629393935203552,0.6103515028953552,86.66667175292969,172608.0,1.0
18:19:20.687462,130903.984375,142789.296875,157860.359375,155300.28125,167505.140625,165379.140625,686092.8125,127818.9921875,0.066650390625,1.01025390625,-0.02099609375,-0.1220703050494194,-0.7324218153953552,0.7324218153953552,86.66667175292969,172609.0,1.0
18:19:20.696555,130919.984375,142812.984375,157866.0,155301.453125,167508.625,165384.40625,686199.0625,127811.125,0.064208984375,1.010009765625,-0.024169921875,0.0,-0.5798339247703552,0.7934569716453552,86.66667175292969,172610.0,1.0
18:19:20.700874,130935.5390625,142826.765625,157889.15625,155313.609375,167536.4375,165412.390625,686139.125,127824.1796875,0.064697265625,1.0107421875,-0.021484375,0.03051757626235485,-0.4882812201976776,0.7934569716453552,86.66667175292969,172611.0,1.0
18:19:20.700897,130918.109375,142800.5625,157881.015625,155316.828125,167527.5,165400.953125,686051.3125,127834.7265625,0.062255859375,1.009765625,-0.021728515625,-0.03051757626235485,-0.3051757514476776,0.7934569716453552,86.66667175292969,172612.0,1.0
18:19:20.713628,130901.921875,142782.5,157858.390625,155298.234375,167500.9375,165376.546875,686043.5625,127818.1875,0.061279296875,1.0107421875,-0.0205078125,0.03051757626235485,-0.1220703050494194,0.7019042372703552,86.66667175292969,172613.0,1.0
18:19:20.713647,130914.265625,142802.4375,157858.125,155295.8125,167497.71875,165375.734375,686138.0,127804.0625,0.061767578125,1.01318359375,-0.021240234375,0.0,-0.1831054538488388,0.6713866591453552,86.66667175292969,172614.0,1.0
18:19:20.719721,130925.9765625,142816.75,157873.15625,155302.875,167516.40625,165396.484375,686161.1875,127809.6015625,0.06103515625,1.016845703125,-0.020751953125,-0.1220703050494194,-0.1525878757238388,0.4882812201976776,86.66667175292969,172615.0,1.0
18:19:20.719736,130909.5234375,142793.140625,157868.953125,155301.359375,167514.625,165390.9375,686037.125,127814.2578125,0.058349609375,1.02001953125,-0.020263671875,-0.1831054538488388,0.03051757626235485,0.2136230319738388,86.66667175292969,172616.0,1.0
18:19:20.721569,130895.0390625,142775.703125,157852.40625,155294.03125,167496.375,165371.09375,686060.75,127809.6015625,0.05810546875,1.02001953125,-0.0205078125,-0.3051757514476776,0.0,0.1220703050494194,86.66667175292969,172617.0,1.0
18:19:20.727761,130913.1015625,142803.609375,157861.96875,155298.5,167503.09375,165380.5625,686120.625,127810.140625,0.057861328125,1.018798828125,-0.021484375,-0.4272460639476776,0.0,-0.0915527269244194,86.66667175292969,172618.0,1.0
18:19:20.730329,130925.9765625,142820.40625,157875.46875,155304.21875,167518.828125,165397.734375,686190.375,127815.328125,0.05712890625,1.01953125,-0.01806640625,-0.5493163466453552,0.0,-0.1525878757238388,86.66667175292969,172619.0,1.0
18:19:20.734070,130931.515625,142820.765625,157892.8125,155321.65625,167538.765625,165418.390625,686046.0,127837.234375,0.056640625,1.0166015625,-0.02099609375,-0.6408690810203552,-0.0610351525247097,-0.2441406100988388,86.66667175292969,172620.0,1.0
18:19:20.744759,130909.703125,142788.671875,157867.078125,155309.140625,167507.921875,165384.671875,686061.1875,127826.7734375,0.056396484375,1.017578125,-0.020263671875,-0.7934569716453552,-0.0610351525247097,-0.3356933295726776,86.66667175292969,172621.0,1.0
18:19:20.744777,130913.1875,142804.59375,157861.078125,155298.40625,167499.59375,165379.3125,686090.25,127812.1953125,0.0576171875,1.019287109375,-0.019287109375,-0.8544921278953552,0.0610351525247097,-0.3967284858226776,86.66667175292969,172622.0,1.0
18:19:20.747245,130926.3359375,142820.953125,157871.09375,155305.828125,167511.140625,165391.46875,686209.75,127817.0234375,0.0595703125,1.0205078125,-0.02001953125,-1.0681151151657104,0.0915527269244194,-0.3356933295726776,86.66667175292969,172623.0,1.0
18:19:20.747268,130918.640625,142806.90625,157878.421875,155304.9375,167522.578125,165397.015625,686062.3125,127817.0234375,0.05859375,1.02001953125,-0.017578125,-1.2817381620407104,0.0915527269244194,-0.4272460639476776,86.66667175292969,172624.0,1.0
18:19:20.754112,130895.3125,142774.453125,157856.4375,155291.96875,167495.75,165369.03125,686073.125,127805.7578125,0.058349609375,1.016845703125,-0.020263671875,-1.3122557401657104,0.2136230319738388,-0.3967284858226776,86.66667175292969,172625.0,1.0
18:19:20.765182,130902.015625,142789.390625,157855.984375,155288.390625,167493.078125,165367.6875,686075.75,127798.4296875,0.05810546875,1.014892578125,-0.0224609375,-1.4648436307907104,0.3662109076976776,-0.1220703050494194,86.66667175292969,172626.0,1.0
18:19:20.765194,130923.296875,142818.796875,157870.015625,155299.125,167507.46875,165385.390625,686210.1875,127807.4609375,0.057373046875,1.013916015625,-0.021484375,-1.5258787870407104,0.3051757514476776,-0.03051757626235485,86.66667175292969,172627.0,1.0
18:19:20.767138,130922.3984375,142812.359375,157880.84375,155306.0,167524.453125,165400.328125,686073.25,127818.7265625,0.05615234375,1.015625,-0.019287109375,-1.6174315214157104,0.3662109076976776,0.0,86.66667175292969,172628.0,1.0
18:19:20.767162,130897.0078125,142776.515625,157857.328125,155296.0,167496.734375,165370.90625,686046.25,127815.6875,0.054931640625,1.015869140625,-0.0166015625,-1.7089842557907104,0.2746581733226776,0.1220703050494194,86.66667175292969,172629.0,1.0
18:19:20.775318,130902.1953125,142789.921875,157855.171875,155295.71875,167491.90625,165368.859375,686080.1875,127813.71875,0.053466796875,1.015380859375,-0.01708984375,-1.8005369901657104,0.3051757514476776,0.2441406100988388,86.66667175292969,172630.0,1.0
18:19:20.783362,130913.9921875,142808.515625,157856.34375,155292.59375,167491.640625,165372.609375,686204.6875,127800.21875,0.051025390625,1.015380859375,-0.01708984375,-1.8920897245407104,0.3051757514476776,0.3051757514476776,86.66667175292969,172631.0,1.0
18:19:20.783384,130917.125,142810.046875,157869.390625,155297.25,167510.5,165391.5625,686111.6875,127805.1328125,0.048828125,1.0146484375,-0.013916015625,-1.9226073026657104,0.2746581733226776,0.3356933295726776,86.66667175292969,172632.0,1.0
18:19:20.789645,130899.6875,142783.484375,157859.5625,155298.40625,167498.96875,165375.296875,686044.625,127812.2890625,0.048583984375,1.014892578125,-0.013427734375,-2.044677495956421,0.2441406100988388,0.4577636420726776,86.66667175292969,172633.0,1.0
18:19:20.789671,130893.875,142779.734375,157849.28125,155291.53125,167486.8125,165362.5,686070.3125,127803.078125,0.04931640625,1.014404296875,-0.013916015625,-2.136230230331421,0.2136230319738388,0.4882812201976776,86.66667175292969,172634.0,1.0
18:19:20.791562,130916.40625,142811.03125,157862.875,155300.203125,167499.875,165377.078125,686187.5,127808.4453125,0.049072265625,1.0146484375,-0.015625,-2.197265386581421,0.0915527269244194,0.5798339247703552,86.66667175292969,172635.0,1.0
18:19:20.799051,130920.5234375,142817.90625,157874.9375,155297.328125,167519.53125,165398.625,686151.75,127810.5,0.048583984375,1.012939453125,-0.01416015625,-2.227782964706421,-0.0610351525247097,0.6713866591453552,86.66667175292969,172636.0,1.0
18:19:20.805858,130900.5859375,142788.671875,157863.046875,155294.390625,167506.75,165384.40625,686046.0625,127811.2109375,0.0458984375,1.012939453125,-0.012939453125,-2.197265386581421,-0.1831054538488388,0.6713866591453552,86.66667175292969,172637.0,1.0
18:19:20.805882,130891.1953125,142775.703125,157848.03125,155288.390625,167485.734375,165362.765625,686071.5625,127806.4765625,0.046630859375,1.0107421875,-0.015625,-2.288818120956421,-0.2746581733226776,0.7019042372703552,86.66667175292969,172638.0,1.0
18:19:20.817830,130902.015625,142793.40625,157845.875,155285.09375,167480.828125,165359.015625,686152.625,127795.125,0.046875,1.009033203125,-0.015625,-2.288818120956421,-0.3356933295726776,0.6408690810203552,86.66667175292969,172639.0,1.0
18:19:20.820842,130916.3203125,142806.546875,157864.65625,155295.09375,167505.671875,165381.90625,686169.6875,127804.328125,0.046875,1.01123046875,-0.0146484375,-2.288818120956421,-0.4577636420726776,0.5798339247703552,86.66667175292969,172640.0,1.0
18:19:20.820858,130897.8125,142779.828125,157860.09375,155292.59375,167503.4375,165375.109375,686035.3125,127806.296875,0.04833984375,1.010498046875,-0.011474609375,-2.166747808456421,-0.6103515028953552,0.7019042372703552,86.66667175292969,172641.0,1.0
18:19:20.822776,130883.6875,142763.015625,157841.59375,155285.984375,167479.21875,165350.875,686069.0625,127799.5,0.04833984375,1.009765625,-0.012939453125,-2.319335699081421,-0.6408690810203552,0.5493163466453552,86.66667175292969,172642.0,1.0
18:19:20.825319,130904.609375,142794.03125,157848.296875,155289.109375,167481.359375,165360.09375,686130.9375,127800.9296875,0.050048828125,1.0078125,-0.013427734375,-2.380370855331421,-0.6713866591453552,0.3356933295726776,86.66667175292969,172643.0,1.0
18:19:20.832822,130912.3828125,142807.265625,157856.4375,155288.84375,167493.25,165376.09375,686195.5625,127802.6328125,0.0517578125,1.00830078125,-0.01318359375,-2.227782964706421,-0.7019042372703552,0.4272460639476776,86.66667175292969,172644.0,1.0
18:19:20.839743,130906.3984375,142794.21875,157864.125,155293.046875,167504.421875,165384.5,686046.125,127802.0078125,0.05224609375,1.008544921875,-0.0107421875,-2.166747808456421,-0.7934569716453552,0.5798339247703552,86.66667175292969,172645.0,1.0
18:19:20.839767,130886.546875,142765.609375,157842.75,155285.0,167479.484375,165354.90625,686067.3125,127797.0859375,0.053466796875,1.007080078125,-0.012451171875,-2.075195074081421,-0.8239745497703552,0.6103515028953552,86.66667175292969,172646.0,1.0
18:19:20.867143,130898.796875,142788.578125,157847.671875,155283.5625,167481.984375,165359.90625,686123.5,127794.5859375,0.0556640625,1.005126953125,-0.015625,-1.9836424589157104,-0.8239745497703552,0.5187987685203552,86.66667175292969,172647.0,1.0
18:19:20.867192,130920.078125,142814.0625,157865.375,155297.515625,167502.109375,165380.03125,686211.5625,127803.9765625,0.059326171875,1.005126953125,-0.01318359375,-1.9836424589157104,-0.7629393935203552,0.6103515028953552,86.66667175292969,172648.0,1.0
18:19:20.869073,130919.2734375,142808.515625,157876.28125,155304.9375,167518.109375,165394.328125,686061.1875,127810.6796875,0.059814453125,1.002685546875,-0.0166015625,-1.8005369901657104,-0.7324218153953552,0.7934569716453552,86.66667175292969,172649.0,1.0
18:19:20.871511,130896.5625,142775.078125,157854.375,155298.671875,167491.640625,165364.828125,686067.1875,127808.265625,0.063232421875,1.00341796875,-0.014892578125,-1.6784666776657104,-0.7324218153953552,0.7324218153953552,86.66667175292969,172650.0,1.0
18:19:20.874042,130900.671875,142787.15625,157852.140625,155293.765625,167489.046875,165362.59375,686110.8125,127804.8671875,0.060546875,1.00390625,-0.014892578125,-1.4038084745407104,-0.6713866591453552,0.9155272841453552,86.66667175292969,172651.0,1.0
18:19:20.876549,130921.5078125,142813.4375,157866.890625,155303.328125,167505.859375,165378.234375,686224.6875,127810.5859375,0.060302734375,1.003173828125,-0.01513671875,-1.2512205839157104,-0.5187987685203552,1.0681151151657104,86.66667175292969,172652.0,1.0
18:19:20.879683,130923.203125,142814.515625,157879.59375,155311.015625,167524.015625,165399.34375,686091.0,127818.546875,0.06103515625,1.0048828125,-0.016845703125,-1.0375975370407104,-0.4272460639476776,1.2207030057907104,86.66667175292969,172653.0,1.0
18:19:20.881498,130894.6796875,142774.546875,157851.953125,155295.375,167491.640625,165364.65625,686053.375,127807.1015625,0.06298828125,1.0048828125,-0.0166015625,-0.9765624403953552,-0.3051757514476776,1.1291502714157104,86.66667175292969,172654.0,1.0
18:19:20.884004,130890.65625,142775.703125,157841.40625,155285.09375,167479.03125,165351.6875,686052.125,127799.859375,0.06103515625,1.006103515625,-0.018310546875,-0.9155272841453552,-0.2136230319738388,1.1901854276657104,86.66667175292969,172655.0,1.0
18:19:20.887120,130906.3984375,142799.40625,157847.40625,155287.046875,167483.5,165359.015625,686185.0,127794.765625,0.060302734375,1.0068359375,-0.016845703125,-0.7324218153953552,-0.1220703050494194,1.1596678495407104,86.66667175292969,172656.0,1.0
18:19:20.887160,130914.171875,142806.109375,157865.28125,155298.046875,167507.28125,165383.0625,686106.125,127805.5859375,0.06103515625,1.009521484375,-0.014404296875,-0.6408690810203552,-0.0610351525247097,1.1596678495407104,86.66667175292969,172657.0,1.0
18:19:20.888977,130888.9609375,142773.46875,157846.234375,155287.953125,167487.171875,165362.765625,686045.1875,127799.7734375,0.060302734375,1.01025390625,-0.01611328125,-0.6408690810203552,0.0,1.0986326932907104,86.66667175292969,172658.0,1.0
18:19:20.891526,130887.7109375,142776.78125,157840.875,155283.484375,167479.484375,165357.140625,686071.75,127800.3984375,0.058837890625,1.01220703125,-0.0146484375,-0.5493163466453552,0.1220703050494194,0.9765624403953552,86.66667175292969,172659.0,1.0
18:19:20.895839,130908.6328125,142808.078125,157851.421875,155289.375,167487.796875,165369.484375,686175.5,127798.0703125,0.060546875,1.0126953125,-0.017333984375,-0.4272460639476776,0.1831054538488388,0.9765624403953552,86.66667175292969,172660.0,1.0
18:19:20.895879,130924.2734375,142821.65625,157870.640625,155301.8125,167510.59375,165395.578125,686145.75,127808.171875,0.060302734375,1.0126953125,-0.020263671875,-0.4272460639476776,0.1525878757238388,0.9460448622703552,86.66667175292969,172661.0,1.0
18:19:20.905253,130911.578125,142799.40625,157867.609375,155305.734375,167507.921875,165389.421875,686041.25,127816.21875,0.05810546875,1.01171875,-0.01904296875,-0.4577636420726776,0.2746581733226776,0.8239745497703552,86.66667175292969,172662.0,1.0
18:19:20.912162,130893.5234375,142782.0625,157847.9375,155289.921875,167485.65625,165363.484375,686060.4375,127801.2890625,0.0576171875,1.01220703125,-0.0146484375,-0.4272460639476776,0.3662109076976776,0.7019042372703552,86.66667175292969,172663.0,1.0
18:19:20.912239,130911.1328125,142810.484375,157855.71875,155297.78125,167489.046875,165370.46875,686140.8125,127804.78125,0.057861328125,1.011962890625,-0.017333984375,-0.4882812201976776,0.3051757514476776,0.7019042372703552,86.66667175292969,172664.0,1.0
18:19:20.917855,130918.2890625,142818.4375,157863.578125,155296.625,167500.671875,165382.984375,686168.625,127803.5234375,0.05859375,1.012451171875,-0.01513671875,-0.4272460639476776,0.3662109076976776,0.7324218153953552,86.66667175292969,172665.0,1.0
18:19:20.924052,130898.6171875,142790.8125,157854.828125,155286.421875,167494.859375,165374.390625,686031.5,127795.4765625,0.058837890625,1.013671875,-0.0166015625,-0.5187987685203552,0.4577636420726776,0.7324218153953552,86.66667175292969,172666.0,1.0
18:19:20.953017,130882.078125,142770.609375,157837.921875,155278.46875,167474.203125,165353.109375,686067.875,127790.3828125,0.059814453125,1.008544921875,-0.019775390625,-0.4577636420726776,0.4272460639476776,0.7324218153953552,86.66667175292969,172667.0,1.0
18:19:20.972243,130902.375,142800.5625,157848.390625,155285.984375,167480.375,165362.59375,686112.375,127791.3671875,0.060302734375,1.010498046875,-0.021484375,-0.5798339247703552,0.4882812201976776,0.7324218153953552,86.66667175292969,172668.0,1.0
18:19:20.972325,130918.640625,142819.421875,157863.140625,155291.796875,167497.1875,165380.03125,686188.3125,127795.296875,0.059814453125,1.01171875,-0.020263671875,-0.5187987685203552,0.5493163466453552,0.7019042372703552,86.66667175292969,172669.0,1.0
18:19:20.974081,130915.875,142810.671875,157873.859375,155300.734375,167513.453125,165392.015625,686040.6875,127806.7421875,0.0576171875,1.011474609375,-0.022216796875,-0.5187987685203552,0.5798339247703552,0.6408690810203552,86.66667175292969,172670.0,1.0
18:19:20.976630,130898.171875,142783.84375,157858.9375,155296.703125,167495.84375,165365.984375,686071.875,127806.296875,0.057373046875,1.01123046875,-0.02197265625,-0.5187987685203552,0.6408690810203552,0.6408690810203552,86.66667175292969,172671.0,1.0
18:19:20.979128,130909.5234375,142802.984375,157860.359375,155298.859375,167494.234375,165365.71875,686112.6875,127803.078125,0.056884765625,1.01416015625,-0.019775390625,-0.5798339247703552,0.6713866591453552,0.6713866591453552,86.66667175292969,172672.0,1.0
18:19:20.984005,130926.0625,142818.796875,157870.5625,155305.65625,167502.1875,165373.6875,686203.875,127806.7421875,0.055419921875,1.013427734375,-0.017333984375,-0.6408690810203552,0.7019042372703552,0.7019042372703552,86.66667175292969,172673.0,1.0
18:19:20.987043,130927.8515625,142812.453125,157882.8125,155315.65625,167519.984375,165386.46875,686054.1875,127820.15625,0.056640625,1.013671875,-0.020751953125,-0.5798339247703552,0.6408690810203552,0.7019042372703552,86.66667175292969,172674.0,1.0
18:19:20.989222,130896.5625,142775.890625,157854.203125,155299.84375,167490.75,165354.71875,686059.75,127812.2890625,0.0546875,1.0146484375,-0.020263671875,-0.5798339247703552,0.6408690810203552,0.6103515028953552,86.66667175292969,172675.0,1.0
18:19:20.991824,130896.203125,142783.9375,157849.09375,155292.953125,167484.84375,165350.171875,686078.5,127799.1484375,0.055419921875,1.0146484375,-0.018310546875,-0.6103515028953552,0.6103515028953552,0.6103515028953552,86.66667175292969,172676.0,1.0
18:19:20.994186,130913.9921875,142810.9375,157859.203125,155296.265625,167494.5,165365.546875,686202.3125,127796.015625,0.052734375,1.01220703125,-0.020263671875,-0.7324218153953552,0.5493163466453552,0.7629393935203552,86.66667175292969,172677.0,1.0
18:19:20.998519,130919.625,142815.046875,157874.9375,155305.5625,167515.78125,165389.59375,686071.75,127808.9765625,0.052978515625,1.012939453125,-0.01806640625,-0.8239745497703552,0.5187987685203552,0.7324218153953552,86.66667175292969,172678.0,1.0
18:19:20.998576,130886.28125,142769.71875,157845.171875,155287.046875,167482.25,165351.859375,686033.625,127794.4921875,0.050537109375,1.013671875,-0.018798828125,-0.7019042372703552,0.5187987685203552,0.6408690810203552,86.66667175292969,172679.0,1.0
18:19:20.998590,130890.65625,142779.46875,157843.734375,155286.15625,167477.875,165349.71875,686099.875,127793.3359375,0.050537109375,1.0146484375,-0.0166015625,-0.8239745497703552,0.4272460639476776,0.4882812201976776,86.66667175292969,172680.0,1.0
18:19:20.998603,130923.6484375,142819.421875,157865.546875,155306.640625,167496.46875,165372.15625,686206.4375,127809.9609375,0.04833984375,1.015869140625,-0.01708984375,-0.9155272841453552,0.2136230319738388,0.4577636420726776,86.66667175292969,172681.0,1.0
18:19:21.000348,130927.671875,142824.703125,157877.703125,155302.515625,167513.71875,165392.09375,686111.9375,127803.8828125,0.051025390625,1.01708984375,-0.019287109375,-1.0070799589157104,0.1220703050494194,0.3051757514476776,86.66667175292969,172682.0,1.0
18:19:21.002899,130900.2265625,142785.1875,157858.125,155297.609375,167493.609375,165366.078125,686034.25,127802.0078125,0.0517578125,1.017822265625,-0.02001953125,-1.2207030057907104,0.0610351525247097,0.3356933295726776,86.66667175292969,172683.0,1.0
18:19:21.005463,130884.8515625,142770.25,157839.4375,155281.6875,167472.234375,165343.109375,686097.1875,127787.078125,0.0498046875,1.01806640625,-0.02001953125,-1.3427733182907104,-0.03051757626235485,0.3051757514476776,86.66667175292969,172684.0,1.0
18:19:21.008354,130901.03125,142796.890625,157845.34375,155284.375,167477.25,165351.421875,686186.9375,127786.71875,0.0498046875,1.018310546875,-0.020751953125,-1.4953612089157104,0.03051757626235485,0.1831054538488388,86.66667175292969,172685.0,1.0
18:19:21.008378,130908.6328125,142806.015625,157858.390625,155290.890625,167495.75,165371.0,686156.3125,127796.015625,0.050048828125,1.015625,-0.023193359375,-1.5869139432907104,-0.0915527269244194,0.1831054538488388,86.66667175292969,172686.0,1.0
18:19:21.010345,130898.171875,142787.0625,157857.859375,155297.609375,167494.6875,165368.578125,686035.3125,127807.1015625,0.051513671875,1.01513671875,-0.02734375,-1.6784666776657104,-0.1831054538488388,0.2136230319738388,86.66667175292969,172687.0,1.0
18:19:21.012765,130880.6484375,142762.296875,157837.390625,155283.75,167470.8125,165337.734375,686045.0625,127792.3515625,0.050048828125,1.015869140625,-0.02197265625,-1.7089842557907104,-0.2746581733226776,0.3051757514476776,86.66667175292969,172688.0,1.0
18:19:21.015353,130901.390625,142791.625,157846.328125,155289.5625,167476.53125,165345.609375,686119.5625,127791.90625,0.0517578125,1.015625,-0.018798828125,-1.9226073026657104,-0.3051757514476776,0.2746581733226776,86.66667175292969,172689.0,1.0
18:19:21.018481,130920.5234375,142814.515625,157866.71875,155301.890625,167499.953125,165371.625,686169.0,127805.3125,0.05126953125,1.0126953125,-0.023193359375,-1.9531248807907104,-0.3967284858226776,0.2441406100988388,86.66667175292969,172690.0,1.0
18:19:21.018496,130907.109375,142796.0,157864.296875,155302.703125,167499.25,165372.15625,686022.375,127804.421875,0.052978515625,1.013671875,-0.022705078125,-2.014159917831421,-0.3967284858226776,0.3051757514476776,86.66667175292969,172691.0,1.0
18:19:21.028399,130889.8515625,142773.203125,157846.421875,155289.921875,167477.78125,165349.453125,686069.75,127791.6328125,0.053955078125,1.012939453125,-0.019287109375,-2.105712652206421,-0.4882812201976776,0.3967284858226776,86.66667175292969,172692.0,1.0
18:19:21.028436,130909.96875,142801.015625,157858.84375,155300.828125,167488.6875,165356.96875,686128.6875,127799.1484375,0.055908203125,1.01025390625,-0.021484375,-2.136230230331421,-0.5493163466453552,0.4272460639476776,86.66667175292969,172693.0,1.0
18:19:21.030877,130925.2578125,142822.203125,157873.328125,155306.453125,167505.140625,165375.375,686201.5625,127805.1328125,0.05517578125,1.010986328125,-0.020263671875,-2.136230230331421,-0.6408690810203552,0.4882812201976776,86.66667175292969,172694.0,1.0
18:19:21.030896,130913.640625,142802.53125,157871.984375,155307.4375,167505.765625,165375.203125,686035.75,127809.6015625,0.0556640625,1.01220703125,-0.019287109375,-2.166747808456421,-0.6713866591453552,0.6408690810203552,86.66667175292969,172695.0,1.0
18:19:21.041862,130885.7421875,142763.8125,157842.21875,155290.09375,167473.40625,165338.0,686058.375,127796.90625,0.053955078125,1.013671875,-0.01904296875,-2.258300542831421,-0.7324218153953552,0.5493163466453552,86.66667175292969,172696.0,1.0
18:19:21.048359,130895.9375,142782.5,157844.890625,155289.015625,167475.28125,165339.53125,686069.6875,127792.7109375,0.05419921875,1.012451171875,-0.01708984375,-2.288818120956421,-0.7934569716453552,0.6408690810203552,86.66667175292969,172697.0,1.0
18:19:21.048386,130908.984375,142800.75,157854.375,155292.859375,167485.65625,165350.4375,686184.625,127796.5546875,0.052978515625,1.011474609375,-0.01611328125,-2.349853277206421,-0.8544921278953552,0.6408690810203552,86.66667175292969,172698.0,1.0
18:19:21.054719,130902.8203125,142791.984375,157860.453125,155294.390625,167497.546875,165363.40625,686032.125,127805.3125,0.05419921875,1.01171875,-0.016845703125,-2.410888433456421,-0.7934569716453552,0.6103515028953552,86.66667175292969,172699.0,1.0
18:19:21.054743,130883.328125,142764.984375,157841.59375,155292.15625,167473.5,165340.328125,686042.5,127801.734375,0.054443359375,1.011474609375,-0.018310546875,-2.441406011581421,-0.8239745497703552,0.5798339247703552,86.66667175292969,172700.0,1.0
18:19:21.067157,130883.4140625,142773.828125,157835.421875,155279.71875,167466.078125,165336.21875,686059.0,127783.6796875,0.055419921875,1.01123046875,-0.01708984375,-2.471923589706421,-0.7934569716453552,0.4577636420726776,86.66667175292969,172701.0,1.0
18:19:21.067178,130896.828125,142795.28125,157841.40625,155282.765625,167473.5,165346.59375,686180.5,127782.875,0.055908203125,1.011962890625,-0.0185546875,-2.502441167831421,-0.7934569716453552,0.4272460639476776,86.66667175292969,172702.0,1.0
18:19:21.075259,130897.8125,142793.40625,157855.265625,155286.875,167495.578125,165365.546875,686060.25,127790.3828125,0.05859375,1.0107421875,-0.01708984375,-2.532958745956421,-0.8544921278953552,0.4272460639476776,86.66667175292969,172703.0,1.0
18:19:21.075292,130871.4375,142756.3125,157833.984375,155277.671875,167471.34375,165336.578125,686024.3125,127785.2890625,0.06103515625,1.0107421875,-0.01953125,-2.502441167831421,-0.7324218153953552,0.5493163466453552,86.66667175292969,172704.0,1.0
18:19:21.075300,130875.546875,142767.21875,157831.84375,155272.75,167465.359375,165333.09375,686072.625,127778.4921875,0.060791015625,1.011474609375,-0.019287109375,-2.471923589706421,-0.7019042372703552,0.4882812201976776,86.66667175292969,172705.0,1.0
18:19:21.077782,130901.1171875,142801.1875,157846.59375,155283.296875,167478.234375,165349.09375,686181.0,127788.7734375,0.0595703125,1.00927734375,-0.0166015625,-2.532958745956421,-0.7324218153953552,0.4882812201976776,86.66667175292969,172706.0,1.0
18:19:21.080313,130909.34375,142806.640625,157863.578125,155290.8125,167500.9375,165370.375,686110.625,127801.0234375,0.061767578125,1.010986328125,-0.015625,-2.502441167831421,-0.6713866591453552,0.4882812201976776,86.66667175292969,172707.0,1.0
18:19:21.086564,130890.03125,142773.921875,157847.84375,155286.609375,167480.90625,165349.265625,686020.75,127790.5625,0.06103515625,1.01025390625,-0.01806640625,-2.502441167831421,-0.4882812201976776,0.3662109076976776,86.66667175292969,172708.0,1.0
18:19:21.102254,130885.1171875,142773.828125,157837.921875,155279.90625,167468.046875,165339.609375,686072.375,127782.15625,0.0615234375,1.010009765625,-0.013671875,-2.380370855331421,-0.4272460639476776,0.3662109076976776,86.66667175292969,172709.0,1.0
18:19:21.102299,130900.9375,142798.234375,157845.796875,155282.84375,167475.28125,165346.40625,686169.5,127781.6171875,0.06103515625,1.010986328125,-0.01611328125,-2.349853277206421,-0.4577636420726776,0.4577636420726776,86.66667175292969,172710.0,1.0
18:19:21.104722,130914.0859375,142811.46875,157865.109375,155293.765625,167501.5625,165371.0,686146.125,127793.9609375,0.059326171875,1.01171875,-0.013671875,-2.288818120956421,-0.3662109076976776,0.4577636420726776,86.66667175292969,172711.0,1.0
18:19:21.104788,130889.3203125,142777.40625,157852.765625,155285.984375,167489.9375,165355.53125,686023.6875,127791.9921875,0.061279296875,1.010498046875,-0.014892578125,-2.227782964706421,-0.3356933295726776,0.3967284858226776,86.66667175292969,172712.0,1.0
18:19:21.107317,130875.4609375,142758.984375,157835.78125,155277.671875,167469.65625,165333.359375,686061.1875,127784.3046875,0.061767578125,1.00830078125,-0.0146484375,-2.166747808456421,-0.3967284858226776,0.3662109076976776,86.66667175292969,172713.0,1.0
18:19:21.107343,130887.7109375,142780.09375,157834.53125,155274.53125,167464.375,165333.453125,686127.0,127777.5078125,0.062744140625,1.00830078125,-0.0146484375,-2.075195074081421,-0.1220703050494194,0.3356933295726776,86.66667175292969,172714.0,1.0
18:19:21.119069,130908.8984375,142802.984375,157854.203125,155286.609375,167485.109375,165358.03125,686171.4375,127786.1796875,0.062744140625,1.007568359375,-0.01513671875,-2.075195074081421,-0.1831054538488388,0.2441406100988388,86.66667175292969,172715.0,1.0
18:19:21.123560,130903.890625,142792.421875,157861.53125,155297.25,167495.484375,165365.1875,686024.6875,127801.46875,0.062255859375,1.00732421875,-0.0146484375,-1.9531248807907104,-0.1220703050494194,0.2746581733226776,86.66667175292969,172716.0,1.0
18:19:21.123606,130890.3046875,142775.625,157848.109375,155292.5,167481.453125,165348.296875,686070.625,127802.5390625,0.062744140625,1.00732421875,-0.015625,-1.9531248807907104,0.0610351525247097,0.2136230319738388,86.66667175292969,172717.0,1.0
18:19:21.127119,130894.4140625,142786.96875,157844.09375,155282.3125,167476.4375,165342.03125,686112.25,127786.8046875,0.061767578125,1.009033203125,-0.01416015625,-1.9226073026657104,0.0915527269244194,0.2136230319738388,86.66667175292969,172718.0,1.0
18:19:21.127150,130904.609375,142802.0,157852.3125,155285.0,167487.0,165354.90625,686195.0,127787.1640625,0.059326171875,1.008056640625,-0.015380859375,-1.8310545682907104,0.1525878757238388,0.1525878757238388,86.66667175292969,172719.0,1.0
18:19:21.139024,130899.78125,142790.28125,157860.0,155288.75,167499.15625,165362.953125,686037.0,127795.4765625,0.059814453125,1.0078125,-0.01513671875,-1.8310545682907104,0.2441406100988388,0.1525878757238388,86.66667175292969,172720.0,1.0
18:19:21.143379,130873.8515625,142756.03125,157834.4375,155278.5625,167469.375,165331.75,686063.5625,127787.96875,0.059326171875,1.008544921875,-0.011962890625,-1.7395018339157104,0.3051757514476776,0.1220703050494194,86.66667175292969,172721.0,1.0
18:19:21.143410,130887.7109375,142778.5625,157840.96875,155287.046875,167474.125,165339.703125,686087.625,127796.015625,0.05859375,1.009521484375,-0.013671875,-1.7700194120407104,0.3356933295726776,0.1220703050494194,86.66667175292969,172722.0,1.0
18:19:21.150896,130903.8046875,142801.09375,157850.703125,155283.75,167484.84375,165352.3125,686203.875,127789.7578125,0.055908203125,1.009765625,-0.01318359375,-1.7700194120407104,0.2441406100988388,-0.03051757626235485,86.66667175292969,172723.0,1.0
18:19:21.150930,130906.484375,142801.546875,157864.5625,155292.15625,167502.640625,165372.421875,686058.3125,127797.7109375,0.054443359375,1.012939453125,-0.014892578125,-1.7089842557907104,0.3356933295726776,-0.0610351525247097,86.66667175292969,172724.0,1.0
18:19:21.154676,130882.609375,142768.109375,157841.765625,155282.84375,167475.8125,165345.078125,686054.75,127789.3125,0.053955078125,1.012939453125,-0.014892578125,-1.7395018339157104,0.2746581733226776,0.0,86.66667175292969,172725.0,1.0
18:19:21.154708,130886.1875,142779.28125,157839.359375,155278.203125,167472.234375,165342.65625,686063.0625,127782.9609375,0.053466796875,1.01123046875,-0.01171875,-1.7395018339157104,0.2441406100988388,0.0,86.66667175292969,172726.0,1.0
18:19:21.161548,130901.4765625,142803.421875,157846.5,155279.28125,167477.875,165352.046875,686195.75,127778.8515625,0.053466796875,1.011962890625,-0.012451171875,-1.6784666776657104,0.2441406100988388,-0.0915527269244194,86.66667175292969,172727.0,1.0
18:19:21.168330,130905.765625,142805.03125,157862.6875,155288.9375,167499.59375,165372.515625,686081.375,127789.21875,0.052978515625,1.0107421875,-0.01318359375,-1.7395018339157104,0.1831054538488388,-0.03051757626235485,86.66667175292969,172728.0,1.0
18:19:21.168338,130883.4140625,142769.625,157845.609375,155284.90625,167480.015625,165348.296875,686052.5,127793.3359375,0.052734375,1.010498046875,-0.012939453125,-1.7089842557907104,0.2136230319738388,-0.1220703050494194,86.66667175292969,172729.0,1.0
18:19:21.170307,130878.6796875,142767.125,157834.890625,155273.828125,167466.515625,165335.953125,686076.0,127778.8515625,0.05322265625,1.0087890625,-0.013671875,-1.7089842557907104,0.1525878757238388,-0.0915527269244194,86.66667175292969,172730.0,1.0
18:19:21.180457,130900.046875,142797.53125,157846.328125,155281.328125,167476.53125,165349.09375,686193.5625,127781.796875,0.052978515625,1.010009765625,-0.013916015625,-1.6479490995407104,0.1220703050494194,0.03051757626235485,86.66667175292969,172731.0,1.0
18:19:21.191517,130907.46875,142803.328125,157861.34375,155287.859375,167497.640625,165368.859375,686136.375,127790.3828125,0.052490234375,1.00927734375,-0.01318359375,-1.6174315214157104,0.0915527269244194,-0.0915527269244194,86.66667175292969,172732.0,1.0
18:19:21.191624,130884.578125,142772.3125,157844.359375,155279.453125,167478.953125,165351.421875,686040.8125,127783.6796875,0.048828125,1.009033203125,-0.011962890625,-1.6479490995407104,0.0915527269244194,0.03051757626235485,86.66667175292969,172733.0,1.0
18:19:21.191653,130878.234375,142768.640625,157834.53125,155274.53125,167465.71875,165339.703125,686053.1875,127779.8359375,0.05029296875,1.01025390625,-0.0126953125,-1.5258787870407104,-0.03051757626235485,0.03051757626235485,86.66667175292969,172734.0,1.0
18:19:21.194059,130905.0546875,142806.28125,157850.625,155285.09375,167479.484375,165357.234375,686162.375,127788.5078125,0.052001953125,1.00830078125,-0.011474609375,-1.4648436307907104,-0.1525878757238388,0.0915527269244194,86.66667175292969,172735.0,1.0
18:19:21.196536,130916.5859375,142817.28125,157865.1875,155293.9375,167499.328125,165376.09375,686165.6875,127800.3984375,0.051513671875,1.0087890625,-0.01025390625,-1.4038084745407104,-0.1220703050494194,0.1525878757238388,86.66667175292969,172736.0,1.0
18:19:21.203005,130899.78125,142791.984375,157859.5625,155293.40625,167492.8125,165367.6875,686037.9375,127806.4765625,0.05126953125,1.01025390625,-0.01220703125,-1.2817381620407104,-0.2441406100988388,0.1220703050494194,86.66667175292969,172737.0,1.0
18:19:21.209845,130882.5234375,142769.984375,157841.328125,155284.640625,167470.546875,165342.484375,686079.3125,127795.390625,0.051513671875,1.011962890625,-0.011474609375,-1.3427733182907104,-0.3356933295726776,0.1525878757238388,86.66667175292969,172738.0,1.0
18:19:21.209901,130892.71875,142786.890625,157840.0625,155281.0625,167467.140625,165338.1875,686145.75,127782.0703125,0.050537109375,1.0126953125,-0.013671875,-1.3122557401657104,-0.4882812201976776,0.1831054538488388,86.66667175292969,172739.0,1.0
18:19:21.212885,130916.9453125,142814.0625,157864.390625,155297.328125,167494.765625,165368.765625,686191.0,127798.609375,0.0498046875,1.014404296875,-0.013427734375,-1.2817381620407104,-0.3967284858226776,0.0915527269244194,86.66667175292969,172740.0,1.0
18:19:21.223480,130917.6640625,142807.53125,157877.0,155308.515625,167510.78125,165379.84375,686048.3125,127814.8828125,0.050048828125,1.01318359375,-0.01123046875,-1.1901854276657104,-0.4882812201976776,0.2746581733226776,86.66667175292969,172741.0,1.0
18:19:21.223509,130901.296875,142785.0,157859.296875,155298.046875,167488.421875,165354.453125,686070.375,127801.9140625,0.052001953125,1.011474609375,-0.012451171875,-1.2512205839157104,-0.4882812201976776,0.3967284858226776,86.66667175292969,172742.0,1.0
18:19:21.225939,130905.5,142799.3125,157855.09375,155289.203125,167482.703125,165350.875,686118.0625,127792.171875,0.05078125,1.011962890625,-0.013427734375,-1.2512205839157104,-0.5187987685203552,0.3662109076976776,86.66667175292969,172743.0,1.0
18:19:21.225965,130917.9296875,142819.421875,157865.375,155289.46875,167494.859375,165369.203125,686204.375,127790.6484375,0.05224609375,1.010009765625,-0.0146484375,-1.1901854276657104,-0.4272460639476776,0.5187987685203552,86.66667175292969,172744.0,1.0
18:19:21.235259,130908.0078125,142804.046875,157867.515625,155292.234375,167501.484375,165373.234375,686047.375,127795.03125,0.052734375,1.010498046875,-0.015869140625,-1.2207030057907104,-0.4882812201976776,0.6408690810203552,86.66667175292969,172745.0,1.0
18:19:21.237814,130886.8125,142774.640625,157845.703125,155283.75,167475.28125,165347.9375,686059.8125,127788.7734375,0.05419921875,1.01220703125,-0.013671875,-1.1596678495407104,-0.6103515028953552,0.5493163466453552,86.66667175292969,172746.0,1.0
18:19:21.240252,130899.328125,142795.375,157849.90625,155286.34375,167476.171875,165352.9375,686088.0,127788.4140625,0.05322265625,1.012451171875,-0.012939453125,-1.1291502714157104,-0.6713866591453552,0.4577636420726776,86.66667175292969,172747.0,1.0
18:19:21.250415,130915.875,142816.390625,157860.8125,155293.671875,167486.90625,165365.015625,686223.0625,127797.984375,0.052978515625,1.01220703125,-0.012939453125,-1.0986326932907104,-0.5798339247703552,0.5493163466453552,86.66667175292969,172748.0,1.0
18:19:21.253376,130908.71875,142806.109375,157865.8125,155292.6875,167497.1875,165373.5,686077.6875,127797.5390625,0.053955078125,1.01123046875,-0.013916015625,-1.1596678495407104,-0.6103515028953552,0.5493163466453552,86.66667175292969,172749.0,1.0
18:19:21.253396,130881.984375,142766.765625,157842.484375,155282.671875,167470.28125,165339.265625,686068.125,127789.6640625,0.05419921875,1.01220703125,-0.015380859375,-1.1901854276657104,-0.6103515028953552,0.5798339247703552,86.66667175292969,172750.0,1.0
18:19:21.258999,130879.21875,142770.078125,157832.921875,155274.796875,167458.03125,165328.796875,686068.5625,127781.6171875,0.055908203125,1.010986328125,-0.01416015625,-1.1901854276657104,-0.6103515028953552,0.6408690810203552,86.66667175292969,172751.0,1.0
18:19:21.267091,130889.8515625,142789.296875,157833.546875,155274.09375,167458.734375,165334.15625,686203.75,127783.5859375,0.056396484375,1.01220703125,-0.01416015625,-1.1901854276657104,-0.5493163466453552,0.5493163466453552,86.66667175292969,172752.0,1.0
18:19:21.267114,130880.9140625,142779.1875,157833.625,155264.796875,167464.546875,165341.671875,686096.5,127769.7265625,0.056884765625,1.012451171875,-0.013671875,-1.2207030057907104,-0.4577636420726776,0.5187987685203552,86.66667175292969,172753.0,1.0
18:19:21.272094,130853.734375,142741.28125,157812.984375,155257.109375,167442.375,165313.234375,686034.1875,127765.171875,0.058837890625,1.011962890625,-0.017333984375,-1.2207030057907104,-0.4577636420726776,0.5493163466453552,86.66667175292969,172754.0,1.0
18:19:21.272115,130856.1484375,142745.046875,157811.375,155254.953125,167439.34375,165308.140625,686058.125,127763.3828125,0.058349609375,1.010498046875,-0.013671875,-1.1291502714157104,-0.3967284858226776,0.4882812201976776,86.66667175292969,172755.0,1.0
18:19:21.274007,130891.9140625,142790.375,157836.84375,155277.484375,167463.484375,165336.578125,686183.1875,127781.0859375,0.060302734375,1.010498046875,-0.0166015625,-1.0681151151657104,-0.2441406100988388,0.4882812201976776,86.66667175292969,172756.0,1.0
18:19:21.282861,130895.9375,142793.765625,157849.28125,155281.421875,167482.34375,165352.765625,686136.375,127787.25,0.059326171875,1.0107421875,-0.01611328125,-1.0681151151657104,-0.2136230319738388,0.4577636420726776,86.66667175292969,172757.0,1.0
18:19:21.287161,130876.0,142762.03125,157837.484375,155277.671875,167469.921875,165336.21875,686041.5,127786.09375,0.06005859375,1.011962890625,-0.01416015625,-1.0986326932907104,-0.1220703050494194,0.6103515028953552,86.66667175292969,172758.0,1.0
18:19:21.287185,130871.8828125,142752.8125,157829.15625,155277.84375,167458.921875,165320.3125,686070.5625,127785.8203125,0.059326171875,1.013916015625,-0.013427734375,-1.0681151151657104,-0.1220703050494194,0.6408690810203552,86.66667175292969,172759.0,1.0
18:19:21.337799,130891.8203125,142783.3125,157839.4375,155285.265625,167466.78125,165330.59375,686156.375,127790.0234375,0.058837890625,1.011962890625,-0.012451171875,-1.0070799589157104,0.03051757626235485,0.5798339247703552,86.66667175292969,172760.0,1.0
18:19:21.349070,130914.4453125,142811.109375,157866.4375,155301.453125,167497.359375,165365.984375,686162.1875,127805.1328125,0.05859375,1.010986328125,-0.01513671875,-1.0070799589157104,0.0,0.5187987685203552,86.66667175292969,172761.0,1.0
18:19:21.352210,130902.4609375,142792.0625,157863.765625,155301.8125,167496.375,165363.75,686035.25,127805.5859375,0.056884765625,1.008544921875,-0.016845703125,-0.9765624403953552,0.03051757626235485,0.4577636420726776,86.66667175292969,172762.0,1.0
18:19:21.352239,130882.609375,142772.3125,157843.203125,155286.609375,167472.59375,165339.796875,686075.125,127791.6328125,0.057861328125,1.0078125,-0.015625,-1.0070799589157104,0.1525878757238388,0.4577636420726776,86.66667175292969,172763.0,1.0
18:19:21.355232,130899.0625,142799.671875,157850.625,155289.015625,167476.53125,165347.390625,686140.3125,127789.0390625,0.057861328125,1.009765625,-0.017333984375,-0.9155272841453552,0.1831054538488388,0.4882812201976776,86.66667175292969,172764.0,1.0
18:19:21.355260,130909.078125,142810.578125,157860.90625,155289.734375,167491.734375,165362.0625,686194.375,127791.90625,0.05712890625,1.01171875,-0.013671875,-0.9155272841453552,0.2746581733226776,0.3967284858226776,86.66667175292969,172765.0,1.0
18:19:21.355268,130899.6875,142796.453125,157862.6875,155293.046875,167494.6875,165366.625,686047.75,127796.8203125,0.056884765625,1.0126953125,-0.015380859375,-0.8544921278953552,0.2746581733226776,0.4272460639476776,86.66667175292969,172766.0,1.0
18:19:21.359606,130884.046875,142774.453125,157845.4375,155287.953125,167472.15625,165342.203125,686044.25,127794.671875,0.056884765625,1.012939453125,-0.01611328125,-0.9155272841453552,0.3051757514476776,0.4272460639476776,86.66667175292969,172767.0,1.0
18:19:21.359630,130901.921875,142801.015625,157855.09375,155296.0,167479.03125,165349.09375,686071.1875,127803.6171875,0.057861328125,1.0126953125,-0.015625,-0.9460448622703552,0.4577636420726776,0.4272460639476776,86.66667175292969,172768.0,1.0
18:19:21.359637,130901.7421875,142804.140625,157852.859375,155288.125,167478.59375,165346.859375,686177.9375,127790.296875,0.058837890625,1.010986328125,-0.01611328125,-0.8850097060203552,0.4272460639476776,0.2746581733226776,86.66667175292969,172769.0,1.0
18:19:21.359642,130902.375,142800.03125,157864.75,155296.984375,167494.140625,165364.734375,686034.625,127799.859375,0.057861328125,1.01123046875,-0.017578125,-0.9460448622703552,0.4577636420726776,0.3051757514476776,86.66667175292969,172770.0,1.0
18:19:21.362090,130874.296875,142762.46875,157836.765625,155280.96875,167460.890625,165328.53125,686074.6875,127786.5390625,0.056640625,1.0126953125,-0.017333984375,-0.8850097060203552,0.5187987685203552,0.2746581733226776,86.66667175292969,172771.0,1.0
18:19:21.362107,130880.9140625,142774.28125,157835.234375,155278.828125,167456.953125,165322.984375,686140.125,127784.390625,0.05322265625,1.014404296875,-0.015869140625,-0.9155272841453552,0.4882812201976776,0.3051757514476776,86.66667175292969,172772.0,1.0
18:19:21.363987,130902.375,142802.703125,157850.703125,155288.21875,167473.671875,165343.109375,686222.125,127794.671875,0.053466796875,1.01318359375,-0.011962890625,-0.9765624403953552,0.4577636420726776,0.4272460639476776,86.66667175292969,172773.0,1.0
18:19:21.366565,130900.2265625,142797.078125,157862.421875,155293.484375,167491.546875,165358.125,686071.5625,127799.3203125,0.053466796875,1.013427734375,-0.014892578125,-1.0070799589157104,0.3967284858226776,0.4272460639476776,86.66667175292969,172774.0,1.0
18:19:21.369004,130877.609375,142763.453125,157842.9375,155286.15625,167468.75,165331.75,686052.75,127789.9375,0.053955078125,1.011962890625,-0.013671875,-1.0681151151657104,0.3051757514476776,0.4577636420726776,86.66667175292969,172775.0,1.0
18:19:21.371544,130889.40625,142782.859375,157846.328125,155289.28125,167470.359375,165338.71875,686030.3125,127790.3828125,0.051513671875,1.0126953125,-0.01416015625,-1.0681151151657104,0.3356933295726776,0.5187987685203552,86.66667175292969,172776.0,1.0
18:19:21.374041,130905.0546875,142806.109375,157851.6875,155288.65625,167473.671875,165345.703125,686195.4375,127787.5234375,0.048583984375,1.012939453125,-0.01611328125,-0.9460448622703552,0.3051757514476776,0.6408690810203552,86.66667175292969,172777.0,1.0
18:19:21.376552,130910.421875,142811.203125,157867.96875,155296.890625,167496.734375,165370.546875,686102.3125,127800.3984375,0.05078125,1.014404296875,-0.014892578125,-1.0375975370407104,0.2441406100988388,0.7019042372703552,86.66667175292969,172778.0,1.0
18:19:21.379119,130880.0234375,142772.578125,157843.203125,155281.59375,167469.109375,165341.671875,686052.3125,127786.71875,0.05078125,1.015625,-0.014892578125,-1.2207030057907104,0.2441406100988388,0.6103515028953552,86.66667175292969,172779.0,1.0
18:19:21.382077,130886.546875,142781.609375,157844.265625,155285.890625,167466.34375,165339.703125,686075.0,127791.453125,0.050537109375,1.0146484375,-0.01318359375,-1.1596678495407104,0.1220703050494194,0.5798339247703552,86.66667175292969,172780.0,1.0
18:19:21.382099,130899.6015625,142804.59375,157848.296875,155282.578125,167468.046875,165344.265625,686175.625,127782.515625,0.048095703125,1.0166015625,-0.01416015625,-1.1901854276657104,0.0,0.5493163466453552,86.66667175292969,172781.0,1.0
18:19:21.384044,130890.125,142796.625,157846.859375,155269.96875,167473.5,165350.34375,686115.6875,127772.6796875,0.047119140625,1.0146484375,-0.015380859375,-1.2817381620407104,-0.0915527269244194,0.6103515028953552,86.66667175292969,172782.0,1.0
18:19:21.390902,130871.8828125,142763.8125,157836.84375,155272.390625,167463.5625,165333.265625,686025.25,127780.640625,0.047607421875,1.014404296875,-0.0166015625,-1.2207030057907104,-0.1220703050494194,0.6713866591453552,86.66667175292969,172783.0,1.0
18:19:21.390926,130859.90625,142752.109375,157820.21875,155261.296875,167442.734375,165313.421875,686099.25,127772.59375,0.0478515625,1.01318359375,-0.017333984375,-1.2817381620407104,-0.1831054538488388,0.6408690810203552,86.66667175292969,172784.0,1.0
18:19:21.398472,130882.96875,142783.484375,157830.953125,155268.90625,167449.078125,165324.234375,686161.125,127768.921875,0.0498046875,1.012939453125,-0.015625,-1.2817381620407104,-0.2136230319738388,0.6103515028953552,86.66667175292969,172785.0,1.0
18:19:21.398495,130903.0859375,142802.171875,157853.75,155285.984375,167477.6875,165350.96875,686160.4375,127786.359375,0.05029296875,1.011474609375,-0.015869140625,-1.3732908964157104,-0.3662109076976776,0.6408690810203552,86.66667175292969,172786.0,1.0
18:19:21.400308,130879.125,142770.796875,157840.703125,155277.484375,167467.59375,165338.546875,686030.5,127784.9296875,0.0537109375,1.01123046875,-0.015625,-1.2817381620407104,-0.4272460639476776,0.6103515028953552,86.66667175292969,172787.0,1.0
18:19:21.413751,130858.203125,142749.953125,157818.4375,155265.328125,167442.375,165315.03125,686074.375,127774.0234375,0.05322265625,1.0107421875,-0.016357421875,-1.2207030057907104,-0.4882812201976776,0.6713866591453552,86.66667175292969,172788.0,1.0
18:19:21.413765,130869.828125,142771.328125,157821.296875,155264.25,167442.921875,165316.734375,686135.3125,127768.2109375,0.053466796875,1.009765625,-0.0166015625,-1.1291502714157104,-0.4272460639476776,0.7934569716453552,86.66667175292969,172789.0,1.0
18:19:21.416030,130884.046875,142786.609375,157835.15625,155269.078125,167459.71875,165333.453125,686198.4375,127769.90625,0.053466796875,1.01025390625,-0.01806640625,-1.0375975370407104,-0.3967284858226776,0.7629393935203552,86.66667175292969,172790.0,1.0
18:19:21.416041,130884.578125,142780.359375,157846.421875,155279.625,167474.125,165347.75,686048.625,127785.2890625,0.054443359375,1.007568359375,-0.017333984375,-1.0070799589157104,-0.4272460639476776,0.7324218153953552,86.66667175292969,172791.0,1.0
18:19:21.425262,130856.4140625,142744.78125,157817.265625,155265.859375,167441.671875,165312.53125,686050.25,127772.140625,0.054931640625,1.004638671875,-0.01611328125,-0.9460448622703552,-0.4577636420726776,0.8544921278953552,86.66667175292969,172792.0,1.0
18:19:21.432106,130869.9140625,142767.84375,157822.90625,155267.5625,167445.59375,165319.234375,686090.3125,127769.28125,0.054931640625,1.004638671875,-0.020263671875,-0.7934569716453552,-0.4577636420726776,0.9155272841453552,86.66667175292969,172793.0,1.0
18:19:21.432133,130889.40625,142790.640625,157838.640625,155275.96875,167463.84375,165338.0,686197.25,127774.3828125,0.054931640625,1.00341796875,-0.01904296875,-0.7324218153953552,-0.4272460639476776,0.8850097060203552,86.66667175292969,172794.0,1.0
18:19:21.434137,130897.9921875,142794.390625,157859.46875,155293.046875,167488.953125,165362.328125,686053.125,127794.046875,0.052490234375,1.003662109375,-0.018798828125,-0.5187987685203552,-0.4272460639476776,0.8850097060203552,86.66667175292969,172795.0,1.0
18:19:21.445845,130873.1328125,142761.40625,157835.59375,155280.890625,167462.5,165332.640625,686052.75,127789.3984375,0.0546875,1.006103515625,-0.020751953125,-0.3967284858226776,-0.2746581733226776,0.7934569716453552,86.66667175292969,172796.0,1.0
18:19:21.445871,130875.90625,142775.265625,157831.484375,155274.09375,167456.6875,165331.921875,686079.0625,127777.953125,0.055419921875,1.004638671875,-0.016845703125,-0.3967284858226776,-0.2746581733226776,0.6408690810203552,86.66667175292969,172797.0,1.0
18:19:21.447869,130882.609375,142785.546875,157830.953125,155270.515625,167455.796875,165329.515625,686194.5,127775.359375,0.0517578125,1.006103515625,-0.0166015625,-0.4577636420726776,-0.3356933295726776,0.6713866591453552,86.66667175292969,172798.0,1.0
18:19:21.452155,130887.6171875,142787.953125,157846.953125,155280.609375,167477.78125,165351.15625,686063.5,127790.921875,0.052490234375,1.005126953125,-0.01708984375,-0.3967284858226776,-0.3356933295726776,0.4882812201976776,86.66667175292969,172799.0,1.0
18:19:21.452181,130867.5,142757.109375,157828.890625,155273.015625,167455.515625,165327.015625,686051.0625,127776.2578125,0.05419921875,1.004638671875,-0.0185546875,-0.3662109076976776,-0.4577636420726776,0.4577636420726776,86.66667175292969,172800.0,1.0
18:19:21.457866,130868.6640625,142763.90625,157823.96875,155269.53125,167447.03125,165319.59375,686072.875,127768.75,0.055419921875,1.006591796875,-0.01953125,-0.3662109076976776,-0.3967284858226776,0.3967284858226776,86.66667175292969,172801.0,1.0
18:19:21.466004,130877.4296875,142778.390625,157822.8125,155263.984375,167444.609375,165318.0625,686190.0,127761.0546875,0.056884765625,1.009033203125,-0.022705078125,-0.3356933295726776,-0.3967284858226776,0.4272460639476776,86.66667175292969,172802.0,1.0
18:19:21.466032,130882.2578125,142783.75,157836.21875,155269.34375,167464.46875,165339.796875,686084.25,127768.5703125,0.05859375,1.01171875,-0.02392578125,-0.3356933295726776,-0.3051757514476776,0.6408690810203552,86.66667175292969,172803.0,1.0
18:19:21.472823,130862.40625,142755.40625,157823.890625,155270.0625,167450.6875,165321.375,686035.0625,127776.796875,0.0625,1.01416015625,-0.02490234375,-0.2746581733226776,-0.2136230319738388,0.6713866591453552,86.66667175292969,172804.0,1.0
18:19:21.477096,130869.0234375,142764.796875,157825.3125,155269.796875,167449.359375,165320.484375,686067.3125,127775.5390625,0.0615234375,1.016357421875,-0.023681640625,-0.2746581733226776,-0.2441406100988388,0.7324218153953552,86.66667175292969,172805.0,1.0
18:19:21.477119,130888.2421875,142792.96875,157831.3125,155270.6875,167451.859375,165330.765625,686179.8125,127768.75,0.0615234375,1.016845703125,-0.02490234375,-0.2746581733226776,-0.0915527269244194,0.7629393935203552,86.66667175292969,172806.0,1.0
18:19:21.505311,130888.78125,142794.578125,157839.4375,155267.828125,167464.015625,165345.96875,686126.5,127765.3515625,0.059814453125,1.014404296875,-0.023193359375,-0.3051757514476776,0.0915527269244194,0.7324218153953552,86.66667175292969,172807.0,1.0
18:19:21.508378,130872.328125,142767.84375,157832.296875,155268.90625,167456.234375,165334.4375,686039.0625,127770.7109375,0.05908203125,1.013427734375,-0.026611328125,-0.2746581733226776,0.1525878757238388,0.6103515028953552,86.66667175292969,172808.0,1.0
18:19:21.508407,130861.3359375,142755.6875,157818.796875,155261.84375,167440.765625,165316.734375,686088.875,127765.8828125,0.05859375,1.01123046875,-0.024169921875,-0.1831054538488388,0.1525878757238388,0.6103515028953552,86.66667175292969,172809.0,1.0
18:19:21.510300,130876.171875,142780.53125,157824.875,155264.34375,167445.78125,165321.640625,686163.625,127767.5859375,0.05859375,1.014404296875,-0.024658203125,-0.1831054538488388,0.1831054538488388,0.6408690810203552,86.66667175292969,172810.0,1.0
18:19:21.512785,130882.703125,142789.296875,157835.59375,155265.78125,167462.234375,165338.0,686168.75,127776.796875,0.056396484375,1.015380859375,-0.024169921875,-0.1831054538488388,0.1831054538488388,0.6103515028953552,86.66667175292969,172811.0,1.0
18:19:21.515300,130868.84375,142762.75,157831.3125,155270.78125,167458.734375,165330.046875,686031.5,127779.3828125,0.054443359375,1.018798828125,-0.0244140625,-0.1831054538488388,0.1525878757238388,0.4882812201976776,86.66667175292969,172812.0,1.0
18:19:21.517957,130850.6015625,142740.390625,157810.828125,155258.265625,167434.0625,165302.25,686058.5,127766.8671875,0.055419921875,1.0185546875,-0.022216796875,-0.3356933295726776,0.2136230319738388,0.3967284858226776,86.66667175292969,172813.0,1.0
18:19:21.520344,130860.4375,142758.546875,157812.625,155257.8125,167433.34375,165300.71875,686114.8125,127765.9765625,0.05419921875,1.02099609375,-0.0205078125,-0.4577636420726776,0.2441406100988388,0.3356933295726776,86.66667175292969,172814.0,1.0
18:19:21.522864,130876.7109375,142777.234375,157829.25,155267.109375,167453.203125,165320.578125,686184.8125,127770.265625,0.05224609375,1.01953125,-0.020751953125,-0.6408690810203552,0.2136230319738388,0.1831054538488388,86.66667175292969,172815.0,1.0
18:19:21.525323,130865.984375,142760.6875,157829.15625,155266.21875,167457.046875,165323.875,686034.375,127771.3359375,0.05029296875,1.0185546875,-0.019775390625,-0.7324218153953552,0.1220703050494194,0.0915527269244194,86.66667175292969,172816.0,1.0
18:19:21.527819,130849.9765625,142740.390625,157809.765625,155258.890625,167433.703125,165303.765625,686071.5625,127764.2734375,0.05126953125,1.018310546875,-0.019775390625,-0.9155272841453552,0.0610351525247097,0.0610351525247097,86.66667175292969,172817.0,1.0
18:19:21.531387,130863.03125,142761.3125,157814.5,155263.265625,167436.84375,165305.46875,686107.9375,127770.4453125,0.053955078125,1.0146484375,-0.019775390625,-1.0986326932907104,0.0,-0.0915527269244194,86.66667175292969,172818.0,1.0
18:19:21.531452,130881.1796875,142785.359375,157827.546875,155267.109375,167450.0625,165323.34375,686209.5625,127770.1796875,0.055419921875,1.016357421875,-0.021240234375,-1.2207030057907104,-0.0610351525247097,-0.0610351525247097,86.66667175292969,172819.0,1.0
18:19:21.532900,130889.9453125,142788.9375,157848.203125,155282.578125,167474.65625,165348.5625,686062.75,127789.7578125,0.057861328125,1.01708984375,-0.02099609375,-1.3122557401657104,0.0915527269244194,-0.0915527269244194,86.66667175292969,172820.0,1.0
18:19:21.539854,130866.875,142758.1875,157827.546875,155270.953125,167449.4375,165323.96875,686074.875,127782.3359375,0.057861328125,1.01708984375,-0.020263671875,-1.4648436307907104,0.0915527269244194,0.0610351525247097,86.66667175292969,172821.0,1.0
18:19:21.539891,130858.6484375,142756.671875,157811.28125,155256.125,167431.109375,165307.25,686114.625,127761.7734375,0.05859375,1.017822265625,-0.0205078125,-1.5869139432907104,0.1525878757238388,0.1831054538488388,86.66667175292969,172822.0,1.0
18:19:21.552826,130870.8125,142777.140625,157815.75,155254.859375,167435.5,165315.125,686219.9375,127759.8046875,0.05712890625,1.01904296875,-0.0205078125,-1.7395018339157104,0.2136230319738388,0.1831054538488388,86.66667175292969,172823.0,1.0
18:19:21.555875,130871.171875,142772.3125,157828.53125,155261.9375,167455.25,165330.59375,686076.4375,127768.921875,0.0537109375,1.01953125,-0.019287109375,-1.9226073026657104,0.3051757514476776,0.3356933295726776,86.66667175292969,172824.0,1.0
18:19:21.555900,130847.921875,142739.953125,157809.40625,155253.796875,167433.703125,165307.078125,686041.5,127762.3984375,0.052490234375,1.0205078125,-0.018798828125,-1.9531248807907104,0.2136230319738388,0.3051757514476776,86.66667175292969,172825.0,1.0
18:19:21.558079,130856.8671875,142754.703125,157812.890625,155259.15625,167434.78125,165307.96875,686057.125,127766.421875,0.05224609375,1.017822265625,-0.018798828125,-2.044677495956421,0.2441406100988388,0.4272460639476776,86.66667175292969,172826.0,1.0
18:19:21.560349,130878.765625,142785.1875,157824.515625,155263.1875,167445.6875,165322.546875,686196.4375,127764.09375,0.051513671875,1.01611328125,-0.0185546875,-2.258300542831421,0.2441406100988388,0.5187987685203552,86.66667175292969,172827.0,1.0
18:19:21.567964,130882.96875,142790.453125,157839.171875,155269.171875,167466.25,165344.265625,686104.25,127772.7734375,0.050537109375,1.016845703125,-0.017822265625,-2.410888433456421,0.2136230319738388,0.5187987685203552,86.66667175292969,172828.0,1.0
18:19:21.575919,130858.921875,142757.375,157820.40625,155260.234375,167443.90625,165321.640625,686028.8125,127774.46875,0.04931640625,1.014404296875,-0.018310546875,-2.471923589706421,0.1525878757238388,0.4577636420726776,86.66667175292969,172829.0,1.0
18:19:21.575934,130845.328125,142745.75,157799.125,155246.640625,167419.671875,165298.484375,686108.1875,127756.140625,0.05078125,1.013671875,-0.0166015625,-2.563476324081421,0.0610351525247097,0.4577636420726776,86.66667175292969,172830.0,1.0
18:19:21.578352,130859.546875,142768.734375,157803.859375,155247.265625,167422.796875,165304.84375,686195.875,127750.328125,0.0498046875,1.010986328125,-0.015869140625,-2.624511480331421,-0.03051757626235485,0.6103515028953552,86.66667175292969,172831.0,1.0
18:19:21.578374,130878.4140625,142787.875,157829.515625,155264.078125,167454.265625,165336.578125,686137.1875,127767.40625,0.05029296875,1.0087890625,-0.01904296875,-2.655029058456421,0.0,0.6713866591453552,86.66667175292969,172832.0,1.0
18:19:21.590337,130860.4375,142758.984375,157821.109375,155264.96875,167446.5,165322.8125,686041.125,127775.8984375,0.04931640625,1.00927734375,-0.01904296875,-2.685546636581421,-0.0915527269244194,0.5798339247703552,86.66667175292969,172833.0,1.0
18:19:21.594730,130843.359375,142738.34375,157801.625,155252.0,167423.96875,165297.59375,686051.5,127762.0390625,0.052001953125,1.009521484375,-0.015869140625,-2.624511480331421,-0.1525878757238388,0.5798339247703552,86.66667175292969,172834.0,1.0
18:19:21.594741,130854.625,142756.9375,157802.421875,155251.015625,167421.640625,165295.625,686130.8125,127753.9921875,0.051025390625,1.00634765625,-0.016845703125,-2.502441167831421,-0.1525878757238388,0.4882812201976776,86.66667175292969,172835.0,1.0
18:19:21.597158,130872.0625,142780.984375,157821.921875,155258.890625,167443.90625,165323.25,686161.375,127764.3671875,0.052001953125,1.005126953125,-0.0185546875,-2.532958745956421,-0.2441406100988388,0.4882812201976776,86.66667175292969,172836.0,1.0
18:19:21.604075,130857.4921875,142756.84375,157818.796875,155259.515625,167440.859375,165316.734375,686024.125,127769.640625,0.052734375,1.005615234375,-0.017333984375,-2.410888433456421,-0.2136230319738388,0.4882812201976776,86.66667175292969,172837.0,1.0
18:19:21.610904,130841.84375,142735.390625,157800.375,155251.921875,167418.953125,165291.515625,686084.125,127763.2890625,0.052978515625,1.0048828125,-0.017333984375,-2.410888433456421,-0.3051757514476776,0.5187987685203552,86.66667175292969,172838.0,1.0
18:19:21.610928,130858.6484375,142765.96875,157805.828125,155247.796875,167420.296875,165301.96875,686136.375,127749.8828125,0.0517578125,1.0068359375,-0.015380859375,-2.380370855331421,-0.2746581733226776,0.6103515028953552,86.66667175292969,172839.0,1.0
18:19:21.618371,130887.0859375,142797.53125,157832.46875,155267.5625,167449.0,165333.265625,686209.5625,127767.671875,0.05517578125,1.0068359375,-0.01513671875,-2.288818120956421,-0.2136230319738388,0.4577636420726776,86.66667175292969,172840.0,1.0
18:19:21.618390,130876.7109375,142780.09375,157835.953125,155270.515625,167458.109375,165336.671875,686049.1875,127774.109375,0.0546875,1.004150390625,-0.0166015625,-2.105712652206421,-0.2441406100988388,0.4577636420726776,86.66667175292969,172841.0,1.0
18:19:21.620287,130855.5234375,142752.46875,157816.203125,155260.59375,167435.765625,165310.375,686053.375,127770.0859375,0.054931640625,1.00439453125,-0.017578125,-2.014159917831421,-0.2441406100988388,0.4882812201976776,86.66667175292969,172842.0,1.0
18:19:21.630919,130868.6640625,142775.625,157820.40625,155258.0,167436.390625,165316.90625,686077.8125,127763.2890625,0.05419921875,1.0048828125,-0.01513671875,-1.9226073026657104,-0.2136230319738388,0.6103515028953552,86.66667175292969,172843.0,1.0
18:19:21.630939,130880.5546875,142792.25,157827.109375,155258.171875,167444.4375,165326.5625,686194.5,127761.59375,0.054931640625,1.004638671875,-0.01416015625,-1.8920897245407104,-0.1525878757238388,0.6103515028953552,86.66667175292969,172844.0,1.0
18:19:21.632819,130879.75,142784.5625,157838.734375,155266.671875,167461.421875,165338.640625,686040.4375,127766.0625,0.057373046875,1.004638671875,-0.01513671875,-1.8615721464157104,-0.2136230319738388,0.6103515028953552,86.66667175292969,172845.0,1.0
18:19:21.644739,130871.6171875,142769.453125,157832.46875,155274.171875,167450.25,165328.0,686068.25,127774.828125,0.05615234375,1.006103515625,-0.014892578125,-1.7089842557907104,-0.1220703050494194,0.7629393935203552,86.66667175292969,172846.0,1.0
18:19:21.644753,130869.9140625,142775.703125,157823.625,155263.546875,167439.078125,165318.15625,686105.6875,127763.5625,0.057861328125,1.009033203125,-0.017578125,-1.7700194120407104,-0.1525878757238388,0.7629393935203552,86.66667175292969,172847.0,1.0
18:19:21.647208,130882.078125,142793.140625,157828.890625,155264.078125,167444.53125,165323.515625,686216.5625,127768.75,0.058837890625,1.0068359375,-0.017333984375,-1.6784666776657104,-0.03051757626235485,0.8239745497703552,86.66667175292969,172848.0,1.0
18:19:21.647217,130882.34375,142791.625,157839.890625,155271.234375,167461.421875,165341.140625,686072.625,127776.96875,0.05810546875,1.00732421875,-0.017822265625,-1.5563963651657104,-0.0915527269244194,0.9460448622703552,86.66667175292969,172849.0,1.0
18:19:21.657819,130856.5078125,142755.59375,157817.8125,155259.34375,167436.125,165312.96875,686033.75,127762.9375,0.05810546875,1.008056640625,-0.018798828125,-1.3732908964157104,-0.03051757626235485,0.9460448622703552,86.66667175292969,172850.0,1.0
18:19:21.702174,130861.3359375,142766.765625,157818.171875,155257.734375,167435.046875,165312.4375,686029.6875,127758.5546875,0.056884765625,1.0068359375,-0.020751953125,-1.2512205839157104,0.03051757626235485,0.8544921278953552,86.66667175292969,172851.0,1.0
18:19:21.702211,130885.203125,142797.796875,157833.09375,155267.390625,167449.796875,165327.640625,686177.0625,127765.9765625,0.0576171875,1.00927734375,-0.01953125,-1.1291502714157104,0.0,0.9460448622703552,86.66667175292969,172852.0,1.0
18:19:21.704691,130890.3046875,142804.765625,157847.484375,155272.125,167469.375,165349.265625,686097.625,127776.078125,0.058837890625,1.008056640625,-0.020751953125,-1.0070799589157104,0.03051757626235485,0.9765624403953552,86.66667175292969,172853.0,1.0
18:19:21.704720,130856.8671875,142758.90625,157820.75,155257.546875,167439.609375,165315.65625,686022.125,127762.578125,0.057861328125,1.009033203125,-0.018798828125,-0.9765624403953552,0.2136230319738388,1.0070799589157104,86.66667175292969,172854.0,1.0
18:19:21.706686,130845.953125,142746.828125,157804.125,155246.1875,167420.46875,165295.890625,686094.4375,127750.8671875,0.056884765625,1.0087890625,-0.01806640625,-0.8239745497703552,0.2136230319738388,0.9765624403953552,86.66667175292969,172855.0,1.0
18:19:21.709069,130866.875,142777.5,157813.96875,155256.03125,167427.8125,165306.890625,686190.875,127755.78125,0.056884765625,1.01025390625,-0.0185546875,-0.7934569716453552,0.2136230319738388,0.9155272841453552,86.66667175292969,172856.0,1.0
18:19:21.711682,130873.5859375,142784.828125,157826.484375,155255.3125,167444.171875,165325.3125,686144.6875,127755.421875,0.056640625,1.009521484375,-0.01806640625,-0.6408690810203552,0.2136230319738388,0.9460448622703552,86.66667175292969,172857.0,1.0
18:19:21.714087,130851.234375,142753.09375,157812.984375,155249.0625,167430.21875,165310.65625,686027.125,127754.265625,0.056884765625,1.01025390625,-0.01806640625,-0.5493163466453552,0.3356933295726776,0.8544921278953552,86.66667175292969,172858.0,1.0
18:19:21.716849,130838.5390625,142739.046875,157795.8125,155240.203125,167409.828125,165288.5625,686052.75,127747.9140625,0.056640625,1.00830078125,-0.01953125,-0.4577636420726776,0.3967284858226776,0.7934569716453552,86.66667175292969,172859.0,1.0
18:19:21.719067,130855.5234375,142768.734375,157802.34375,155240.296875,167413.046875,165296.609375,686130.5625,127744.3359375,0.0546875,1.00927734375,-0.0185546875,-0.4272460639476776,0.4272460639476776,0.7934569716453552,86.66667175292969,172860.0,1.0
18:19:21.721585,130869.109375,142783.046875,157817.8125,155246.640625,167433.4375,165316.109375,686162.75,127746.3984375,0.055908203125,1.009033203125,-0.01708984375,-0.4272460639476776,0.4882812201976776,0.8239745497703552,86.66667175292969,172861.0,1.0
18:19:21.724103,130860.7109375,142765.875,157821.5625,155254.59375,167439.875,165318.703125,686025.5,127754.6171875,0.05712890625,1.00927734375,-0.016845703125,-0.3967284858226776,0.4577636420726776,0.8239745497703552,86.66667175292969,172862.0,1.0
18:19:21.726560,130847.8359375,142749.0625,157807.171875,155249.5,167422.4375,165299.5625,686060.0,127752.203125,0.057373046875,1.010986328125,-0.018310546875,-0.5493163466453552,0.4577636420726776,0.9155272841453552,86.66667175292969,172863.0,1.0
18:19:21.729711,130856.953125,142769.8125,157806.984375,155243.953125,167420.296875,165301.078125,686111.75,127743.1796875,0.05810546875,1.0126953125,-0.0205078125,-0.4577636420726776,0.5187987685203552,0.8850097060203552,86.66667175292969,172864.0,1.0
18:19:21.729759,130879.3046875,142792.703125,157827.546875,155259.15625,167443.90625,165323.171875,686199.5625,127756.2265625,0.05712890625,1.0146484375,-0.022216796875,-0.4272460639476776,0.6713866591453552,0.7934569716453552,86.66667175292969,172865.0,1.0
18:19:21.732166,130872.0625,142779.640625,157833.359375,155262.734375,167452.921875,165330.765625,686042.3125,127762.9375,0.05712890625,1.013427734375,-0.02294921875,-0.3356933295726776,0.6408690810203552,0.8544921278953552,86.66667175292969,172866.0,1.0
18:19:21.732214,130858.3828125,142758.1875,157819.0625,155258.0,167434.59375,165310.65625,686056.5,127762.3984375,0.05615234375,1.01416015625,-0.02197265625,-0.2746581733226776,0.7019042372703552,0.7629393935203552,86.66667175292969,172867.0,1.0
18:19:21.734092,130877.15625,142784.375,157828.09375,155263.8125,167440.140625,165318.0625,686088.875,127762.84375,0.053466796875,1.011962890625,-0.0234375,-0.4272460639476776,0.7324218153953552,0.7324218153953552,86.66667175292969,172868.0,1.0
18:19:21.736688,130893.5234375,142805.578125,157837.828125,155266.84375,167450.78125,165331.21875,686210.3125,127763.203125,0.053955078125,1.01123046875,-0.022216796875,-0.4577636420726776,0.7324218153953552,0.7019042372703552,86.66667175292969,172869.0,1.0
18:19:21.739740,130882.34375,142789.203125,157839.4375,155263.453125,167457.671875,165336.390625,686057.125,127761.7734375,0.057373046875,1.010498046875,-0.018798828125,-0.5493163466453552,0.7324218153953552,0.7019042372703552,86.66667175292969,172870.0,1.0
18:19:21.739810,130855.96875,142752.734375,157816.5625,155253.25,167431.03125,165305.109375,686059.75,127755.9609375,0.056884765625,1.012451171875,-0.020263671875,-0.5493163466453552,0.7629393935203552,0.6713866591453552,86.66667175292969,172871.0,1.0
18:19:21.741541,130861.8671875,142764.984375,157815.578125,155252.09375,167428.796875,165302.78125,686078.3125,127753.7265625,0.056396484375,1.014404296875,-0.020751953125,-0.5493163466453552,0.7324218153953552,0.7629393935203552,86.66667175292969,172872.0,1.0
18:19:21.745301,130883.4140625,142795.203125,157829.34375,155261.84375,167442.46875,165319.234375,686204.6875,127764.453125,0.0576171875,1.014404296875,-0.02197265625,-0.6103515028953552,0.5493163466453552,0.7019042372703552,86.66667175292969,172873.0,1.0
18:19:21.755957,130885.65625,142794.21875,157842.578125,155270.328125,167461.78125,165336.84375,686087.375,127770.7109375,0.05517578125,1.014404296875,-0.02197265625,-0.6408690810203552,0.5493163466453552,0.5187987685203552,86.66667175292969,172874.0,1.0
18:19:21.755976,130850.15625,142742.265625,157811.8125,155255.40625,167427.890625,165294.640625,686048.75,127762.578125,0.0498046875,1.015869140625,-0.019775390625,-0.8239745497703552,0.5493163466453552,0.4577636420726776,86.66667175292969,172875.0,1.0
18:19:21.758647,130853.734375,142752.375,157809.140625,155251.734375,167422.984375,165293.484375,686052.4375,127757.484375,0.05078125,1.015869140625,-0.019775390625,-0.9155272841453552,0.4882812201976776,0.4577636420726776,86.66667175292969,172876.0,1.0
18:19:21.758720,130868.7578125,142776.25,157814.046875,155250.21875,167426.828125,165301.171875,686184.5625,127746.6640625,0.0478515625,1.013427734375,-0.02001953125,-0.9460448622703552,0.5187987685203552,0.3356933295726776,86.66667175292969,172877.0,1.0
18:19:21.770264,130866.0703125,142773.65625,157822.015625,155249.765625,167441.484375,165316.8125,686108.8125,127751.4921875,0.047119140625,1.013427734375,-0.0224609375,-1.1596678495407104,0.4272460639476776,0.3051757514476776,86.66667175292969,172878.0,1.0
18:19:21.777754,130839.1640625,142737.359375,157803.0625,155241.640625,167420.5625,165293.390625,686029.625,127747.46875,0.047607421875,1.015380859375,-0.024169921875,-1.1901854276657104,0.3356933295726776,0.2136230319738388,86.66667175292969,172879.0,1.0
18:19:21.777803,130831.828125,142732.078125,157789.734375,155230.8125,167404.5625,165279.796875,686075.75,127735.84375,0.049560546875,1.015625,-0.022705078125,-1.2817381620407104,0.1525878757238388,0.1525878757238388,86.66667175292969,172880.0,1.0
18:19:21.777822,130857.1328125,142768.5625,157803.140625,155241.90625,167415.203125,165298.84375,686177.0625,127739.8671875,0.052734375,1.013671875,-0.0234375,-1.3122557401657104,0.0610351525247097,0.1831054538488388,86.66667175292969,172881.0,1.0
18:19:21.780387,130854.984375,142765.421875,157806.1875,155235.734375,167425.21875,165306.984375,686151.9375,127734.953125,0.05322265625,1.014404296875,-0.0205078125,-1.3427733182907104,0.0,0.2136230319738388,86.66667175292969,172882.0,1.0
18:19:21.784248,130837.8203125,142737.265625,157799.125,155234.484375,167419.40625,165295.453125,686043.3125,127736.9140625,0.05224609375,1.014404296875,-0.01904296875,-1.4648436307907104,-0.0610351525247097,0.2746581733226776,86.66667175292969,172883.0,1.0
18:19:21.797146,130820.8359375,142718.75,157779.90625,155223.75,167395.625,165270.234375,686061.0625,127727.9765625,0.05078125,1.014404296875,-0.022216796875,-1.5563963651657104,-0.1525878757238388,0.3051757514476776,86.66667175292969,172884.0,1.0
18:19:21.797161,130835.4921875,142743.4375,157785.171875,155224.296875,167397.234375,165273.71875,686132.5,127728.515625,0.05029296875,1.01416015625,-0.020751953125,-1.5563963651657104,-0.1831054538488388,0.3662109076976776,86.66667175292969,172885.0,1.0
18:19:21.803395,130859.9921875,142773.03125,157810.828125,155242.796875,167426.90625,165307.78125,686172.0625,127744.609375,0.05029296875,1.01513671875,-0.021484375,-1.5563963651657104,-0.2441406100988388,0.4577636420726776,86.66667175292969,172886.0,1.0
18:19:21.803422,130851.9453125,142758.1875,157814.671875,155248.34375,167432.453125,165311.8125,686038.75,127748.453125,0.051025390625,1.015625,-0.021728515625,-1.7700194120407104,-0.1831054538488388,0.5798339247703552,86.66667175292969,172887.0,1.0
18:19:21.805994,130837.375,142738.515625,157799.03125,155240.109375,167413.234375,165290.078125,686058.9375,127740.5859375,0.05126953125,1.013916015625,-0.021240234375,-1.7700194120407104,-0.1831054538488388,0.7019042372703552,86.66667175292969,172888.0,1.0
18:19:21.806019,130849.171875,142758.984375,157800.640625,155239.40625,167412.609375,165289.90625,686091.8125,127734.5,0.05078125,1.01171875,-0.022216796875,-1.8920897245407104,-0.3051757514476776,0.7324218153953552,86.66667175292969,172889.0,1.0
18:19:21.812850,130866.6953125,142782.140625,157816.640625,155248.875,167428.796875,165309.125,686189.75,127742.015625,0.0517578125,1.012939453125,-0.023193359375,-1.8310545682907104,-0.4577636420726776,0.7629393935203552,86.66667175292969,172890.0,1.0
18:19:21.822145,130856.328125,142764.890625,157818.96875,155248.609375,167436.296875,165312.34375,686034.6875,127749.34375,0.050048828125,1.011474609375,-0.0224609375,-1.8615721464157104,-0.3662109076976776,0.8850097060203552,86.66667175292969,172891.0,1.0
18:19:21.822173,130837.1953125,142735.828125,157799.296875,155239.9375,167412.875,165285.171875,686039.4375,127749.2578125,0.050048828125,1.011474609375,-0.020263671875,-1.8920897245407104,-0.4272460639476776,1.0375975370407104,86.66667175292969,172892.0,1.0
18:19:21.832207,130855.4296875,142762.203125,157809.046875,155250.84375,167418.421875,165292.953125,686079.9375,127750.328125,0.05078125,1.01318359375,-0.020751953125,-2.014159917831421,-0.3662109076976776,1.0070799589157104,86.66667175292969,172893.0,1.0
18:19:21.832227,130871.796875,142786.609375,157819.421875,155253.171875,167429.6875,165308.59375,686189.1875,127753.546875,0.050048828125,1.013916015625,-0.020263671875,-2.075195074081421,-0.3662109076976776,0.9765624403953552,86.66667175292969,172894.0,1.0
18:19:21.834128,130866.5234375,142780.796875,157826.84375,155254.59375,167444.171875,165324.6875,686043.625,127753.546875,0.05029296875,1.014892578125,-0.01904296875,-2.136230230331421,-0.5187987685203552,1.0986326932907104,86.66667175292969,172895.0,1.0
18:19:21.840401,130842.5546875,142747.8125,157804.390625,155244.046875,167419.046875,165297.421875,686053.3125,127745.0546875,0.052978515625,1.014404296875,-0.0185546875,-2.136230230331421,-0.5493163466453552,1.1291502714157104,86.66667175292969,172896.0,1.0
18:19:21.847339,130846.046875,142753.265625,157800.8125,155241.984375,167413.328125,165287.046875,686121.8125,127743.1796875,0.053955078125,1.014892578125,-0.017578125,-2.258300542831421,-0.4882812201976776,1.0986326932907104,86.66667175292969,172897.0,1.0
18:19:21.847356,130864.4609375,142777.5,157812.078125,155251.109375,167423.609375,165297.5,686210.1875,127752.3828125,0.052734375,1.015869140625,-0.016357421875,-2.319335699081421,-0.4882812201976776,1.0681151151657104,86.66667175292969,172898.0,1.0
18:19:21.857068,130861.2421875,142772.046875,157818.96875,155251.46875,167435.40625,165310.203125,686085.125,127751.8515625,0.053955078125,1.014404296875,-0.015380859375,-2.471923589706421,-0.4272460639476776,1.0986326932907104,86.66667175292969,172899.0,1.0
18:19:21.857135,130828.4296875,142729.84375,157790.0,155233.140625,167403.21875,165277.484375,686042.1875,127735.3046875,0.056884765625,1.01318359375,-0.018798828125,-2.380370855331421,-0.4577636420726776,1.1291502714157104,86.66667175292969,172900.0,1.0
18:19:21.859744,130827.5390625,142734.765625,157783.03125,155228.671875,167394.015625,165269.515625,686045.875,127731.375,0.05712890625,1.01123046875,-0.0205078125,-2.288818120956421,-0.4577636420726776,1.1596678495407104,86.66667175292969,172901.0,1.0
18:19:21.859760,130839.1640625,142753.453125,157782.3125,155223.84375,167391.15625,165272.65625,686177.0625,127721.6328125,0.0576171875,1.009765625,-0.01806640625,-2.288818120956421,-0.3662109076976776,1.0070799589157104,86.66667175292969,172902.0,1.0
18:19:21.872900,130847.3828125,142762.46875,157799.203125,155233.40625,167413.953125,165298.9375,686122.25,127732.0859375,0.058837890625,1.010498046875,-0.019287109375,-2.380370855331421,-0.2746581733226776,0.9765624403953552,86.66667175292969,172903.0,1.0
18:19:21.875910,130829.6875,142735.921875,157790.359375,155232.0625,167403.125,165284.625,686047.125,127734.5,0.058837890625,1.011474609375,-0.01708984375,-2.349853277206421,-0.1831054538488388,0.8850097060203552,86.66667175292969,172904.0,1.0
18:19:21.875933,130826.375,142734.484375,157783.5625,155226.96875,167394.71875,165274.890625,686049.1875,127729.5859375,0.058837890625,1.009765625,-0.017578125,-2.471923589706421,-0.1831054538488388,0.8850097060203552,86.66667175292969,172905.0,1.0
18:19:21.878363,130852.75,142771.59375,157800.015625,155237.875,167409.03125,165293.75,686162.0,127734.6796875,0.0595703125,1.010009765625,-0.0185546875,-2.380370855331421,-0.0610351525247097,0.8544921278953552,86.66667175292969,172906.0,1.0
18:19:21.878372,130854.984375,142769.984375,157806.8125,155240.203125,167420.296875,165303.578125,686143.9375,127740.4921875,0.060546875,1.0078125,-0.019287109375,-2.380370855331421,0.0610351525247097,0.8544921278953552,86.66667175292969,172907.0,1.0
18:19:21.892867,130840.0546875,142742.984375,157800.546875,155245.84375,167413.046875,165291.875,686034.0625,127748.8125,0.062255859375,1.0078125,-0.016845703125,-2.227782964706421,0.1525878757238388,0.8239745497703552,86.66667175292969,172908.0,1.0
18:19:21.895891,130818.59375,142719.828125,157777.21875,155228.765625,167387.84375,165262.640625,686067.1875,127731.9140625,0.06396484375,1.0078125,-0.01611328125,-2.136230230331421,0.1831054538488388,0.8544921278953552,86.66667175292969,172909.0,1.0
18:19:21.895936,130830.578125,142740.75,157779.8125,155226.078125,167389.890625,165265.3125,686125.625,127730.125,0.064208984375,1.00927734375,-0.015625,-2.075195074081421,0.3051757514476776,0.8544921278953552,86.66667175292969,172910.0,1.0
18:19:21.898442,130839.4296875,142752.8125,157788.484375,155226.171875,167401.703125,165279.625,686166.6875,127726.1015625,0.0615234375,1.0087890625,-0.017333984375,-2.075195074081421,0.4272460639476776,0.7934569716453552,86.66667175292969,172911.0,1.0
18:19:21.898490,130826.375,142735.125,157784.8125,155221.96875,167399.015625,165279.796875,686023.4375,127721.359375,0.05908203125,1.009765625,-0.01708984375,-2.136230230331421,0.4882812201976776,0.8239745497703552,86.66667175292969,172912.0,1.0
18:19:21.909113,130806.9765625,142711.25,157764.25,155207.921875,167373.890625,165253.96875,686065.0,127710.09375,0.060302734375,1.010498046875,-0.01904296875,-2.044677495956421,0.6103515028953552,0.7629393935203552,86.66667175292969,172913.0,1.0
18:19:21.913413,130817.6171875,142731.265625,157767.921875,155210.34375,167375.953125,165254.859375,686110.0,127708.578125,0.05908203125,1.0107421875,-0.018310546875,-2.105712652206421,0.5187987685203552,0.7324218153953552,86.66667175292969,172914.0,1.0
18:19:21.913468,130835.046875,142751.75,157782.84375,155216.15625,167394.09375,165273.28125,686186.3125,127712.6015625,0.0576171875,1.009521484375,-0.016845703125,-2.044677495956421,0.7019042372703552,0.7019042372703552,86.66667175292969,172915.0,1.0
18:19:21.919669,130839.875,142750.9375,157799.5625,155231.171875,167414.390625,165292.40625,686033.1875,127730.65625,0.058837890625,1.00927734375,-0.016357421875,-1.8920897245407104,0.7629393935203552,0.6713866591453552,86.66667175292969,172916.0,1.0
18:19:21.919683,130823.78125,142722.421875,157785.0,155230.90625,167395.53125,165266.390625,686037.125,127734.5,0.055908203125,1.00927734375,-0.017822265625,-1.8615721464157104,0.8239745497703552,0.5798339247703552,86.66667175292969,172917.0,1.0
18:19:21.921542,130834.0625,142740.21875,157788.296875,155230.640625,167397.671875,165268.265625,686074.375,127733.875,0.054931640625,1.009521484375,-0.01708984375,-1.7089842557907104,0.7629393935203552,0.6103515028953552,86.66667175292969,172918.0,1.0
18:19:21.932818,130845.6875,142756.84375,157792.5,155228.046875,167401.515625,165273.71875,686184.4375,127724.671875,0.0546875,1.0107421875,-0.017822265625,-1.7089842557907104,0.7934569716453552,0.6408690810203552,86.66667175292969,172919.0,1.0
18:19:21.937174,130848.90625,142758.09375,157808.421875,155236.265625,167422.4375,165295.53125,686047.6875,127736.6484375,0.052001953125,1.012451171875,-0.017333984375,-1.7700194120407104,0.8850097060203552,0.5187987685203552,86.66667175292969,172920.0,1.0
18:19:21.937217,130822.7109375,142722.59375,157786.34375,155226.875,167396.78125,165266.125,686049.25,127728.8671875,0.052490234375,1.01171875,-0.01708984375,-1.8005369901657104,0.8544921278953552,0.5798339247703552,86.66667175292969,172921.0,1.0
18:19:21.947228,130827.5390625,142736.28125,157785.984375,155222.046875,167393.46875,165265.5,686080.8125,127725.828125,0.0517578125,1.00830078125,-0.01904296875,-1.8615721464157104,0.8850097060203552,0.4577636420726776,86.66667175292969,172922.0,1.0
18:19:21.947300,130848.640625,142765.609375,157797.59375,155228.765625,167403.671875,165280.421875,686197.3125,127723.953125,0.05224609375,1.0087890625,-0.020751953125,-1.7700194120407104,0.7629393935203552,0.3967284858226776,86.66667175292969,172923.0,1.0
18:19:21.949174,130863.5703125,142777.234375,157821.03125,155248.421875,167432.90625,165309.578125,686095.875,127742.7265625,0.05029296875,1.01025390625,-0.018310546875,-1.7395018339157104,0.6103515028953552,0.4577636420726776,86.66667175292969,172924.0,1.0
18:19:21.953261,130827.359375,142731.625,157789.375,155228.9375,167400.359375,165276.3125,686049.375,127726.1015625,0.048583984375,1.008056640625,-0.016357421875,-1.6479490995407104,0.5493163466453552,0.4272460639476776,86.66667175292969,172925.0,1.0
18:19:21.963453,130819.3984375,142729.65625,157778.375,155217.140625,167388.734375,165266.03125,686028.0625,127715.4609375,0.04931640625,1.00830078125,-0.017333984375,-1.6479490995407104,0.5187987685203552,0.4577636420726776,86.66667175292969,172926.0,1.0
18:19:21.963530,130838.0,142757.640625,157787.765625,155221.609375,167397.40625,165278.015625,686160.25,127716.8046875,0.049072265625,1.01025390625,-0.01611328125,-1.6174315214157104,0.3967284858226776,0.4272460639476776,86.66667175292969,172927.0,1.0
18:19:21.966299,130844.796875,142762.296875,157801.890625,155230.015625,167415.5625,165295.71875,686103.0,127726.0078125,0.047607421875,1.0107421875,-0.01513671875,-1.6174315214157104,0.3356933295726776,0.5187987685203552,86.66667175292969,172928.0,1.0
18:19:21.966358,130817.078125,142723.40625,157781.6875,155219.28125,167393.203125,165270.328125,686025.3125,127719.75,0.048583984375,1.011474609375,-0.015625,-1.4648436307907104,0.3051757514476776,0.6713866591453552,86.66667175292969,172929.0,1.0
18:19:21.981955,130812.515625,142720.90625,157771.765625,155214.640625,167377.734375,165259.15625,686056.4375,127711.078125,0.048583984375,1.012451171875,-0.01513671875,-1.5258787870407104,0.3051757514476776,0.5187987685203552,86.66667175292969,172930.0,1.0
18:19:21.984981,130834.9609375,142752.90625,157783.203125,155220.265625,167384.796875,165269.703125,686139.5625,127712.6015625,0.04833984375,1.01123046875,-0.014404296875,-1.4648436307907104,0.1525878757238388,0.6408690810203552,86.66667175292969,172931.0,1.0
18:19:21.985112,130847.4765625,142766.40625,157800.109375,155225.09375,167406.171875,165292.765625,686142.0,127717.25,0.046875,1.0107421875,-0.0146484375,-1.4648436307907104,-0.0610351525247097,0.7019042372703552,86.66667175292969,172932.0,1.0
18:19:21.992201,130835.2265625,142747.1875,157798.671875,155231.0,167406.078125,165290.0,686021.8125,127728.2421875,0.047119140625,1.0126953125,-0.01904296875,-1.4038084745407104,-0.1525878757238388,0.8239745497703552,86.66667175292969,172933.0,1.0
18:19:21.992269,130817.6171875,142726.265625,157778.375,155220.0,167382.828125,165263.703125,686051.0,127721.984375,0.04833984375,1.013916015625,-0.017578125,-1.4343260526657104,-0.1525878757238388,0.8239745497703552,86.66667175292969,172934.0,1.0
18:19:21.994100,130828.609375,142745.84375,157778.828125,155215.265625,167381.578125,165262.375,686110.0,127714.1171875,0.048828125,1.013427734375,-0.018310546875,-1.4343260526657104,-0.1525878757238388,0.8239745497703552,86.66667175292969,172935.0,1.0
18:19:22.003381,130845.1484375,142764.359375,157794.65625,155223.125,167401.4375,165282.84375,686172.3125,127724.0390625,0.05029296875,1.012939453125,-0.01904296875,-1.4953612089157104,-0.3051757514476776,0.8850097060203552,86.66667175292969,172936.0,1.0
18:19:22.003395,130837.5546875,142749.328125,157798.9375,155233.765625,167407.953125,165287.765625,686018.3125,127739.328125,0.053466796875,1.012451171875,-0.0166015625,-1.5563963651657104,-0.3967284858226776,0.9460448622703552,86.66667175292969,172937.0,1.0
18:19:22.007155,130814.3984375,142717.421875,157774.09375,155223.84375,167379.96875,165254.328125,686031.5625,127726.0078125,0.05419921875,1.01220703125,-0.02001953125,-1.5563963651657104,-0.3662109076976776,0.9765624403953552,86.66667175292969,172938.0,1.0
18:19:22.007167,130824.6796875,142738.609375,157776.40625,155218.203125,167381.046875,165257.09375,686065.3125,127715.015625,0.053466796875,1.013671875,-0.017822265625,-1.5258787870407104,-0.3967284858226776,1.0375975370407104,86.66667175292969,172939.0,1.0
18:19:22.016554,130827.71875,142747.71875,157776.59375,155209.625,167383.109375,165264.25,686163.0,127706.34375,0.053955078125,1.013916015625,-0.01611328125,-1.4648436307907104,-0.4882812201976776,1.1291502714157104,86.66667175292969,172940.0,1.0
18:19:22.020944,130828.078125,142742.1875,157788.390625,155220.171875,167400.71875,165280.515625,686008.875,127723.6875,0.05615234375,1.01220703125,-0.016845703125,-1.5563963651657104,-0.5493163466453552,1.2207030057907104,86.66667175292969,172941.0,1.0
18:19:22.020975,130808.4921875,142711.25,157769.890625,155215.078125,167379.171875,165252.796875,686050.875,127720.0234375,0.057861328125,1.012939453125,-0.018310546875,-1.5563963651657104,-0.4577636420726776,1.2512205839157104,86.66667175292969,172942.0,1.0
18:19:22.026585,130821.1015625,142731.359375,157776.140625,155220.625,167382.296875,165256.203125,686122.125,127721.984375,0.05810546875,1.011474609375,-0.0166015625,-1.5869139432907104,-0.3967284858226776,1.2207030057907104,86.66667175292969,172943.0,1.0
18:19:22.052122,130840.7734375,142756.03125,157788.84375,155228.671875,167394.546875,165270.5,686205.1875,127725.921875,0.05859375,1.01416015625,-0.020263671875,-1.5869139432907104,-0.3662109076976776,1.2207030057907104,86.66667175292969,172944.0,1.0
18:19:22.052142,130835.9453125,142749.25,157795.1875,155226.078125,167406.609375,165283.828125,686058.5,127725.0234375,0.060546875,1.01513671875,-0.019287109375,-1.6174315214157104,-0.3356933295726776,1.2512205839157104,86.66667175292969,172945.0,1.0
18:19:22.077883,130816.6328125,142721.265625,157779.09375,155221.609375,167386.953125,165261.46875,686025.0625,127725.296875,0.060302734375,1.01318359375,-0.01904296875,-1.5563963651657104,-0.3051757514476776,1.1596678495407104,86.66667175292969,172946.0,1.0
18:19:22.080454,130822.890625,142736.640625,157779.453125,155221.609375,167384.984375,165265.046875,686000.4375,127724.671875,0.0595703125,1.010986328125,-0.018310546875,-1.5869139432907104,-0.2441406100988388,1.0986326932907104,86.66667175292969,172947.0,1.0
18:19:22.082813,130830.1328125,142751.75,157777.84375,155213.375,167381.578125,165265.59375,686157.125,127711.4375,0.060302734375,1.012451171875,-0.0205078125,-1.5563963651657104,-0.1525878757238388,1.1291502714157104,86.66667175292969,172948.0,1.0
18:19:22.090266,130835.765625,142755.328125,157793.84375,155223.65625,167405.1875,165288.296875,686064.0,127724.3984375,0.0625,1.0107421875,-0.019287109375,-1.6479490995407104,0.0,1.0375975370407104,86.66667175292969,172949.0,1.0
18:19:22.092774,130815.375,142721.96875,157778.203125,155217.765625,167386.328125,165264.6875,686009.9375,127720.828125,0.062255859375,1.01171875,-0.019287109375,-1.6479490995407104,0.0915527269244194,1.1901854276657104,86.66667175292969,172950.0,1.0
18:19:22.095329,130815.0234375,142722.875,157771.40625,155214.71875,167376.671875,165255.484375,686079.75,127721.8984375,0.06396484375,1.0107421875,-0.017822265625,-1.6784666776657104,0.2136230319738388,1.2512205839157104,86.66667175292969,172951.0,1.0
18:19:22.097835,130834.3359375,142747.28125,157778.109375,155219.46875,167380.234375,165259.515625,686173.9375,127715.546875,0.063232421875,1.00927734375,-0.016845703125,-1.6784666776657104,0.3051757514476776,1.1291502714157104,86.66667175292969,172952.0,1.0
18:19:22.100285,130840.7734375,142755.6875,157792.59375,155221.96875,167399.015625,165280.96875,686105.8125,127716.3515625,0.061279296875,1.010498046875,-0.01611328125,-1.7395018339157104,0.3662109076976776,1.0681151151657104,86.66667175292969,172953.0,1.0
18:19:22.102783,130827.2734375,142732.171875,157787.3125,155224.109375,167391.859375,165270.328125,686011.125,127723.4140625,0.059814453125,1.01220703125,-0.015625,-1.6784666776657104,0.5493163466453552,1.0681151151657104,86.66667175292969,172954.0,1.0
18:19:22.105333,130813.4140625,142719.65625,157769.796875,155212.21875,167371.125,165249.765625,686061.0,127710.6328125,0.058837890625,1.011474609375,-0.016845703125,-1.7089842557907104,0.6103515028953552,1.0681151151657104,86.66667175292969,172955.0,1.0
18:19:22.107785,130824.859375,142740.84375,157771.140625,155212.3125,167370.578125,165251.8125,686148.5,127704.90625,0.0595703125,1.010986328125,-0.015380859375,-1.7395018339157104,0.5493163466453552,1.0070799589157104,86.66667175292969,172956.0,1.0
18:19:22.110279,130841.84375,142760.59375,157792.421875,155222.6875,167397.140625,165280.078125,686143.4375,127716.9765625,0.06201171875,1.011962890625,-0.015625,-1.8615721464157104,0.6713866591453552,0.9155272841453552,86.66667175292969,172957.0,1.0
18:19:22.112841,130831.1171875,142742.1875,157792.6875,155231.359375,167399.015625,165278.28125,686020.875,127734.1484375,0.06005859375,1.01171875,-0.014892578125,-1.8310545682907104,0.7324218153953552,0.9460448622703552,86.66667175292969,172958.0,1.0
18:19:22.115907,130804.46875,142714.640625,157762.28125,155205.0625,167365.671875,165248.25,686054.4375,127707.859375,0.060791015625,1.013427734375,-0.01513671875,-1.8615721464157104,0.7019042372703552,0.8544921278953552,86.66667175292969,172959.0,1.0
18:19:22.115945,130824.140625,142740.84375,157771.671875,155212.21875,167372.1875,165254.765625,686126.875,127707.5,0.05908203125,1.01416015625,-0.01708984375,-1.8920897245407104,0.7324218153953552,0.7934569716453552,86.66667175292969,172960.0,1.0
18:19:22.118021,130834.15625,142753.0,157782.578125,155215.53125,167386.328125,165267.734375,686188.125,127708.84375,0.05712890625,1.012939453125,-0.01513671875,-1.9836424589157104,0.7324218153953552,0.7324218153953552,86.66667175292969,172961.0,1.0
18:19:22.146009,130812.9609375,142724.296875,157774.171875,155207.21875,167380.78125,165257.71875,686022.375,127704.1015625,0.056396484375,1.013427734375,-0.01513671875,-1.9836424589157104,0.8544921278953552,0.7019042372703552,86.66667175292969,172962.0,1.0
18:19:22.146081,130786.5859375,142691.484375,157746.546875,155188.265625,167349.84375,165225.09375,686031.75,127690.15625,0.057861328125,1.012939453125,-0.016357421875,-2.014159917831421,0.7934569716453552,0.7629393935203552,86.66667175292969,172963.0,1.0
18:19:22.151683,130798.8359375,142716.078125,157749.953125,155186.921875,167350.734375,165232.15625,686055.1875,127687.1171875,0.056640625,1.010986328125,-0.017822265625,-2.014159917831421,0.7629393935203552,0.8239745497703552,86.66667175292969,172964.0,1.0
18:19:22.155398,130823.25,142746.65625,157770.515625,155201.40625,167373.265625,165258.34375,686168.625,127697.84375,0.056640625,1.0107421875,-0.0146484375,-2.044677495956421,0.7629393935203552,0.7019042372703552,86.66667175292969,172965.0,1.0
18:19:22.155474,130825.9296875,142743.4375,157785.796875,155213.109375,167394.015625,165276.234375,686013.4375,127711.8828125,0.05419921875,1.010498046875,-0.01220703125,-2.014159917831421,0.7324218153953552,0.7629393935203552,86.66667175292969,172966.0,1.0
18:19:22.155500,130799.109375,142708.75,157760.765625,155196.125,167367.453125,165245.46875,686035.3125,127699.9921875,0.0546875,1.010498046875,-0.01123046875,-2.014159917831421,0.7324218153953552,0.6713866591453552,86.66667175292969,172967.0,1.0
18:19:22.158466,130811.8046875,142726.0,157765.328125,155203.453125,167368.703125,165244.9375,686103.875,127707.6796875,0.05419921875,1.012451171875,-0.01171875,-2.014159917831421,0.6713866591453552,0.7324218153953552,86.66667175292969,172968.0,1.0
18:19:22.158528,130833.171875,142750.578125,157777.390625,155212.671875,167379.171875,165259.15625,686201.375,127710.5390625,0.0537109375,1.011474609375,-0.012939453125,-1.9531248807907104,0.6103515028953552,0.7019042372703552,86.66667175292969,172969.0,1.0
18:19:22.160344,130840.0546875,142755.0625,157797.25,155223.578125,167404.734375,165283.828125,686057.5625,127721.09375,0.05419921875,1.010009765625,-0.015380859375,-1.8615721464157104,0.6103515028953552,0.7629393935203552,86.66667175292969,172970.0,1.0
18:19:22.162882,130813.0546875,142719.46875,157775.078125,155210.4375,167381.046875,165255.125,686014.9375,127711.4375,0.054443359375,1.007568359375,-0.012939453125,-1.8005369901657104,0.4882812201976776,0.7629393935203552,86.66667175292969,172971.0,1.0
18:19:22.165457,130823.875,142735.5625,157780.96875,155218.03125,167386.234375,165258.4375,686002.1875,127721.359375,0.053955078125,1.006591796875,-0.014404296875,-1.6479490995407104,0.3967284858226776,0.8239745497703552,86.66667175292969,172972.0,1.0
18:19:22.168400,130834.8671875,142752.46875,157779.0,155216.421875,167381.40625,165260.140625,686163.375,127715.4609375,0.05419921875,1.007080078125,-0.012939453125,-1.6174315214157104,0.3662109076976776,0.8239745497703552,86.66667175292969,172973.0,1.0
18:19:22.168424,130846.671875,142763.734375,157797.875,155225.453125,167404.03125,165286.6875,686077.25,127719.5703125,0.0556640625,1.00732421875,-0.011962890625,-1.5563963651657104,0.3356933295726776,0.9460448622703552,86.66667175292969,172974.0,1.0
18:19:22.170374,130818.421875,142727.15625,157778.015625,155214.359375,167383.109375,165262.015625,686034.375,127715.546875,0.0537109375,1.00390625,-0.013671875,-1.4648436307907104,0.2746581733226776,0.8850097060203552,86.66667175292969,172975.0,1.0
18:19:22.173667,130810.375,142721.609375,157766.484375,155205.609375,167368.4375,165246.359375,686079.125,127705.890625,0.052734375,1.00439453125,-0.011474609375,-1.3732908964157104,0.2136230319738388,0.9765624403953552,86.66667175292969,172976.0,1.0
18:19:22.173734,130823.6015625,142742.984375,157768.984375,155204.703125,167369.78125,165251.109375,686179.0,127701.15625,0.052978515625,1.0078125,-0.01416015625,-1.1901854276657104,0.1831054538488388,1.0070799589157104,86.66667175292969,172977.0,1.0
18:19:22.177836,130829.0546875,142753.359375,157782.140625,155207.21875,167389.265625,165274.796875,686112.375,127704.375,0.054443359375,1.008544921875,-0.015380859375,-1.1291502714157104,0.1525878757238388,0.9765624403953552,86.66667175292969,172978.0,1.0
18:19:22.180341,130814.3984375,142733.421875,157777.3125,155212.84375,167385.421875,165271.3125,686014.0625,127715.7265625,0.0537109375,1.008544921875,-0.014404296875,-1.0986326932907104,-0.03051757626235485,1.0375975370407104,86.66667175292969,172979.0,1.0
18:19:22.182817,130806.796875,142722.421875,157768.546875,155206.3125,167374.703125,165252.71875,686036.9375,127710.453125,0.0537109375,1.006103515625,-0.01416015625,-1.0986326932907104,-0.03051757626235485,1.0375975370407104,86.66667175292969,172980.0,1.0
18:19:22.185938,130822.265625,142746.296875,157772.5625,155208.203125,167376.84375,165255.65625,686126.4375,127708.578125,0.056396484375,1.005615234375,-0.0126953125,-0.9765624403953552,-0.1525878757238388,1.1291502714157104,86.66667175292969,172981.0,1.0
18:19:22.185953,130836.5703125,142761.140625,157787.671875,155216.6875,167394.09375,165276.765625,686142.1875,127712.78125,0.057861328125,1.006591796875,-0.013427734375,-1.0070799589157104,-0.2136230319738388,1.0681151151657104,86.66667175292969,172982.0,1.0
18:19:22.191612,130823.875,142740.84375,157786.421875,155218.65625,167393.390625,165273.90625,686011.1875,127722.2578125,0.06005859375,1.005859375,-0.014892578125,-0.9460448622703552,-0.1220703050494194,1.0681151151657104,86.66667175292969,172983.0,1.0
18:19:22.194062,130812.7890625,142725.109375,157775.421875,155215.796875,167379.796875,165255.484375,686069.75,127726.6328125,0.064453125,1.0068359375,-0.01611328125,-0.8850097060203552,-0.0610351525247097,1.0986326932907104,86.66667175292969,172984.0,1.0
18:19:22.196681,130827.359375,142747.8125,157779.546875,155218.65625,167382.75,165260.3125,686132.3125,127722.609375,0.065185546875,1.007080078125,-0.01806640625,-0.7324218153953552,-0.0610351525247097,1.1901854276657104,86.66667175292969,172985.0,1.0
18:19:22.202092,130824.765625,142750.234375,157775.421875,155203.71875,167381.671875,165264.609375,686178.5625,127704.015625,0.065185546875,1.009033203125,-0.0185546875,-0.5493163466453552,-0.03051757626235485,1.2512205839157104,86.66667175292969,172986.0,1.0
18:19:22.202119,130817.34375,142737.0,157779.09375,155210.4375,167388.015625,165270.5,686031.5,127709.9140625,0.063720703125,1.007080078125,-0.021484375,-0.5798339247703552,0.03051757626235485,1.3732908964157104,86.66667175292969,172987.0,1.0
18:19:22.204011,130792.3125,142706.78125,157753.4375,155193.984375,167358.6875,165240.203125,686053.6875,127697.9375,0.064453125,1.007080078125,-0.01953125,-0.4577636420726776,0.1220703050494194,1.3122557401657104,86.66667175292969,172988.0,1.0
18:19:22.210323,130806.796875,142731.453125,157760.140625,155197.46875,167363.515625,165247.4375,686096.9375,127696.328125,0.065185546875,1.007568359375,-0.0185546875,-0.3662109076976776,0.1525878757238388,1.2512205839157104,86.66667175292969,172989.0,1.0
18:19:22.217245,130824.765625,142754.25,157774.4375,155206.59375,167377.375,165265.3125,686195.75,127702.2265625,0.06396484375,1.007568359375,-0.01708984375,-0.2441406100988388,0.2746581733226776,1.1901854276657104,86.66667175292969,172990.0,1.0
18:19:22.217307,130817.078125,142742.359375,157778.5625,155206.3125,167386.328125,165274.703125,686039.4375,127706.515625,0.0634765625,1.008544921875,-0.01708984375,-0.2136230319738388,0.3051757514476776,0.9765624403953552,86.66667175292969,172991.0,1.0
18:19:22.226685,130792.21875,142706.328125,157754.15625,155194.25,167357.171875,165240.375,686030.75,127697.6640625,0.063232421875,1.0107421875,-0.017578125,-0.1220703050494194,0.2441406100988388,0.7629393935203552,86.66667175292969,172992.0,1.0
18:19:22.232168,130801.0703125,142721.171875,157755.484375,155193.09375,167355.75,165239.125,686070.5625,127692.9296875,0.06396484375,1.014404296875,-0.015380859375,-0.3356933295726776,0.3356933295726776,0.7019042372703552,86.66667175292969,172993.0,1.0
18:19:22.232177,130823.78125,142748.703125,157770.953125,155205.6875,167370.40625,165254.59375,686196.8125,127700.53125,0.060791015625,1.01611328125,-0.014892578125,-0.2746581733226776,0.3356933295726776,0.4272460639476776,86.66667175292969,172994.0,1.0
18:19:22.234066,130827.1796875,142751.484375,157786.25,155213.296875,167392.3125,165277.390625,686065.75,127711.8828125,0.0576171875,1.014892578125,-0.015869140625,-0.3051757514476776,0.4272460639476776,0.2136230319738388,86.66667175292969,172995.0,1.0
18:19:22.236542,130816.6328125,142733.859375,157779.265625,155214.90625,167382.65625,165266.484375,686043.75,127719.21875,0.0576171875,1.014404296875,-0.0126953125,-0.3662109076976776,0.3356933295726776,0.0610351525247097,86.66667175292969,172996.0,1.0
18:19:22.246562,130811.4453125,142732.53125,157767.375,155206.859375,167368.96875,165254.765625,686080.75,127710.3671875,0.057373046875,1.013427734375,-0.0126953125,-0.4882812201976776,0.2746581733226776,-0.0610351525247097,86.66667175292969,172997.0,1.0
18:19:22.253387,130819.046875,142742.53125,157764.34375,155202.109375,167363.25,165247.4375,686185.0,127705.4453125,0.059814453125,1.015380859375,-0.0146484375,-0.5798339247703552,0.3356933295726776,-0.2746581733226776,86.66667175292969,172998.0,1.0
18:19:22.253423,130827.09375,142749.6875,157781.78125,155212.390625,167385.78125,165269.515625,686092.8125,127720.9140625,0.058837890625,1.0146484375,-0.014404296875,-0.7629393935203552,0.3356933295726776,-0.3356933295726776,86.66667175292969,172999.0,1.0
18:19:22.255274,130803.3984375,142717.0625,157763.453125,155202.65625,167364.859375,165249.046875,686031.3125,127706.7890625,0.05908203125,1.012939453125,-0.015869140625,-0.7629393935203552,0.3051757514476776,-0.4272460639476776,86.66667175292969,173000.0,1.0
18:19:22.257784,130794.28125,142711.78125,157750.03125,155192.90625,167351.28125,165235.71875,686051.875,127693.5546875,0.060791015625,1.014404296875,-0.0185546875,-0.9155272841453552,0.3662109076976776,-0.3967284858226776,86.66667175292969,173001.0,1.0
18:19:22.265461,130806.796875,142731.359375,157754.78125,155194.34375,167355.921875,165237.6875,686154.9375,127691.859375,0.063232421875,1.015625,-0.01806640625,-1.0070799589157104,0.4272460639476776,-0.4272460639476776,86.66667175292969,173002.0,1.0
18:19:22.269769,130821.28125,142748.4375,157777.84375,155207.03125,167386.40625,165269.15625,686130.9375,127706.0703125,0.06201171875,1.013916015625,-0.018310546875,-1.0986326932907104,0.5493163466453552,-0.3662109076976776,86.66667175292969,173003.0,1.0
18:19:22.269823,130802.4140625,142721.796875,157764.78125,155198.359375,167369.953125,165255.484375,686034.25,127700.078125,0.062255859375,1.012939453125,-0.018310546875,-1.1901854276657104,0.6408690810203552,-0.3356933295726776,86.66667175292969,173004.0,1.0
18:19:22.275864,130795.0859375,142712.3125,157751.921875,155191.484375,167350.734375,165237.0625,686045.1875,127692.2109375,0.060791015625,1.01513671875,-0.017333984375,-1.1596678495407104,0.6408690810203552,-0.2746581733226776,86.66667175292969,173005.0,1.0
18:19:22.275897,130804.46875,142731.71875,157751.109375,155188.265625,167347.78125,165235.015625,686127.125,127682.6484375,0.0576171875,1.015380859375,-0.01708984375,-1.3122557401657104,0.5798339247703552,-0.2441406100988388,86.66667175292969,173006.0,1.0
18:19:22.277788,130822.9765625,142752.640625,157773.734375,155203.71875,167375.765625,165263.078125,686157.8125,127697.84375,0.05517578125,1.01318359375,-0.013671875,-1.3732908964157104,0.5493163466453552,-0.0610351525247097,86.66667175292969,173007.0,1.0
18:19:22.287806,130804.0234375,142724.203125,157766.484375,155198.359375,167371.03125,165253.078125,686018.5,127699.8125,0.053955078125,1.0126953125,-0.011474609375,-1.3732908964157104,0.4882812201976776,-0.0915527269244194,86.66667175292969,173008.0,1.0
18:19:22.290884,130788.6484375,142707.140625,157749.859375,155186.921875,167351.453125,165233.765625,686048.75,127694.0,0.052978515625,1.014404296875,-0.013427734375,-1.3732908964157104,0.4577636420726776,0.0,86.66667175292969,173009.0,1.0
18:19:22.290909,130814.84375,142743.078125,157767.828125,155200.953125,167367.90625,165251.015625,686102.75,127703.5703125,0.051025390625,1.015625,-0.017822265625,-1.4038084745407104,0.3967284858226776,0.0,86.66667175292969,173010.0,1.0
18:19:22.299103,130817.2578125,142748.703125,157768.09375,155194.703125,167370.9375,165256.640625,686181.4375,127694.0,0.051025390625,1.01513671875,-0.015869140625,-1.5869139432907104,0.3051757514476776,0.1525878757238388,86.66667175292969,173011.0,1.0
18:19:22.306093,130812.3359375,142735.390625,157773.375,155200.328125,167379.078125,165264.15625,686029.3125,127700.796875,0.05126953125,1.014404296875,-0.014404296875,-1.7089842557907104,0.1831054538488388,0.1831054538488388,86.66667175292969,173012.0,1.0
18:19:22.306140,130798.75,142713.484375,157761.65625,155201.40625,167365.3125,165243.765625,686061.1875,127703.9296875,0.050537109375,1.01318359375,-0.0146484375,-1.7700194120407104,0.03051757626235485,0.1525878757238388,86.66667175292969,173013.0,1.0
18:19:22.312182,130812.15625,142737.265625,157768.359375,155205.0625,167371.03125,165250.828125,686105.5,127708.7578125,0.048828125,1.01025390625,-0.01513671875,-1.7700194120407104,-0.03051757626235485,0.2136230319738388,86.66667175292969,173014.0,1.0
18:19:22.314078,130827.8984375,142757.734375,157778.5625,155207.75,167379.53125,165265.59375,686196.875,127710.9921875,0.04833984375,1.012939453125,-0.014404296875,-1.8310545682907104,-0.1831054538488388,0.1525878757238388,86.66667175292969,173015.0,1.0
18:19:22.317813,130818.328125,142746.46875,157779.453125,155202.65625,167385.34375,165273.546875,686044.25,127700.6171875,0.04833984375,1.012451171875,-0.015625,-1.8920897245407104,-0.2746581733226776,0.1525878757238388,86.66667175292969,173016.0,1.0
18:19:22.322120,130788.6484375,142702.3125,157752.625,155189.0625,167356.640625,165233.21875,686051.3125,127694.71875,0.048828125,1.013427734375,-0.01513671875,-1.8920897245407104,-0.4577636420726776,0.2136230319738388,86.66667175292969,173017.0,1.0
18:19:22.322169,130795.0859375,142716.703125,157751.5625,155188.890625,167352.796875,165232.234375,686071.1875,127692.125,0.04931640625,1.012939453125,-0.0146484375,-2.075195074081421,-0.6103515028953552,0.2136230319738388,86.66667175292969,173018.0,1.0
18:19:22.327872,130815.5546875,142744.328125,157763.890625,155197.015625,167364.140625,165248.328125,686191.4375,127698.296875,0.049560546875,1.0126953125,-0.01953125,-1.9836424589157104,-0.6103515028953552,0.0915527269244194,86.66667175292969,173019.0,1.0
18:19:22.335409,130813.234375,142742.8125,157772.203125,155193.4375,167377.296875,165265.140625,686057.4375,127692.6640625,0.050537109375,1.010498046875,-0.015625,-1.9836424589157104,-0.7324218153953552,0.0,86.66667175292969,173020.0,1.0
18:19:22.347183,130787.484375,142707.671875,157752.359375,155186.375,167355.5625,165238.859375,686023.5,127691.3203125,0.05322265625,1.0107421875,-0.013916015625,-1.8920897245407104,-0.8544921278953552,0.0915527269244194,86.66667175292969,173021.0,1.0
18:19:22.347203,130794.6328125,142722.515625,157754.421875,155185.671875,167357.171875,165242.78125,686051.0,127690.78125,0.05224609375,1.009765625,-0.01513671875,-1.8310545682907104,-1.0070799589157104,0.03051757626235485,86.66667175292969,173022.0,1.0
18:19:22.349071,130806.078125,142743.703125,157754.78125,155182.0,167355.828125,165248.0625,686167.1875,127680.6796875,0.05322265625,1.00732421875,-0.0146484375,-1.8920897245407104,-0.9460448622703552,0.0610351525247097,86.66667175292969,173023.0,1.0
18:19:22.351577,130803.578125,142739.953125,157760.3125,155183.515625,167365.484375,165260.484375,686084.5,127681.484375,0.053955078125,1.008544921875,-0.01416015625,-1.8310545682907104,-0.9460448622703552,0.1220703050494194,86.66667175292969,173024.0,1.0
18:19:22.358194,130773.4453125,142696.40625,157736.890625,155172.4375,167340.984375,165228.84375,686016.5625,127675.8515625,0.0556640625,1.008056640625,-0.01708984375,-1.8615721464157104,-0.9460448622703552,0.1220703050494194,86.66667175292969,173025.0,1.0
18:19:22.360903,130762.8984375,142688.265625,157721.15625,155159.46875,167324.625,165211.9375,686040.1875,127664.5,0.056884765625,1.007080078125,-0.01708984375,-1.7700194120407104,-0.9460448622703552,0.1831054538488388,86.66667175292969,173026.0,1.0
18:19:22.360956,130781.4921875,142716.796875,157728.578125,155165.546875,167329.546875,165222.9375,686137.625,127665.8359375,0.057373046875,1.00732421875,-0.019775390625,-1.5869139432907104,-0.9460448622703552,0.3051757514476776,86.66667175292969,173027.0,1.0
18:19:22.377781,130792.671875,142729.9375,157746.90625,155171.265625,167353.59375,165248.875,686110.875,127674.0625,0.05810546875,1.0068359375,-0.019775390625,-1.4953612089157104,-0.9155272841453552,0.4272460639476776,86.66667175292969,173028.0,1.0
18:19:22.377856,130786.5859375,142711.25,157750.21875,155182.53125,167354.765625,165244.9375,686028.375,127690.6015625,0.061279296875,1.0048828125,-0.020751953125,-1.4343260526657104,-0.8850097060203552,0.3967284858226776,86.66667175292969,173029.0,1.0
18:19:22.377884,130776.578125,142699.359375,157737.515625,155178.609375,167338.21875,165226.15625,686070.1875,127687.921875,0.0625,1.004638671875,-0.021240234375,-1.2512205839157104,-0.7019042372703552,0.4882812201976776,86.66667175292969,173030.0,1.0
18:19:22.381041,130800.0,142734.578125,157752.625,155188.703125,167351.0,165241.171875,686145.125,127686.671875,0.0634765625,1.00439453125,-0.020751953125,-1.1291502714157104,-0.7324218153953552,0.6408690810203552,86.66667175292969,173031.0,1.0
18:19:22.381103,130821.4609375,142760.78125,157776.59375,155203.640625,167379.96875,165272.734375,686164.5,127703.390625,0.062255859375,1.005615234375,-0.01904296875,-1.0375975370407104,-0.5798339247703552,0.7934569716453552,86.66667175292969,173032.0,1.0
18:19:22.382940,130799.375,142730.921875,157764.703125,155195.40625,167370.671875,165260.84375,686021.375,127702.9453125,0.0634765625,1.0068359375,-0.019775390625,-0.9460448622703552,-0.4577636420726776,0.8850097060203552,86.66667175292969,173033.0,1.0
18:19:22.389197,130778.546875,142703.5625,157740.46875,155178.609375,167342.25,165230.546875,686029.25,127685.5078125,0.0625,1.00830078125,-0.020263671875,-0.8544921278953552,-0.3662109076976776,0.8850097060203552,86.66667175292969,173034.0,1.0
18:19:22.437557,130798.125,142734.046875,157750.9375,155184.6875,167350.015625,165242.703125,686088.6875,127683.09375,0.06298828125,1.008056640625,-0.021240234375,-0.7629393935203552,-0.2136230319738388,0.8239745497703552,86.66667175292969,173035.0,1.0
18:19:22.437654,130815.109375,142753.625,157766.671875,155191.921875,167368.34375,165261.03125,686181.75,127688.28125,0.06298828125,1.01025390625,-0.017578125,-0.6713866591453552,-0.1525878757238388,0.8239745497703552,86.66667175292969,173036.0,1.0
18:19:22.442906,130810.1953125,142742.09375,157775.515625,155198.8125,167381.5,165269.796875,686028.8125,127700.078125,0.060546875,1.0078125,-0.01904296875,-0.6103515028953552,0.03051757626235485,0.7629393935203552,86.66667175292969,173037.0,1.0
18:19:22.445331,130794.8125,142718.21875,157759.609375,155195.671875,167360.390625,165246.453125,686047.5625,127697.84375,0.0625,1.0068359375,-0.01904296875,-0.4882812201976776,0.3356933295726776,0.6713866591453552,86.66667175292969,173038.0,1.0
18:19:22.447784,130811.0,142742.265625,157766.125,155202.390625,167363.4375,165251.1875,686084.5,127700.53125,0.062744140625,1.010009765625,-0.02001953125,-0.5493163466453552,0.2746581733226776,0.6713866591453552,86.66667175292969,173039.0,1.0
18:19:22.450320,130827.984375,142765.875,157777.65625,155207.296875,167376.390625,165266.921875,686196.0625,127703.8359375,0.0615234375,1.0107421875,-0.020263671875,-0.4577636420726776,0.3051757514476776,0.7019042372703552,86.66667175292969,173040.0,1.0
18:19:22.452823,130822.9765625,142753.265625,157785.53125,155214.8125,167389.8125,165276.046875,686046.9375,127714.5625,0.06005859375,1.0087890625,-0.02197265625,-0.5187987685203552,0.4577636420726776,0.6713866591453552,86.66667175292969,173041.0,1.0
18:19:22.460418,130794.9921875,142712.046875,157760.140625,155198.09375,167360.84375,165241.0,686040.3125,127702.140625,0.059814453125,1.0087890625,-0.02099609375,-0.4882812201976776,0.5187987685203552,0.6103515028953552,86.66667175292969,173042.0,1.0
18:19:22.462812,130803.484375,142728.5,157762.015625,155199.34375,167360.125,165241.8125,686049.5625,127700.7109375,0.062744140625,1.01171875,-0.02197265625,-0.4882812201976776,0.6103515028953552,0.5187987685203552,86.66667175292969,173043.0,1.0
18:19:22.465292,130822.171875,142753.453125,157770.59375,155206.765625,167366.46875,165253.421875,686183.1875,127709.0234375,0.062255859375,1.011474609375,-0.021484375,-0.4272460639476776,0.7629393935203552,0.4882812201976776,86.66667175292969,173044.0,1.0
18:19:22.467852,130821.546875,142749.78125,157779.546875,155209.1875,167382.65625,165270.0625,686061.1875,127710.1875,0.0615234375,1.0107421875,-0.020751953125,-0.5187987685203552,0.7934569716453552,0.3662109076976776,86.66667175292969,173045.0,1.0
18:19:22.470460,130777.3828125,142695.328125,157740.65625,155180.21875,167343.046875,165226.15625,686037.0,127683.5390625,0.06005859375,1.014892578125,-0.0224609375,-0.4577636420726776,0.9155272841453552,0.3356933295726776,86.66667175292969,173046.0,1.0
18:19:22.472872,130777.2890625,142700.96875,157735.734375,155176.90625,167335.890625,165219.90625,686074.25,127678.359375,0.06103515625,1.017578125,-0.02294921875,-0.3967284858226776,0.8850097060203552,0.5493163466453552,86.66667175292969,173047.0,1.0
18:19:22.475388,130793.3828125,142724.75,157743.515625,155177.34375,167342.953125,165227.765625,686175.4375,127675.3125,0.061767578125,1.015380859375,-0.0234375,-0.5798339247703552,0.9765624403953552,0.5493163466453552,86.66667175292969,173048.0,1.0
18:19:22.477762,130815.203125,142746.921875,157774.625,155197.921875,167381.40625,165268.0,686103.5625,127697.1328125,0.0595703125,1.0146484375,-0.023193359375,-0.7019042372703552,1.0986326932907104,0.3662109076976776,86.66667175292969,173049.0,1.0
18:19:22.480842,130796.515625,142719.03125,157764.078125,155196.125,167369.515625,165253.078125,686045.25,127699.6328125,0.057861328125,1.0146484375,-0.021484375,-0.7324218153953552,1.1901854276657104,0.4882812201976776,86.66667175292969,173050.0,1.0
