Timestamp,Fz,FC3,FCz,FC4,Cz,C3,C4
18:13:53.577156,135243.53125,143727.359375,160826.265625,157781.234375,178097.359375,175711.90625,685858.5,131111.40625,0.06787109375,1.007080078125,-0.072509765625,-2.197265386581421,-0.8239745497703552,0.2441406100988388,86.66667175292969,90766.0,1.0
18:13:53.577205,135240.578125,143719.046875,160820.890625,157785.796875,178088.515625,175701.96875,685916.625,131117.65625,0.0712890625,1.00634765625,-0.07421875,-2.258300542831421,-0.9155272841453552,0.1831054538488388,86.66667175292969,90767.0,1.0
18:13:53.583311,135258.90625,143749.171875,160830.46875,157792.953125,178095.84375,175711.0,685959.8125,131122.3125,0.0712890625,1.00537109375,-0.07421875,-2.288818120956421,-0.8850097060203552,0.1831054538488388,86.66667175292969,90768.0,1.0
18:13:53.583348,135268.65625,143763.828125,160838.78125,157790.625,178106.75,175725.75,686030.875,131116.5,0.0732421875,1.003173828125,-0.07568359375,-2.288818120956421,-0.8850097060203552,0.3967284858226776,86.66667175292969,90769.0,1.0
18:13:53.589742,135262.75,143754.171875,160844.328125,157795.1875,178114.625,175737.375,685841.3125,131121.0625,0.07373046875,1.003662109375,-0.073974609375,-2.197265386581421,-0.7934569716453552,0.3662109076976776,86.66667175292969,90770.0,1.0
18:13:53.589829,135242.984375,143726.90625,160823.3125,157788.65625,178088.96875,175709.75,685905.3125,131119.453125,0.07568359375,1.00390625,-0.075439453125,-2.105712652206421,-0.7629393935203552,0.4577636420726776,86.66667175292969,90771.0,1.0
18:13:53.595231,135243.796875,143733.4375,160818.125,157781.78125,178081.984375,175697.953125,685932.4375,131115.609375,0.074951171875,1.004638671875,-0.076416015625,-1.9226073026657104,-0.7629393935203552,0.5187987685203552,86.66667175292969,90772.0,1.0
18:13:53.599601,135272.859375,143767.953125,160842.890625,157797.328125,178108.28125,175726.296875,686058.75,131121.859375,0.075927734375,1.003662109375,-0.078857421875,-1.7700194120407104,-0.7019042372703552,0.6408690810203552,86.66667175292969,90773.0,1.0
18:13:53.599673,135254.703125,143743.984375,160837.171875,157785.53125,178106.671875,175723.703125,685851.3125,131110.421875,0.076904296875,1.002685546875,-0.07470703125,-1.7700194120407104,-0.7019042372703552,0.7324218153953552,86.66667175292969,90774.0,1.0
18:13:53.609044,135231.09375,143710.015625,160814.1875,157775.078125,178079.84375,175692.765625,685887.8125,131104.4375,0.079345703125,1.0009765625,-0.07275390625,-1.6174315214157104,-0.5493163466453552,0.7934569716453552,86.66667175292969,90775.0,1.0
18:13:53.613288,135241.296875,143727.890625,160818.03125,157779.71875,178080.296875,175693.921875,685893.8125,131107.375,0.079345703125,1.000244140625,-0.07373046875,-1.5563963651657104,-0.3356933295726776,0.8544921278953552,86.66667175292969,90776.0,1.0
18:13:53.613316,135255.59375,143748.90625,160824.828125,157783.65625,178086.640625,175701.96875,686042.75,131106.484375,0.079345703125,1.000244140625,-0.07568359375,-1.4953612089157104,-0.2441406100988388,0.8850097060203552,86.66667175292969,90777.0,1.0
18:13:53.620399,135248.71875,143741.03125,160829.921875,157780.171875,178098.53125,175713.515625,685874.375,131103.453125,0.076416015625,1.0029296875,-0.073974609375,-1.2817381620407104,-0.1525878757238388,0.8544921278953552,86.66667175292969,90778.0,1.0
18:13:53.627069,135226.359375,143706.96875,160810.609375,157775.78125,178076.53125,175687.84375,685881.1875,131104.078125,0.077880859375,1.00439453125,-0.07373046875,-1.1596678495407104,0.0610351525247097,0.9155272841453552,86.66667175292969,90779.0,1.0
18:13:53.627103,135229.671875,143714.484375,160808.375,157775.421875,178072.59375,175684.265625,685908.4375,131105.859375,0.077880859375,1.00634765625,-0.07421875,-1.0681151151657104,0.0610351525247097,1.0070799589157104,86.66667175292969,90780.0,1.0
18:13:53.634052,135251.84375,143746.484375,160821.078125,157782.3125,178083.15625,175699.5625,686044.875,131105.859375,0.077392578125,1.006103515625,-0.075927734375,-1.1596678495407104,0.1525878757238388,0.9460448622703552,86.66667175292969,90781.0,1.0
18:13:53.634161,135255.421875,143750.609375,160833.59375,157785.171875,178101.921875,175718.609375,685919.625,131107.03125,0.077880859375,1.005859375,-0.076416015625,-1.0070799589157104,0.2746581733226776,0.8850097060203552,86.66667175292969,90782.0,1.0
18:13:53.639024,135238.703125,143719.9375,160822.0625,157787.953125,178087.890625,175700.1875,685879.5625,131113.46875,0.07666015625,1.008056640625,-0.0771484375,-0.9460448622703552,0.3356933295726776,0.9155272841453552,86.66667175292969,90783.0,1.0
18:13:53.643486,135236.46875,143720.03125,160815.0,157784.375,178079.21875,175693.84375,685904.8125,131113.375,0.07763671875,1.010498046875,-0.07763671875,-0.8544921278953552,0.3967284858226776,0.8239745497703552,86.66667175292969,90784.0,1.0
18:13:53.643507,135250.140625,143745.5,160818.84375,157781.421875,178081.8125,175700.640625,686028.8125,131106.484375,0.07568359375,1.009033203125,-0.076416015625,-0.9155272841453552,0.4577636420726776,0.8239745497703552,86.66667175292969,90785.0,1.0
18:13:53.650483,135252.015625,143748.8125,160827.15625,157779.984375,178095.9375,175715.390625,685970.125,131104.515625,0.076416015625,1.010986328125,-0.07568359375,-0.9765624403953552,0.6103515028953552,0.8239745497703552,86.66667175292969,90786.0,1.0
18:13:53.658313,135232.890625,143720.828125,160817.859375,157780.25,178087.171875,175701.625,685861.5,131111.3125,0.07421875,1.011474609375,-0.076904296875,-0.9155272841453552,0.6103515028953552,0.6713866591453552,86.66667175292969,90787.0,1.0
18:13:53.658336,135223.953125,143709.203125,160806.765625,157779.453125,178072.25,175684.625,685904.0,131116.5,0.072998046875,1.01025390625,-0.077392578125,-1.0375975370407104,0.6713866591453552,0.7019042372703552,86.66667175292969,90788.0,1.0
18:13:53.660842,135242.984375,143739.515625,160816.421875,157775.078125,178079.390625,175696.4375,685996.0,131100.046875,0.07275390625,1.0087890625,-0.074951171875,-0.9460448622703552,0.7019042372703552,0.6713866591453552,86.66667175292969,90789.0,1.0
18:13:53.660861,135253.1875,143754.265625,160829.484375,157777.390625,178097.546875,175714.9375,686015.125,131100.9375,0.072998046875,1.009765625,-0.075927734375,-0.8850097060203552,0.7629393935203552,0.7019042372703552,86.66667175292969,90790.0,1.0
18:13:53.669010,135243.171875,143733.703125,160829.921875,157788.484375,178099.6875,175710.734375,685854.1875,131116.328125,0.0751953125,1.01025390625,-0.074462890625,-1.0070799589157104,0.7629393935203552,0.5798339247703552,86.66667175292969,90791.0,1.0
18:13:53.682360,135232.53125,143713.046875,160816.609375,157790.1875,178080.921875,175687.671875,685910.8125,131122.3125,0.074462890625,1.007080078125,-0.0751953125,-1.0681151151657104,0.7934569716453552,0.6408690810203552,86.66667175292969,90792.0,1.0
18:13:53.682441,135252.46875,143745.421875,160827.0625,157788.84375,178087.171875,175700.09375,685975.0,131114.796875,0.076171875,1.007568359375,-0.07470703125,-1.0681151151657104,0.9460448622703552,0.6713866591453552,86.66667175292969,90793.0,1.0
18:13:53.684576,135265.703125,143764.90625,160839.234375,157791.15625,178101.75,175717.703125,686057.125,131113.46875,0.078369140625,1.00927734375,-0.0751953125,-1.0375975370407104,0.9765624403953552,0.9155272841453552,86.66667175292969,90794.0,1.0
18:13:53.684587,135248.359375,143740.328125,160834.3125,157786.15625,178099.6875,175712.796875,685857.4375,131109.171875,0.077392578125,1.00830078125,-0.07666015625,-0.9765624403953552,1.0375975370407104,0.7934569716453552,86.66667175292969,90795.0,1.0
18:13:53.693963,135235.390625,143716.453125,160821.609375,157785.703125,178082.25,175689.90625,685917.0625,131110.515625,0.07373046875,1.007080078125,-0.076416015625,-1.0375975370407104,1.1901854276657104,0.9765624403953552,86.66667175292969,90796.0,1.0
18:13:53.697092,135255.59375,143745.59375,160834.3125,157793.84375,178093.171875,175701.890625,685946.8125,131115.515625,0.072265625,1.008056640625,-0.079833984375,-0.9460448622703552,1.1596678495407104,0.9765624403953552,86.66667175292969,90797.0,1.0
18:13:53.697102,135263.015625,143759.0,160835.734375,157784.453125,178095.671875,175708.140625,686067.875,131103.1875,0.069580078125,1.009033203125,-0.077880859375,-1.0375975370407104,1.0375975370407104,1.0375975370407104,86.66667175292969,90798.0,1.0
18:13:53.704017,135262.65625,143755.96875,160847.1875,157792.421875,178113.546875,175725.9375,685882.0,131112.828125,0.071533203125,1.00830078125,-0.078125,-1.0070799589157104,1.0681151151657104,1.0070799589157104,86.66667175292969,90799.0,1.0
18:13:53.715196,135243.171875,143725.84375,160828.5,157789.375,178091.640625,175702.515625,685933.5625,131114.09375,0.072021484375,1.009033203125,-0.079345703125,-1.0375975370407104,1.0681151151657104,1.1596678495407104,86.66667175292969,90800.0,1.0
18:13:53.715250,135255.421875,143743.265625,160833.765625,157795.640625,178093.25,175706.453125,685939.5625,131117.9375,0.072021484375,1.00927734375,-0.0771484375,-1.0681151151657104,1.0681151151657104,0.9460448622703552,86.66667175292969,90801.0,1.0
18:13:53.715269,135267.484375,143763.203125,160838.15625,157794.65625,178096.65625,175712.703125,686081.3125,131116.5,0.07080078125,1.0087890625,-0.073486328125,-1.1901854276657104,1.0375975370407104,0.9765624403953552,86.66667175292969,90802.0,1.0
18:13:53.718431,135262.125,143755.96875,160844.234375,157792.59375,178109.171875,175722.09375,685910.4375,131119.0,0.070068359375,1.0087890625,-0.074951171875,-1.1901854276657104,1.0070799589157104,0.9765624403953552,86.66667175292969,90803.0,1.0
18:13:53.718442,135238.15625,143717.96875,160824.46875,157786.6875,178086.546875,175693.484375,685907.8125,131126.0625,0.06787109375,1.008544921875,-0.0771484375,-1.1901854276657104,0.8850097060203552,0.8850097060203552,86.66667175292969,90804.0,1.0
18:13:53.727728,135240.40625,143726.734375,160820.453125,157780.25,178080.203125,175691.78125,685924.375,131114.359375,0.066162109375,1.00830078125,-0.0791015625,-1.2817381620407104,0.8850097060203552,0.9155272841453552,86.66667175292969,90805.0,1.0
18:13:53.730252,135257.46875,143751.5,160827.78125,157783.828125,178086.015625,175700.015625,686065.8125,131108.09375,0.064453125,1.0107421875,-0.075439453125,-1.3122557401657104,0.8239745497703552,0.7019042372703552,86.66667175292969,90806.0,1.0
18:13:53.740125,135260.0625,143755.78125,160839.40625,157785.53125,178105.140625,175719.859375,685936.0625,131110.421875,0.065673828125,1.009765625,-0.07470703125,-1.3732908964157104,0.6103515028953552,0.6408690810203552,86.66667175292969,90807.0,1.0
18:13:53.740159,135245.9375,143731.46875,160832.703125,157791.078125,178095.84375,175706.984375,685885.5,131120.25,0.065673828125,1.011474609375,-0.078125,-1.4038084745407104,0.5493163466453552,0.5187987685203552,86.66667175292969,90808.0,1.0
18:13:53.744107,135233.78125,143721.1875,160817.40625,157778.015625,178078.40625,175691.15625,685905.9375,131108.546875,0.06689453125,1.0126953125,-0.075927734375,-1.5563963651657104,0.4272460639476776,0.5798339247703552,86.66667175292969,90809.0,1.0
18:13:53.747222,135240.84375,143737.28125,160813.5625,157770.515625,178073.234375,175689.453125,686014.9375,131097.8125,0.067626953125,1.0126953125,-0.073486328125,-1.5258787870407104,0.2746581733226776,0.5798339247703552,86.66667175292969,90810.0,1.0
18:13:53.747240,135246.296875,143744.796875,160823.578125,157769.96875,178089.765625,175706.0,685968.75,131098.796875,0.068359375,1.013671875,-0.07421875,-1.6784666776657104,0.1220703050494194,0.6408690810203552,86.66667175292969,90811.0,1.0
18:13:53.750428,135231.546875,143719.75,160816.96875,157773.109375,178083.0625,175696.609375,685853.75,131104.34375,0.068603515625,1.0126953125,-0.073974609375,-1.7395018339157104,0.1831054538488388,0.5798339247703552,86.66667175292969,90812.0,1.0
18:13:53.762815,135217.421875,143703.21875,160800.421875,157763.625,178061.78125,175675.25,685896.0625,131096.65625,0.070068359375,1.013427734375,-0.076171875,-1.8005369901657104,0.0610351525247097,0.6408690810203552,86.66667175292969,90813.0,1.0
18:13:53.764583,135232.625,143728.078125,160805.875,157767.03125,178064.203125,175680.703125,685971.125,131092.890625,0.06982421875,1.0107421875,-0.07470703125,-1.8615721464157104,0.0610351525247097,0.7629393935203552,86.66667175292969,90814.0,1.0
18:13:53.764600,135246.5625,143745.421875,160820.453125,157771.21875,178082.890625,175702.875,686003.6875,131097.09375,0.0703125,1.007568359375,-0.074951171875,-1.8615721464157104,-0.03051757626235485,0.8239745497703552,86.66667175292969,90815.0,1.0
18:13:53.774108,135241.5625,143731.46875,160826.0,157778.828125,178090.9375,175707.421875,685840.3125,131111.9375,0.068359375,1.010009765625,-0.072021484375,-1.8310545682907104,-0.0610351525247097,0.7934569716453552,86.66667175292969,90816.0,1.0
18:13:53.778936,135230.109375,143710.28125,160811.25,157777.65625,178071.34375,175683.828125,685900.875,131110.953125,0.06884765625,1.009033203125,-0.07275390625,-1.9531248807907104,-0.1831054538488388,0.9460448622703552,86.66667175292969,90817.0,1.0
18:13:53.778961,135244.25,143732.0,160817.140625,157779.453125,178074.75,175688.203125,685940.0,131106.125,0.070556640625,1.007080078125,-0.0732421875,-2.105712652206421,-0.0610351525247097,0.9155272841453552,86.66667175292969,90818.0,1.0
18:13:53.778968,135262.21875,143756.140625,160832.796875,157788.84375,178092.984375,175709.9375,686024.4375,131116.046875,0.072265625,1.010009765625,-0.07568359375,-2.014159917831421,-0.1220703050494194,1.0375975370407104,86.66667175292969,90819.0,1.0
18:13:53.782754,135253.453125,143743.09375,160836.015625,157786.34375,178099.328125,175716.109375,685824.125,131114.359375,0.07275390625,1.009765625,-0.076416015625,-1.9226073026657104,-0.1525878757238388,1.2207030057907104,86.66667175292969,90820.0,1.0
18:13:53.786605,135238.25,143718.5,160820.09375,157783.75,178078.0625,175691.96875,685897.5625,131110.78125,0.07177734375,1.009521484375,-0.074462890625,-1.9531248807907104,-0.1831054538488388,1.1596678495407104,86.66667175292969,90821.0,1.0
18:13:53.796543,135249.875,143737.8125,160822.0625,157785.796875,178077.515625,175693.125,685923.1875,131107.734375,0.071533203125,1.009521484375,-0.07373046875,-2.105712652206421,-0.1525878757238388,1.1291502714157104,86.66667175292969,90822.0,1.0
18:13:53.824609,135268.109375,143761.328125,160834.125,157789.375,178090.578125,175709.671875,686049.1875,131110.0625,0.073974609375,1.009521484375,-0.0732421875,-2.166747808456421,-0.2441406100988388,1.2207030057907104,86.66667175292969,90823.0,1.0
18:13:53.824633,135260.875,143754.09375,160838.421875,157785.078125,178102.28125,175722.453125,685854.0,131110.515625,0.074462890625,1.008544921875,-0.072509765625,-2.166747808456421,-0.2441406100988388,1.1901854276657104,86.66667175292969,90824.0,1.0
18:13:53.826507,135234.40625,143718.421875,160814.015625,157777.578125,178073.5,175691.15625,685892.125,131107.109375,0.0732421875,1.008544921875,-0.073974609375,-2.075195074081421,-0.2746581733226776,1.2207030057907104,86.66667175292969,90825.0,1.0
18:13:53.828996,135228.59375,143717.515625,160802.921875,157766.75,178059.640625,175677.203125,685918.625,131096.109375,0.07177734375,1.00927734375,-0.0732421875,-2.075195074081421,-0.3662109076976776,1.1901854276657104,86.66667175292969,90826.0,1.0
18:13:53.831527,135240.40625,143734.859375,160805.4375,157765.234375,178062.765625,175681.59375,686039.6875,131092.625,0.06982421875,1.009765625,-0.070556640625,-2.136230230331421,-0.4272460639476776,1.2512205839157104,86.66667175292969,90827.0,1.0
18:13:53.833950,135242.546875,143736.390625,160817.953125,157770.78125,178082.34375,175702.25,685870.9375,131098.4375,0.072509765625,1.009033203125,-0.069580078125,-2.197265386581421,-0.4577636420726776,1.2512205839157104,86.66667175292969,90828.0,1.0
18:13:53.836605,135226.453125,143709.921875,160807.84375,157774.359375,178068.40625,175685.875,685869.375,131103.53125,0.0751953125,1.009033203125,-0.070068359375,-2.197265386581421,-0.3967284858226776,1.2207030057907104,86.66667175292969,90829.0,1.0
18:13:53.839017,135229.3125,143716.453125,160805.515625,157773.8125,178063.390625,175681.5,685919.25,131103.53125,0.073974609375,1.009033203125,-0.0732421875,-2.166747808456421,-0.3356933295726776,1.1901854276657104,86.66667175292969,90830.0,1.0
18:13:53.841524,135248.4375,143743.453125,160813.484375,157775.78125,178068.578125,175691.78125,686038.9375,131100.140625,0.07763671875,1.00634765625,-0.072509765625,-2.197265386581421,-0.3051757514476776,1.1901854276657104,86.66667175292969,90831.0,1.0
18:13:53.843995,135256.21875,143751.578125,160829.484375,157784.640625,178090.578125,175713.6875,685920.5625,131107.921875,0.078125,1.007568359375,-0.07373046875,-2.197265386581421,-0.1525878757238388,1.1291502714157104,86.66667175292969,90832.0,1.0
18:13:53.847074,135237.53125,143723.953125,160818.484375,157783.03125,178077.703125,175697.140625,685847.6875,131110.15625,0.077880859375,1.00732421875,-0.073486328125,-2.136230230331421,-0.2136230319738388,1.2207030057907104,86.66667175292969,90833.0,1.0
18:13:53.847098,135233.96875,143721.984375,160811.515625,157776.953125,178067.953125,175686.15625,685875.9375,131108.8125,0.077880859375,1.007080078125,-0.0732421875,-2.075195074081421,-0.1220703050494194,1.1291502714157104,86.66667175292969,90834.0,1.0
18:13:53.892799,135256.21875,143755.96875,160824.109375,157783.828125,178077.96875,175700.1875,685989.0,131111.3125,0.08056640625,1.00830078125,-0.0732421875,-2.044677495956421,-0.1220703050494194,1.1596678495407104,86.66667175292969,90835.0,1.0
18:13:53.895304,135266.5,143765.53125,160838.875,157789.46875,178098.171875,175719.953125,685955.6875,131111.671875,0.080810546875,1.006591796875,-0.07275390625,-2.075195074081421,-0.1220703050494194,1.1291502714157104,86.66667175292969,90836.0,1.0
18:13:53.898351,135254.25,143744.171875,160836.09375,157791.609375,178096.390625,175713.78125,685827.875,131116.859375,0.08154296875,1.00634765625,-0.06982421875,-2.136230230331421,0.0610351525247097,1.1596678495407104,86.66667175292969,90837.0,1.0
18:13:53.898390,135245.140625,143732.09375,160823.765625,157783.390625,178078.0625,175694.375,685909.25,131108.359375,0.08203125,1.007568359375,-0.071533203125,-2.044677495956421,0.2136230319738388,1.0986326932907104,86.66667175292969,90838.0,1.0
18:13:53.901175,135261.859375,143756.234375,160830.375,157787.234375,178082.25,175700.015625,685979.375,131108.28125,0.081787109375,1.0068359375,-0.07373046875,-2.105712652206421,0.3051757514476776,1.0375975370407104,86.66667175292969,90839.0,1.0
18:13:53.901258,135276.515625,143775.015625,160847.28125,157797.59375,178103.71875,175722.625,686004.75,131120.078125,0.081787109375,1.0078125,-0.07275390625,-1.9531248807907104,0.3967284858226776,1.0375975370407104,86.66667175292969,90840.0,1.0
18:13:53.908420,135262.390625,143753.828125,160845.484375,157800.109375,178104.609375,175719.59375,685825.75,131124.28125,0.081787109375,1.0087890625,-0.072998046875,-1.9531248807907104,0.4577636420726776,0.9460448622703552,86.66667175292969,90841.0,1.0
18:13:53.908530,135242.640625,143728.96875,160824.203125,157781.421875,178080.375,175694.203125,685901.5,131111.046875,0.082275390625,1.00732421875,-0.07373046875,-1.9226073026657104,0.5187987685203552,0.8544921278953552,86.66667175292969,90842.0,1.0
18:13:53.908562,135257.65625,143754.171875,160829.65625,157786.25,178083.859375,175698.84375,685949.0625,131111.671875,0.0810546875,1.00634765625,-0.07373046875,-1.8920897245407104,0.5798339247703552,0.7324218153953552,86.66667175292969,90843.0,1.0
18:13:53.908587,135270.171875,143772.59375,160840.296875,157790.0,178097.28125,175712.53125,686034.1875,131113.734375,0.080322265625,1.006103515625,-0.074462890625,-1.8615721464157104,0.6408690810203552,0.7934569716453552,86.66667175292969,90844.0,1.0
18:13:53.911534,135269.90625,143766.515625,160852.1875,157801.453125,178112.390625,175726.390625,685838.75,131126.875,0.079345703125,1.00537109375,-0.072998046875,-1.8005369901657104,0.6408690810203552,0.6713866591453552,86.66667175292969,90845.0,1.0
18:13:53.911615,135249.15625,143735.671875,160830.28125,157790.984375,178083.859375,175698.75,685900.0625,131119.71875,0.07763671875,1.005615234375,-0.07177734375,-1.8005369901657104,0.6713866591453552,0.6408690810203552,86.66667175292969,90846.0,1.0
18:13:53.911646,135260.78125,143759.546875,160835.109375,157791.796875,178086.109375,175706.0,685910.0625,131119.8125,0.078369140625,1.005859375,-0.071533203125,-1.8005369901657104,0.7019042372703552,0.6408690810203552,86.66667175292969,90847.0,1.0
18:13:53.913968,135275.796875,143776.984375,160843.421875,157795.015625,178095.40625,175714.9375,686047.125,131122.140625,0.0771484375,1.00537109375,-0.071533203125,-1.7700194120407104,0.7629393935203552,0.4577636420726776,86.66667175292969,90848.0,1.0
18:13:53.916563,135272.234375,143770.265625,160851.390625,157795.8125,178109.265625,175728.53125,685852.875,131121.953125,0.07470703125,1.005615234375,-0.072021484375,-1.6174315214157104,0.7629393935203552,0.4272460639476776,86.66667175292969,90849.0,1.0
18:13:53.919590,135252.921875,143741.03125,160835.46875,157794.375,178088.515625,175703.40625,685884.75,131124.1875,0.073974609375,1.0048828125,-0.0703125,-1.5563963651657104,0.6713866591453552,0.3356933295726776,86.66667175292969,90850.0,1.0
18:13:53.919626,135262.390625,143756.0625,160839.234375,157798.765625,178088.96875,175705.109375,685897.125,131129.015625,0.073486328125,1.0087890625,-0.06982421875,-1.4648436307907104,0.5798339247703552,0.2746581733226776,86.66667175292969,90851.0,1.0
18:13:53.921582,135278.390625,143778.59375,160845.3125,157798.046875,178093.875,175714.9375,686052.9375,131124.90625,0.0712890625,1.00732421875,-0.070068359375,-1.4648436307907104,0.6408690810203552,0.2441406100988388,86.66667175292969,90852.0,1.0
18:13:53.924033,135276.515625,143776.890625,160853.625,157796.078125,178109.078125,175731.75,685898.0625,131122.140625,0.072509765625,1.0078125,-0.0703125,-1.4648436307907104,0.6408690810203552,0.3051757514476776,86.66667175292969,90853.0,1.0
18:13:53.926767,135253.625,143742.46875,160834.578125,157791.703125,178088.0625,175705.8125,685866.375,131120.796875,0.07275390625,1.007080078125,-0.072998046875,-1.4648436307907104,0.5798339247703552,0.3051757514476776,86.66667175292969,90854.0,1.0
18:13:53.928990,135256.765625,143751.140625,160831.53125,157788.75,178081.71875,175703.859375,685888.0,131116.953125,0.072021484375,1.006103515625,-0.0732421875,-1.3732908964157104,0.5493163466453552,0.2136230319738388,86.66667175292969,90855.0,1.0
18:13:53.931520,135275.625,143777.953125,160839.234375,157793.671875,178087.171875,175712.96875,686034.1875,131116.046875,0.071044921875,1.00634765625,-0.071533203125,-1.3122557401657104,0.3356933295726776,0.2136230319738388,86.66667175292969,90856.0,1.0
18:13:53.936000,135270.171875,143771.875,160841.546875,157788.65625,178095.578125,175722.0,685931.625,131110.515625,0.070068359375,1.008056640625,-0.071044921875,-1.3732908964157104,0.3051757514476776,0.1831054538488388,86.66667175292969,90857.0,1.0
18:13:53.936036,135257.203125,143747.296875,160834.9375,157793.21875,178087.078125,175710.375,685857.875,131119.546875,0.06884765625,1.010009765625,-0.0732421875,-1.2817381620407104,0.0915527269244194,0.3051757514476776,86.66667175292969,90858.0,1.0
18:13:53.945237,135254.96875,143745.6875,160829.125,157789.828125,178078.0625,175700.71875,685903.0,131114.4375,0.06982421875,1.0078125,-0.072021484375,-1.2512205839157104,0.0610351525247097,0.0915527269244194,86.66667175292969,90859.0,1.0
18:13:53.949577,135272.5,143774.5625,160835.921875,157790.625,178082.890625,175710.296875,686009.3125,131108.1875,0.069580078125,1.007080078125,-0.071533203125,-1.2512205839157104,-0.03051757626235485,0.2136230319738388,86.66667175292969,90860.0,1.0
18:13:53.949610,135274.375,143780.28125,160841.28125,157782.140625,178095.84375,175724.78125,685974.0625,131103.890625,0.06884765625,1.00830078125,-0.072998046875,-1.3427733182907104,-0.0915527269244194,0.3051757514476776,86.66667175292969,90861.0,1.0
18:13:53.956021,135262.21875,143752.84375,160838.328125,157786.609375,178092.984375,175712.34375,685846.875,131118.5625,0.068115234375,1.009033203125,-0.07080078125,-1.3732908964157104,-0.2136230319738388,0.3967284858226776,86.66667175292969,90862.0,1.0
18:13:53.956049,135249.25,143735.671875,160822.953125,157781.328125,178072.0625,175690.625,685906.75,131108.453125,0.0693359375,1.00927734375,-0.07080078125,-1.3732908964157104,-0.2441406100988388,0.4272460639476776,86.66667175292969,90863.0,1.0
18:13:53.961537,135263.640625,143760.796875,160828.671875,157782.84375,178075.46875,175698.75,685977.5625,131104.078125,0.0703125,1.008056640625,-0.069091796875,-1.4038084745407104,-0.4272460639476776,0.4272460639476776,86.66667175292969,90864.0,1.0
18:13:53.968414,135277.40625,143776.796875,160843.25,157792.421875,178094.953125,175719.046875,686020.0625,131112.484375,0.071044921875,1.009033203125,-0.070556640625,-1.3732908964157104,-0.5493163466453552,0.4272460639476776,86.66667175292969,90865.0,1.0
18:13:53.968434,135263.015625,143753.28125,160839.40625,157789.734375,178094.5,175714.21875,685841.5,131114.984375,0.07177734375,1.010009765625,-0.072021484375,-1.4648436307907104,-0.6408690810203552,0.5187987685203552,86.66667175292969,90866.0,1.0
18:13:53.978541,135249.15625,143732.71875,160824.46875,157787.953125,178075.109375,175691.96875,685914.375,131117.03125,0.0732421875,1.0087890625,-0.0732421875,-1.3122557401657104,-0.6408690810203552,0.5187987685203552,86.66667175292969,90867.0,1.0
18:13:53.978573,135267.9375,143763.828125,160834.9375,157790.265625,178083.234375,175705.1875,685946.375,131118.296875,0.07275390625,1.0078125,-0.07568359375,-1.2817381620407104,-0.7324218153953552,0.6103515028953552,86.66667175292969,90868.0,1.0
18:13:53.980857,135280.453125,143782.4375,160844.953125,157791.96875,178094.5,175718.875,686046.5,131114.984375,0.076416015625,1.007568359375,-0.076171875,-1.3732908964157104,-0.8239745497703552,0.7019042372703552,86.66667175292969,90869.0,1.0
18:13:53.980880,135270.796875,143767.140625,160847.09375,157794.5625,178101.65625,175724.328125,685848.5,131120.25,0.074462890625,1.008056640625,-0.072998046875,-1.4343260526657104,-0.7324218153953552,0.7324218153953552,86.66667175292969,90870.0,1.0
18:13:53.988994,135247.375,143733.171875,160824.296875,157784.453125,178074.84375,175694.90625,685915.8125,131115.421875,0.076904296875,1.00830078125,-0.07421875,-1.3122557401657104,-0.7324218153953552,0.7019042372703552,86.66667175292969,90871.0,1.0
18:13:53.992749,135261.953125,143754.984375,160831.8125,157788.578125,178080.109375,175702.0625,685932.625,131118.375,0.07763671875,1.00927734375,-0.0712890625,-1.2817381620407104,-0.6408690810203552,0.7629393935203552,86.66667175292969,90872.0,1.0
18:13:53.999614,135275.265625,143776.53125,160838.59375,157785.53125,178087.71875,175712.96875,686068.75,131112.484375,0.078857421875,1.007568359375,-0.071533203125,-1.3732908964157104,-0.6408690810203552,0.7019042372703552,86.66667175292969,90873.0,1.0
18:13:53.999632,135265.609375,143764.1875,160841.46875,157783.203125,178096.390625,175719.234375,685871.1875,131113.1875,0.079345703125,1.007080078125,-0.0712890625,-1.2817381620407104,-0.5493163466453552,0.8239745497703552,86.66667175292969,90874.0,1.0
18:13:54.005242,135239.765625,143727.890625,160817.953125,157772.296875,178067.5,175689.71875,685906.9375,131102.46875,0.078857421875,1.009521484375,-0.073974609375,-1.3122557401657104,-0.5493163466453552,0.8850097060203552,86.66667175292969,90875.0,1.0
18:13:54.012104,135247.375,143742.46875,160819.5625,157770.78125,178065.984375,175690.265625,685919.875,131097.90625,0.079833984375,1.007568359375,-0.073974609375,-1.2512205839157104,-0.4577636420726776,0.7324218153953552,86.66667175292969,90876.0,1.0
18:13:54.012121,135269.546875,143769.375,160830.90625,157777.3125,178076.171875,175702.78125,686070.4375,131098.703125,0.079833984375,1.00927734375,-0.0751953125,-1.3427733182907104,-0.3967284858226776,0.6408690810203552,86.66667175292969,90877.0,1.0
18:13:54.021503,135275.53125,143774.46875,160847.0,157784.8125,178099.953125,175726.828125,685921.0,131110.6875,0.082763671875,1.00927734375,-0.072998046875,-1.2817381620407104,-0.2746581733226776,0.7629393935203552,86.66667175292969,90878.0,1.0
18:13:54.026858,135255.0625,143745.328125,160831.984375,157782.3125,178082.53125,175707.34375,685904.4375,131113.1875,0.0810546875,1.009033203125,-0.077392578125,-1.3122557401657104,-0.2136230319738388,0.6713866591453552,86.66667175292969,90879.0,1.0
18:13:54.026874,135251.21875,143745.140625,160822.421875,157776.328125,178069.46875,175696.34375,685923.5625,131099.96875,0.08056640625,1.0078125,-0.076171875,-1.2817381620407104,-0.1525878757238388,0.6713866591453552,86.66667175292969,90880.0,1.0
18:13:54.026878,135266.6875,143768.03125,160828.046875,157778.640625,178073.140625,175700.90625,686054.9375,131097.09375,0.079833984375,1.005859375,-0.073974609375,-1.3122557401657104,-0.0915527269244194,0.6713866591453552,86.66667175292969,90881.0,1.0
18:13:54.029117,135280.1875,143782.34375,160850.046875,157788.390625,178101.75,175728.96875,685970.625,131107.921875,0.08056640625,1.005615234375,-0.074462890625,-1.2512205839157104,0.0,0.6408690810203552,86.66667175292969,90882.0,1.0
18:13:54.037755,135265.34375,143758.296875,160842.53125,157787.765625,178093.4375,175719.671875,685892.0,131109.4375,0.081298828125,1.0068359375,-0.074462890625,-1.2512205839157104,0.0610351525247097,0.4882812201976776,86.66667175292969,90883.0,1.0
18:13:54.044582,135255.234375,143747.734375,160829.125,157783.390625,178076.796875,175703.765625,685932.875,131106.9375,0.080322265625,1.00732421875,-0.075439453125,-1.1901854276657104,0.0915527269244194,0.5493163466453552,86.66667175292969,90884.0,1.0
18:13:54.044603,135274.015625,143774.828125,160838.15625,157790.1875,178083.234375,175709.578125,686042.1875,131112.75,0.078857421875,1.00830078125,-0.076171875,-1.3732908964157104,0.2441406100988388,0.5798339247703552,86.66667175292969,90885.0,1.0
18:13:54.050224,135282.953125,143787.34375,160851.5625,157790.1875,178102.1875,175729.328125,686035.25,131117.03125,0.079345703125,1.007568359375,-0.0751953125,-1.2817381620407104,0.3662109076976776,0.5493163466453552,86.66667175292969,90886.0,1.0
18:13:54.054680,135265.171875,143760.171875,160843.78125,157788.03125,178095.84375,175719.046875,685891.375,131119.09375,0.0791015625,1.009765625,-0.075439453125,-1.3427733182907104,0.5187987685203552,0.4272460639476776,86.66667175292969,90887.0,1.0
18:13:54.054710,135242.015625,143731.921875,160818.578125,157772.828125,178067.0625,175686.859375,685940.75,131105.59375,0.078369140625,1.008544921875,-0.0732421875,-1.3732908964157104,0.4882812201976776,0.5187987685203552,86.66667175292969,90888.0,1.0
18:13:54.060223,135257.03125,143755.96875,160824.921875,157775.078125,178071.265625,175691.609375,686017.375,131102.546875,0.077880859375,1.0068359375,-0.071533203125,-1.2817381620407104,0.5187987685203552,0.4577636420726776,86.66667175292969,90889.0,1.0
18:13:54.069604,135269.546875,143768.9375,160837.890625,157777.84375,178087.4375,175707.515625,686068.4375,131104.875,0.079345703125,1.006591796875,-0.0703125,-1.2817381620407104,0.6103515028953552,0.4272460639476776,86.66667175292969,90890.0,1.0
18:13:54.069627,135267.046875,143761.421875,160846.015625,157787.40625,178098.625,175718.6875,685884.6875,131117.03125,0.077392578125,1.007080078125,-0.07470703125,-1.3732908964157104,0.5798339247703552,0.3967284858226776,86.66667175292969,90891.0,1.0
18:13:54.071559,135251.75,143738.71875,160830.109375,157785.703125,178079.125,175695.8125,685949.5625,131121.421875,0.074462890625,1.00732421875,-0.073486328125,-1.3427733182907104,0.6408690810203552,0.3051757514476776,86.66667175292969,90892.0,1.0
18:13:54.078973,135271.328125,143767.046875,160841.015625,157792.421875,178088.15625,175706.796875,686014.6875,131122.3125,0.07373046875,1.0078125,-0.074462890625,-1.3122557401657104,0.6713866591453552,0.2746581733226776,86.66667175292969,90893.0,1.0
18:13:54.083287,135294.3125,143795.03125,160860.5,157800.90625,178109.96875,175730.765625,686128.25,131124.546875,0.07373046875,1.0078125,-0.07373046875,-1.4343260526657104,0.7019042372703552,0.3051757514476776,86.66667175292969,90894.0,1.0
18:13:54.083299,135279.296875,143777.328125,160857.640625,157796.265625,178112.65625,175731.75,685921.6875,131121.859375,0.07470703125,1.008056640625,-0.0712890625,-1.4038084745407104,0.6103515028953552,0.3662109076976776,86.66667175292969,90895.0,1.0
18:13:54.090325,135246.125,143731.5625,160823.765625,157779.90625,178072.78125,175687.140625,685962.8125,131108.546875,0.0732421875,1.0087890625,-0.072509765625,-1.3732908964157104,0.5798339247703552,0.2746581733226776,86.66667175292969,90896.0,1.0
18:13:54.098372,135252.015625,143746.671875,160822.5,157773.90625,178068.75,175688.5625,685982.0625,131101.296875,0.074462890625,1.008056640625,-0.073486328125,-1.3122557401657104,0.6408690810203552,0.3356933295726776,86.66667175292969,90897.0,1.0
18:13:54.098393,135267.9375,143767.5,160831.625,157777.9375,178078.328125,175700.453125,686120.1875,131104.96875,0.07177734375,1.0087890625,-0.070556640625,-1.3427733182907104,0.5493163466453552,0.2136230319738388,86.66667175292969,90898.0,1.0
18:13:54.100816,135265.078125,143764.453125,160839.5,157777.9375,178093.171875,175717.171875,685929.9375,131105.59375,0.069580078125,1.0078125,-0.07275390625,-1.3732908964157104,0.4882812201976776,0.2136230319738388,86.66667175292969,90899.0,1.0
18:13:54.100843,135241.734375,143731.109375,160818.578125,157771.578125,178067.0625,175690.796875,685936.4375,131099.15625,0.071533203125,1.0087890625,-0.074462890625,-1.3732908964157104,0.4272460639476776,0.1220703050494194,86.66667175292969,90900.0,1.0
18:13:54.112776,135238.4375,143728.703125,160809.1875,157767.828125,178054.546875,175675.15625,685948.1875,131092.984375,0.070556640625,1.007568359375,-0.076416015625,-1.4343260526657104,0.3967284858226776,0.2441406100988388,86.66667175292969,90901.0,1.0
18:13:54.116007,135258.8125,143755.609375,160820.890625,157776.328125,178064.375,175687.765625,686099.6875,131099.96875,0.069580078125,1.010009765625,-0.07373046875,-1.3122557401657104,0.2746581733226776,0.3051757514476776,86.66667175292969,90902.0,1.0
18:13:54.116030,135259.890625,143757.75,160831.890625,157777.21875,178082.890625,175707.875,685955.125,131099.875,0.0703125,1.009521484375,-0.07421875,-1.3427733182907104,0.2441406100988388,0.3051757514476776,86.66667175292969,90903.0,1.0
18:13:54.117754,135242.453125,143728.96875,160818.65625,157776.328125,178067.234375,175688.828125,685914.0,131101.125,0.067626953125,1.005615234375,-0.074951171875,-1.2207030057907104,0.1831054538488388,0.3356933295726776,86.66667175292969,90904.0,1.0
18:13:54.125284,135240.046875,143728.703125,160812.140625,157773.8125,178058.828125,175679.796875,685946.0,131098.0,0.06884765625,1.00634765625,-0.0732421875,-1.2207030057907104,0.0915527269244194,0.3967284858226776,86.66667175292969,90905.0,1.0
18:13:54.130509,135261.046875,143758.65625,160824.46875,157784.015625,178068.40625,175690.890625,686086.125,131100.5,0.068359375,1.0048828125,-0.07275390625,-1.2207030057907104,0.0610351525247097,0.5493163466453552,86.66667175292969,90906.0,1.0
18:13:54.130523,135262.390625,143764.453125,160832.515625,157773.46875,178082.53125,175708.765625,686003.3125,131090.9375,0.06982421875,1.0048828125,-0.075927734375,-1.1291502714157104,-0.0610351525247097,0.6103515028953552,86.66667175292969,90907.0,1.0
18:13:54.139721,135246.390625,143739.15625,160823.765625,157775.703125,178073.9375,175697.0625,685907.5625,131102.46875,0.068603515625,1.00341796875,-0.072509765625,-1.0986326932907104,-0.1220703050494194,0.6713866591453552,86.66667175292969,90908.0,1.0
18:13:54.143566,135233.0625,143724.671875,160806.5,157765.0625,178053.921875,175678.46875,685945.9375,131095.765625,0.068359375,1.005859375,-0.071533203125,-1.0070799589157104,-0.2441406100988388,0.6713866591453552,86.66667175292969,90909.0,1.0
18:13:54.143583,135251.21875,143754.53125,160815.09375,157770.953125,178061.0625,175689.09375,686045.0625,131095.765625,0.069091796875,1.007568359375,-0.072998046875,-1.0375975370407104,-0.3662109076976776,0.7324218153953552,86.66667175292969,90910.0,1.0
18:13:54.145260,135262.84375,143767.765625,160828.859375,157775.25,178080.640625,175710.015625,686033.25,131098.703125,0.068115234375,1.009765625,-0.0732421875,-0.8850097060203552,-0.4577636420726776,0.6408690810203552,86.66667175292969,90911.0,1.0
18:13:54.155247,135253.453125,143748.8125,160830.546875,157781.859375,178083.859375,175707.78125,685890.6875,131110.78125,0.06884765625,1.011962890625,-0.07421875,-1.0375975370407104,-0.5187987685203552,0.7934569716453552,86.66667175292969,90912.0,1.0
18:13:54.164585,135234.59375,143725.125,160808.828125,157772.03125,178057.765625,175681.328125,685940.75,131105.953125,0.0693359375,1.0107421875,-0.0732421875,-1.1901854276657104,-0.6103515028953552,0.8544921278953552,86.66667175292969,90913.0,1.0
18:13:54.164663,135241.921875,143742.46875,160807.125,157765.859375,178054.984375,175679.53125,685993.75,131096.46875,0.069091796875,1.007568359375,-0.071044921875,-1.0986326932907104,-0.8544921278953552,0.7629393935203552,86.66667175292969,90914.0,1.0
18:13:54.165340,135258.734375,143763.125,160823.578125,157773.1875,178075.28125,175699.828125,686063.875,131102.46875,0.072509765625,1.006591796875,-0.071044921875,-1.1291502714157104,-0.7019042372703552,0.8544921278953552,86.66667175292969,90915.0,1.0
18:13:54.167787,135251.65625,143748.8125,160827.96875,157780.609375,178082.703125,175705.8125,685869.375,131111.21875,0.076904296875,1.005615234375,-0.072265625,-1.1291502714157104,-0.7324218153953552,0.7934569716453552,86.66667175292969,90916.0,1.0
18:13:54.179590,135224.84375,143712.25,160800.515625,157766.75,178048.90625,175670.59375,685911.125,131101.125,0.0810546875,1.008056640625,-0.074951171875,-1.1901854276657104,-0.7324218153953552,0.8239745497703552,86.66667175292969,90917.0,1.0
18:13:54.179613,135233.78125,143731.46875,160801.046875,157764.515625,178046.765625,175672.03125,685933.3125,131095.3125,0.082275390625,1.0068359375,-0.07666015625,-1.1596678495407104,-0.6103515028953552,1.0375975370407104,86.66667175292969,90918.0,1.0
18:13:54.182038,135250.046875,143756.0625,160813.203125,157767.921875,178059.640625,175688.46875,686048.625,131096.5625,0.08544921875,1.00732421875,-0.080322265625,-0.9765624403953552,-0.5493163466453552,1.2512205839157104,86.66667175292969,90919.0,1.0
18:13:54.182046,135239.765625,143743.984375,160815.796875,157762.90625,178068.578125,175695.71875,685847.5625,131094.234375,0.08642578125,1.00830078125,-0.080322265625,-0.9155272841453552,-0.3662109076976776,1.3427733182907104,86.66667175292969,90920.0,1.0
18:13:54.197375,135228.328125,143720.109375,160805.25,157766.3125,178053.640625,175676.765625,685894.4375,131105.421875,0.086181640625,1.005859375,-0.07958984375,-0.8544921278953552,-0.1525878757238388,1.2817381620407104,86.66667175292969,90921.0,1.0
18:13:54.197413,135242.015625,143740.046875,160812.578125,157770.78125,178057.484375,175682.484375,685915.5,131105.765625,0.08251953125,1.0068359375,-0.080322265625,-0.8239745497703552,-0.03051757626235485,1.1596678495407104,86.66667175292969,90922.0,1.0
18:13:54.205295,135252.734375,143760.703125,160817.140625,157767.375,178061.96875,175691.328125,686052.9375,131100.5,0.080810546875,1.00732421875,-0.076904296875,-0.7934569716453552,0.0610351525247097,1.0986326932907104,86.66667175292969,90923.0,1.0
18:13:54.206534,135250.046875,143756.40625,160826.0,157765.953125,178078.0625,175706.09375,685878.625,131097.90625,0.077880859375,1.0087890625,-0.077392578125,-0.8544921278953552,0.0915527269244194,0.8850097060203552,86.66667175292969,90924.0,1.0
18:13:54.215592,135224.3125,143717.703125,160804.359375,157758.4375,178052.03125,175674.265625,685882.375,131090.390625,0.077392578125,1.01171875,-0.073486328125,-0.8544921278953552,0.1525878757238388,0.6103515028953552,86.66667175292969,90925.0,1.0
18:13:54.215611,135226.265625,143723.875,160800.609375,157758.4375,178046.5,175668.265625,685885.3125,131089.5,0.07666015625,1.013916015625,-0.07470703125,-0.9765624403953552,0.3356933295726776,0.3967284858226776,86.66667175292969,90926.0,1.0
18:13:54.246571,135243.265625,143749.078125,160808.5625,157760.140625,178051.859375,175677.65625,686028.4375,131086.640625,0.074462890625,1.011962890625,-0.076904296875,-1.0986326932907104,0.3356933295726776,0.2136230319738388,86.66667175292969,90927.0,1.0
18:13:54.269155,135248.890625,143752.65625,160823.140625,157767.375,178071.796875,175697.859375,685892.75,131091.828125,0.078857421875,1.01220703125,-0.077880859375,-1.1596678495407104,0.2746581733226776,0.0,86.66667175292969,90928.0,1.0
18:13:54.269246,135232.359375,143721.984375,160812.140625,157770.0625,178059.015625,175677.484375,685841.3125,131098.078125,0.07861328125,1.010009765625,-0.076416015625,-1.1901854276657104,0.4272460639476776,-0.2746581733226776,86.66667175292969,90929.0,1.0
18:13:54.270269,135226.359375,143718.6875,160801.046875,157762.28125,178046.21875,175664.875,685921.0,131090.125,0.077392578125,1.009033203125,-0.076416015625,-1.2207030057907104,0.3967284858226776,-0.4272460639476776,86.66667175292969,90930.0,1.0
18:13:54.272768,135244.875,143748.015625,160809.984375,157766.125,178053.921875,175675.328125,686022.875,131088.15625,0.077392578125,1.010009765625,-0.07421875,-1.2512205839157104,0.3967284858226776,-0.5493163466453552,86.66667175292969,90931.0,1.0
18:13:54.276186,135257.390625,143762.5,160828.671875,157773.28125,178078.328125,175702.421875,685952.6875,131095.671875,0.07666015625,1.01025390625,-0.076416015625,-1.2207030057907104,0.4577636420726776,-0.7019042372703552,86.66667175292969,90932.0,1.0
18:13:54.276228,135244.421875,143740.765625,160823.484375,157778.015625,178071.265625,175694.90625,685849.125,131105.765625,0.076171875,1.01220703125,-0.07666015625,-1.3122557401657104,0.4577636420726776,-0.7629393935203552,86.66667175292969,90933.0,1.0
18:13:54.280350,135229.484375,143724.140625,160805.609375,157770.515625,178049.53125,175672.5625,685904.1875,131100.671875,0.07568359375,1.011474609375,-0.07470703125,-1.3122557401657104,0.4272460639476776,-0.7934569716453552,86.66667175292969,90934.0,1.0
18:13:54.282872,135244.328125,143748.453125,160809.984375,157771.21875,178052.484375,175677.65625,685983.9375,131096.65625,0.076171875,1.01171875,-0.07421875,-1.4038084745407104,0.4272460639476776,-0.7324218153953552,86.66667175292969,90935.0,1.0
18:13:54.285336,135249.34375,143758.828125,160820.546875,157766.9375,178067.78125,175694.015625,685985.25,131092.1875,0.074462890625,1.01123046875,-0.075439453125,-1.4648436307907104,0.4882812201976776,-0.5798339247703552,86.66667175292969,90936.0,1.0
18:13:54.287711,135241.375,143743.625,160823.9375,157777.03125,178073.140625,175696.34375,685819.75,131108.90625,0.073486328125,1.011962890625,-0.073974609375,-1.4953612089157104,0.5187987685203552,-0.4577636420726776,86.66667175292969,90937.0,1.0
18:13:54.290311,135228.6875,143723.875,160808.03125,157770.78125,178053.375,175675.328125,685907.8125,131108.71875,0.07177734375,1.011474609375,-0.07177734375,-1.4953612089157104,0.5187987685203552,-0.3356933295726776,86.66667175292969,90938.0,1.0
18:13:54.292920,135237.53125,143742.734375,160807.3125,157766.75,178050.25,175676.859375,685961.1875,131095.9375,0.070556640625,1.010009765625,-0.071044921875,-1.5563963651657104,0.5187987685203552,-0.2136230319738388,86.66667175292969,90939.0,1.0
18:13:54.295325,135249.609375,143757.125,160816.875,157766.21875,178062.5,175689.1875,686019.75,131094.6875,0.06640625,1.01220703125,-0.072021484375,-1.5869139432907104,0.4577636420726776,-0.2136230319738388,86.66667175292969,90940.0,1.0
18:13:54.297928,135248.890625,143751.765625,160828.3125,157775.96875,178076.796875,175704.296875,685826.1875,131107.65625,0.0654296875,1.01025390625,-0.07275390625,-1.6784666776657104,0.3662109076976776,-0.0915527269244194,86.66667175292969,90941.0,1.0
18:13:54.300319,135228.953125,143723.421875,160807.046875,157767.828125,178051.59375,175676.859375,685912.5625,131102.203125,0.06298828125,1.011474609375,-0.075439453125,-1.7700194120407104,0.2441406100988388,0.0915527269244194,86.66667175292969,90942.0,1.0
18:13:54.302792,135236.734375,143736.296875,160805.875,157764.703125,178047.125,175671.75,685937.4375,131093.34375,0.06201171875,1.008056640625,-0.073974609375,-1.7700194120407104,0.1220703050494194,0.1831054538488388,86.66667175292969,90943.0,1.0
18:13:54.305860,135249.421875,143753.109375,160814.109375,157764.515625,178056.59375,175681.953125,686025.3125,131090.65625,0.060791015625,1.009765625,-0.072998046875,-1.8615721464157104,-0.1831054538488388,0.2441406100988388,86.66667175292969,90944.0,1.0
18:13:54.305906,135257.03125,143757.671875,160834.75,157781.0625,178083.15625,175705.90625,685825.25,131110.0625,0.06103515625,1.009033203125,-0.0712890625,-1.9531248807907104,-0.2441406100988388,0.3356933295726776,86.66667175292969,90945.0,1.0
18:13:54.308401,135233.421875,143723.875,160811.515625,157770.78125,178055.4375,175675.328125,685887.375,131100.59375,0.06005859375,1.0107421875,-0.0703125,-2.014159917831421,-0.5493163466453552,0.4272460639476776,86.66667175292969,90946.0,1.0
18:13:54.308436,135241.296875,143738.71875,160812.21875,157769.4375,178053.828125,175676.5,685933.125,131094.59375,0.06201171875,1.010009765625,-0.073486328125,-2.044677495956421,-0.6713866591453552,0.3967284858226776,86.66667175292969,90947.0,1.0
18:13:54.310317,135260.34375,143764.015625,160823.40625,157775.421875,178065.09375,175689.71875,686039.25,131096.65625,0.061279296875,1.00830078125,-0.07275390625,-2.105712652206421,-0.7934569716453552,0.4882812201976776,86.66667175292969,90948.0,1.0
18:13:54.315955,135257.75,143762.046875,160833.59375,157777.75,178081.8125,175706.796875,685856.4375,131099.96875,0.06103515625,1.008056640625,-0.07177734375,-2.166747808456421,-0.9460448622703552,0.4577636420726776,86.66667175292969,90949.0,1.0
18:13:54.315982,135236.203125,143730.75,160816.34375,157775.78125,178060.359375,175683.203125,685871.6875,131104.4375,0.06103515625,1.00830078125,-0.07177734375,-2.197265386581421,-1.0681151151657104,0.4272460639476776,86.66667175292969,90950.0,1.0
18:13:54.318077,135231.90625,143731.109375,160806.6875,157766.484375,178049.796875,175673.28125,685930.0,131098.625,0.0634765625,1.009765625,-0.0703125,-2.166747808456421,-1.2817381620407104,0.3662109076976776,86.66667175292969,90951.0,1.0
18:13:54.320830,135247.1875,143753.828125,160812.40625,157766.484375,178054.90625,175681.5,686029.5,131089.234375,0.064208984375,1.009765625,-0.070068359375,-2.197265386581421,-1.2207030057907104,0.4577636420726776,86.66667175292969,90952.0,1.0
18:13:54.320846,135251.03125,143758.375,160826.265625,157768.8125,178076.625,175702.515625,685891.75,131093.4375,0.06787109375,1.00927734375,-0.072021484375,-2.227782964706421,-1.4038084745407104,0.3662109076976776,86.66667175292969,90953.0,1.0
18:13:54.322803,135228.859375,143721.640625,160810.4375,157766.3125,178058.828125,175677.484375,685846.5,131096.921875,0.07080078125,1.0068359375,-0.0732421875,-2.166747808456421,-1.4038084745407104,0.3356933295726776,86.66667175292969,90954.0,1.0
18:13:54.325789,135224.75,143718.6875,160802.296875,157765.140625,178047.390625,175665.59375,685928.0625,131097.1875,0.072998046875,1.005859375,-0.072265625,-2.258300542831421,-1.4648436307907104,0.3662109076976776,86.66667175292969,90955.0,1.0
18:13:54.325810,135245.5,143749.796875,160813.03125,157769.53125,178056.78125,175678.734375,686014.5,131097.375,0.074462890625,1.00439453125,-0.0712890625,-2.197265386581421,-1.4953612089157104,0.3662109076976776,86.66667175292969,90956.0,1.0
18:13:54.334193,135256.765625,143763.203125,160831.359375,157779.453125,178081.453125,175703.046875,685940.1875,131109.890625,0.076171875,1.004638671875,-0.070556640625,-2.105712652206421,-1.4038084745407104,0.3967284858226776,86.66667175292969,90957.0,1.0
18:13:54.340894,135247.640625,143745.5,160830.734375,157786.609375,178080.640625,175700.453125,685825.875,131117.9375,0.076904296875,1.00341796875,-0.07421875,-2.044677495956421,-1.2512205839157104,0.4272460639476776,86.66667175292969,90958.0,1.0
18:13:54.340935,135235.921875,143728.34375,160814.46875,157776.234375,178061.15625,175676.859375,685921.8125,131108.90625,0.07861328125,1.00244140625,-0.073486328125,-1.9226073026657104,-1.1596678495407104,0.4882812201976776,86.66667175292969,90959.0,1.0
18:13:54.347905,135252.46875,143756.5,160820.71875,157774.984375,178064.828125,175684.8125,685986.9375,131102.015625,0.082275390625,1.002197265625,-0.0732421875,-1.8005369901657104,-1.0375975370407104,0.6103515028953552,86.66667175292969,90960.0,1.0
18:13:54.354688,135266.234375,143773.84375,160837.4375,157780.34375,178085.65625,175708.40625,685980.0,131107.65625,0.083251953125,1.001708984375,-0.07568359375,-1.5869139432907104,-0.8850097060203552,0.7324218153953552,86.66667175292969,90961.0,1.0
18:13:54.354756,135255.0625,143755.78125,160837.796875,157785.359375,178087.625,175707.96875,685810.5,131117.484375,0.0830078125,1.002685546875,-0.072265625,-1.5258787870407104,-0.7324218153953552,0.7324218153953552,86.66667175292969,90962.0,1.0
18:13:54.357112,135231.71875,143727.359375,160812.9375,157773.734375,178058.296875,175674.609375,685914.375,131109.609375,0.082275390625,1.001953125,-0.07470703125,-1.3427733182907104,-0.6713866591453552,1.0070799589157104,86.66667175292969,90963.0,1.0
18:13:54.357132,135244.875,143751.140625,160816.609375,157774.796875,178060.0,175678.546875,685952.875,131106.484375,0.081787109375,1.0029296875,-0.0751953125,-1.2817381620407104,-0.4577636420726776,0.9460448622703552,86.66667175292969,90964.0,1.0
18:13:54.373875,135256.40625,143765.265625,160825.546875,157775.515625,178071.96875,175691.0625,686020.5625,131106.484375,0.082763671875,1.0029296875,-0.076904296875,-1.0986326932907104,-0.2746581733226776,0.9765624403953552,86.66667175292969,90965.0,1.0
18:13:54.373902,135251.84375,143756.6875,160833.59375,157781.421875,178083.859375,175701.96875,685821.75,131108.09375,0.081787109375,1.00390625,-0.07470703125,-1.0986326932907104,-0.1220703050494194,0.9765624403953552,86.66667175292969,90966.0,1.0
18:13:54.373909,135238.15625,143733.4375,160819.109375,157779.90625,178061.515625,175679.09375,685899.875,131105.765625,0.082275390625,1.00390625,-0.072265625,-0.9765624403953552,0.03051757626235485,0.9765624403953552,86.66667175292969,90967.0,1.0
18:13:54.373915,135249.15625,143749.96875,160821.703125,157780.4375,178061.875,175678.375,685925.5625,131104.515625,0.08251953125,1.00390625,-0.07421875,-0.9155272841453552,0.1220703050494194,0.9460448622703552,86.66667175292969,90968.0,1.0
18:13:54.385378,135257.65625,143764.734375,160825.28125,157774.0,178066.796875,175685.703125,686032.8125,131098.53125,0.080322265625,1.0048828125,-0.07177734375,-0.8850097060203552,0.3051757514476776,0.8850097060203552,86.66667175292969,90969.0,1.0
18:13:54.389632,135262.578125,143762.9375,160841.46875,157791.609375,178087.359375,175703.140625,685837.5,131114.796875,0.078369140625,1.005859375,-0.072265625,-0.7934569716453552,0.4272460639476776,0.8239745497703552,86.66667175292969,90970.0,1.0
18:13:54.389651,135237.53125,143730.125,160817.5,157775.25,178059.28125,175675.953125,685878.75,131101.03125,0.078369140625,1.006591796875,-0.076171875,-0.7324218153953552,0.5798339247703552,0.7629393935203552,86.66667175292969,90971.0,1.0
18:13:54.391569,135237.359375,143737.109375,160811.953125,157765.859375,178051.6875,175669.703125,685902.0,131089.765625,0.078125,1.0078125,-0.075439453125,-0.6713866591453552,0.6103515028953552,0.7019042372703552,86.66667175292969,90972.0,1.0
18:13:54.400875,135254.34375,143759.28125,160821.34375,157774.265625,178061.421875,175679.4375,686035.75,131094.78125,0.076416015625,1.0087890625,-0.074462890625,-0.6713866591453552,0.8544921278953552,0.5493163466453552,86.66667175292969,90973.0,1.0
18:13:54.407112,135254.078125,143756.765625,160831.625,157775.875,178078.40625,175695.265625,685863.5,131100.59375,0.07470703125,1.01171875,-0.07568359375,-0.6713866591453552,0.9765624403953552,0.6103515028953552,86.66667175292969,90974.0,1.0
18:13:54.407538,135240.84375,143733.796875,160822.234375,157781.953125,178065.1875,175678.8125,685876.5625,131110.6875,0.07568359375,1.011474609375,-0.073974609375,-0.7324218153953552,1.0070799589157104,0.4577636420726776,86.66667175292969,90975.0,1.0
18:13:54.425487,135235.578125,143733.171875,160812.21875,157770.875,178052.125,175667.109375,685914.375,131098.890625,0.076416015625,1.0107421875,-0.073486328125,-0.7324218153953552,0.9765624403953552,0.4577636420726776,86.66667175292969,90976.0,1.0
18:13:54.425516,135254.34375,143759.625,160821.171875,157775.96875,178058.5625,175677.125,686050.25,131097.71875,0.0732421875,1.010009765625,-0.074951171875,-0.7934569716453552,0.9155272841453552,0.3967284858226776,86.66667175292969,90977.0,1.0
18:13:54.425523,135257.65625,143764.109375,160833.421875,157779.453125,178076.625,175695.8125,685938.0625,131102.203125,0.07373046875,1.0107421875,-0.07568359375,-0.8850097060203552,0.9765624403953552,0.3356933295726776,86.66667175292969,90978.0,1.0
18:13:54.425528,135229.671875,143725.84375,160812.046875,157770.0625,178053.46875,175670.0625,685868.4375,131100.765625,0.07373046875,1.0107421875,-0.07470703125,-0.9460448622703552,1.0681151151657104,0.2746581733226776,86.66667175292969,90979.0,1.0
18:13:54.454598,135221.4375,143718.328125,160799.4375,157764.078125,178037.734375,175654.234375,685904.875,131096.828125,0.073974609375,1.0068359375,-0.073974609375,-1.0070799589157104,1.1291502714157104,0.3662109076976776,86.66667175292969,90980.0,1.0
18:13:54.454628,135245.859375,143751.234375,160813.75,157775.96875,178049.4375,175668.09375,686029.25,131099.421875,0.076171875,1.006591796875,-0.078369140625,-1.0070799589157104,1.0986326932907104,0.3356933295726776,86.66667175292969,90981.0,1.0
18:13:54.469620,135259.625,143767.859375,160832.078125,157783.828125,178074.03125,175694.203125,685991.6875,131108.359375,0.075439453125,1.005615234375,-0.079345703125,-1.0375975370407104,0.9765624403953552,0.2746581733226776,86.66667175292969,90982.0,1.0
18:13:54.469646,135241.296875,143742.015625,160821.609375,157777.21875,178063.75,175682.390625,685856.5,131104.34375,0.0751953125,1.006591796875,-0.081298828125,-0.9460448622703552,1.0375975370407104,0.3662109076976776,86.66667175292969,90983.0,1.0
18:13:54.471744,135233.25,143730.75,160811.515625,157774.09375,178048.46875,175665.59375,685912.8125,131102.375,0.076904296875,1.00634765625,-0.07763671875,-0.8544921278953552,0.9155272841453552,0.4882812201976776,86.66667175292969,90984.0,1.0
18:13:54.474011,135254.53125,143758.109375,160824.296875,157783.125,178056.859375,175674.078125,686005.5625,131106.3125,0.07373046875,1.00830078125,-0.07763671875,-0.9155272841453552,1.0070799589157104,0.6713866591453552,86.66667175292969,90985.0,1.0
18:13:54.476729,135265.078125,143773.671875,160836.71875,157788.125,178074.65625,175694.203125,686034.375,131109.703125,0.071044921875,1.008544921875,-0.079345703125,-0.9460448622703552,1.0070799589157104,0.7019042372703552,86.66667175292969,90986.0,1.0
18:13:54.479298,135254.609375,143756.6875,160837.4375,157788.21875,178079.578125,175696.078125,685867.625,131111.140625,0.0703125,1.009521484375,-0.07763671875,-1.0681151151657104,0.9460448622703552,0.4882812201976776,86.66667175292969,90987.0,1.0
18:13:54.485332,135239.59375,143735.578125,160820.265625,157779.90625,178058.75,175675.15625,685939.9375,131106.21875,0.0703125,1.00732421875,-0.077880859375,-1.0681151151657104,0.8239745497703552,0.3967284858226776,86.66667175292969,90988.0,1.0
18:13:54.487741,135250.6875,143754.796875,160821.4375,157779.546875,178057.84375,175677.296875,685992.5625,131102.46875,0.069091796875,1.00830078125,-0.074951171875,-1.0681151151657104,0.7324218153953552,0.5187987685203552,86.66667175292969,90989.0,1.0
18:13:54.490265,135263.375,143769.015625,160832.796875,157785.359375,178072.515625,175691.515625,686079.4375,131106.21875,0.06884765625,1.00927734375,-0.076171875,-1.1291502714157104,0.7324218153953552,0.4882812201976776,86.66667175292969,90990.0,1.0
18:13:54.492785,135253.453125,143755.078125,160836.453125,157782.578125,178080.921875,175698.84375,685874.6875,131108.453125,0.06787109375,1.01171875,-0.076416015625,-1.1901854276657104,0.7019042372703552,0.4272460639476776,86.66667175292969,90991.0,1.0
18:13:54.495234,135231.09375,143725.484375,160813.390625,157771.40625,178053.375,175669.609375,685925.25,131102.46875,0.0673828125,1.0126953125,-0.076416015625,-1.3122557401657104,0.5187987685203552,0.4882812201976776,86.66667175292969,90992.0,1.0
18:13:54.497737,135249.875,143752.390625,160825.015625,157781.234375,178063.921875,175681.40625,685975.0,131113.375,0.065185546875,1.010986328125,-0.07568359375,-1.4343260526657104,0.3356933295726776,0.4577636420726776,86.66667175292969,90993.0,1.0
18:13:54.500798,135262.296875,143770.453125,160832.34375,157781.234375,178073.140625,175691.328125,686108.625,131111.671875,0.0634765625,1.01025390625,-0.076171875,-1.6174315214157104,0.1220703050494194,0.3356933295726776,86.66667175292969,90994.0,1.0
18:13:54.500815,135256.140625,143764.640625,160840.296875,157783.5625,178087.171875,175706.171875,685909.8125,131115.078125,0.06298828125,1.01318359375,-0.07470703125,-1.6174315214157104,0.0,0.3051757514476776,86.66667175292969,90995.0,1.0
18:13:54.502733,135231.71875,143727.796875,160815.53125,157771.9375,178057.484375,175673.546875,685939.1875,131100.859375,0.063232421875,1.013671875,-0.072265625,-1.7089842557907104,-0.1525878757238388,0.1525878757238388,86.66667175292969,90996.0,1.0
18:13:54.505370,135236.015625,143737.28125,160813.390625,157771.140625,178053.203125,175670.5,685956.5,131099.0625,0.064208984375,1.013671875,-0.074951171875,-1.7700194120407104,-0.2136230319738388,0.0915527269244194,86.66667175292969,90997.0,1.0
18:13:54.508312,135249.421875,143757.21875,160818.03125,157772.203125,178056.953125,175676.859375,686106.3125,131096.296875,0.066650390625,1.013427734375,-0.07373046875,-1.8920897245407104,-0.3662109076976776,0.0610351525247097,86.66667175292969,90998.0,1.0
18:13:54.508326,135243.53125,143751.765625,160823.140625,157768.09375,178068.578125,175689.71875,685933.875,131094.421875,0.069091796875,1.013427734375,-0.07373046875,-1.9531248807907104,-0.4882812201976776,0.0,86.66667175292969,90999.0,1.0
18:13:54.510307,135222.15625,143718.0625,160805.875,157766.484375,178046.40625,175663.265625,685903.4375,131096.46875,0.06982421875,1.0107421875,-0.077392578125,-2.014159917831421,-0.5187987685203552,0.0915527269244194,86.66667175292969,91000.0,1.0
18:13:54.513523,135222.78125,143720.734375,160800.25,157763.0,178038.1875,175653.78125,685933.5625,131093.96875,0.0693359375,1.01025390625,-0.075439453125,-2.105712652206421,-0.7324218153953552,0.1831054538488388,86.66667175292969,91001.0,1.0
18:13:54.513535,135244.515625,143746.40625,160812.40625,157770.25,178048.015625,175661.296875,686081.75,131098.265625,0.06884765625,1.0087890625,-0.077392578125,-2.075195074081421,-0.7324218153953552,0.2746581733226776,86.66667175292969,91002.0,1.0
18:13:54.520227,135250.234375,143754.453125,160827.25,157771.40625,178069.46875,175684.625,685968.25,131098.890625,0.069580078125,1.00927734375,-0.0791015625,-2.166747808456421,-0.7019042372703552,0.3051757514476776,86.66667175292969,91003.0,1.0
18:13:54.524565,135235.84375,143731.46875,160819.640625,157773.546875,178060.796875,175674.53125,685890.6875,131105.765625,0.06787109375,1.0078125,-0.0771484375,-2.319335699081421,-0.7629393935203552,0.3662109076976776,86.66667175292969,91004.0,1.0
18:13:54.524577,135233.515625,143729.40625,160812.671875,157775.15625,178050.34375,175665.59375,685935.9375,131108.28125,0.0693359375,1.00927734375,-0.075439453125,-2.319335699081421,-0.8850097060203552,0.4882812201976776,86.66667175292969,91005.0,1.0
18:13:54.534598,135254.875,143762.765625,160825.09375,157783.75,178058.296875,175678.375,686056.5,131108.546875,0.070556640625,1.0087890625,-0.074462890625,-2.319335699081421,-0.7934569716453552,0.5798339247703552,86.66667175292969,91006.0,1.0
18:13:54.534613,135251.21875,143763.125,160826.359375,157771.578125,178064.640625,175687.578125,686010.8125,131096.03125,0.07080078125,1.010498046875,-0.07666015625,-2.227782964706421,-0.8850097060203552,0.6408690810203552,86.66667175292969,91007.0,1.0
18:13:54.537116,135243.34375,143746.671875,160827.6875,157777.578125,178067.859375,175688.5625,685872.6875,131106.484375,0.07177734375,1.011474609375,-0.075439453125,-2.349853277206421,-0.9460448622703552,0.7324218153953552,86.66667175292969,91008.0,1.0
18:13:54.537126,135234.59375,143731.734375,160816.078125,157776.328125,178051.765625,175669.34375,685923.1875,131108.71875,0.07177734375,1.009765625,-0.07470703125,-2.410888433456421,-0.8544921278953552,0.8239745497703552,86.66667175292969,91009.0,1.0
18:13:54.542796,135249.34375,143753.28125,160820.546875,157777.21875,178054.359375,175671.9375,686005.4375,131102.546875,0.072509765625,1.009765625,-0.07666015625,-2.471923589706421,-0.9155272841453552,0.9460448622703552,86.66667175292969,91010.0,1.0
18:13:54.551652,135263.203125,143771.4375,160835.65625,157782.578125,178074.65625,175693.484375,686044.25,131102.828125,0.072998046875,1.009521484375,-0.07568359375,-2.502441167831421,-0.8239745497703552,1.0986326932907104,86.66667175292969,91011.0,1.0
18:13:54.558390,135250.234375,143751.40625,160834.3125,157782.671875,178077.25,175694.28125,685859.8125,131108.90625,0.07373046875,1.010009765625,-0.07666015625,-2.532958745956421,-0.7019042372703552,1.1596678495407104,86.66667175292969,91012.0,1.0
18:13:54.558416,135227.4375,143718.328125,160809.984375,157770.59375,178049.359375,175662.71875,685920.8125,131101.296875,0.07568359375,1.010498046875,-0.072021484375,-2.563476324081421,-0.7629393935203552,1.0681151151657104,86.66667175292969,91013.0,1.0
18:13:54.561073,135241.734375,143742.375,160815.4375,157772.921875,178053.828125,175670.0625,685963.5625,131100.765625,0.077392578125,1.01123046875,-0.0673828125,-2.593993902206421,-0.7324218153953552,1.0070799589157104,86.66667175292969,91014.0,1.0
18:13:54.561087,135251.484375,143759.546875,160823.3125,157769.609375,178063.578125,175683.46875,686062.625,131098.265625,0.077392578125,1.01220703125,-0.0712890625,-2.655029058456421,-0.7019042372703552,1.1291502714157104,86.66667175292969,91015.0,1.0
18:13:54.566522,135244.0625,143746.578125,160826.984375,157772.5625,178070.8125,175689.375,685864.375,131104.96875,0.07861328125,1.00927734375,-0.07421875,-2.807616949081421,-0.6408690810203552,0.9765624403953552,86.66667175292969,91016.0,1.0
18:13:54.579046,135234.9375,143725.296875,160817.5,157780.171875,178055.609375,175670.234375,685921.875,131117.125,0.0771484375,1.008544921875,-0.071044921875,-2.868652105331421,-0.4272460639476776,0.9460448622703552,86.66667175292969,91017.0,1.0
18:13:54.610352,135244.875,143744.4375,160821.4375,157778.734375,178057.046875,175671.21875,685945.1875,131112.921875,0.076904296875,1.00927734375,-0.07275390625,-2.777099370956421,-0.3967284858226776,0.9460448622703552,86.66667175292969,91018.0,1.0
18:13:54.610445,135256.671875,143764.015625,160827.15625,157777.65625,178061.515625,175679.4375,686078.4375,131103.984375,0.078369140625,1.007568359375,-0.06982421875,-2.838134527206421,-0.3662109076976776,0.9460448622703552,86.66667175292969,91019.0,1.0
18:13:54.610478,135254.53125,143757.21875,160835.65625,157780.609375,178074.75,175691.78125,685887.625,131108.8125,0.07958984375,1.00830078125,-0.06884765625,-2.716064214706421,-0.1831054538488388,0.8239745497703552,86.66667175292969,91020.0,1.0
18:13:54.634773,135226.890625,143719.578125,160809.28125,157767.734375,178043.984375,175660.046875,685907.375,131100.859375,0.080322265625,1.008056640625,-0.067138671875,-2.807616949081421,-0.1220703050494194,0.7934569716453552,86.66667175292969,91021.0,1.0
18:13:54.634854,135226.453125,143723.515625,160802.65625,157761.5625,178034.421875,175651.546875,685915.0625,131092.8125,0.080078125,1.007568359375,-0.067138671875,-2.685546636581421,-0.0915527269244194,0.8239745497703552,86.66667175292969,91022.0,1.0
18:13:54.638437,135246.75,143748.453125,160813.75,157767.65625,178044.34375,175661.828125,686065.3125,131094.953125,0.079833984375,1.0078125,-0.068359375,-2.655029058456421,0.03051757626235485,0.7629393935203552,86.66667175292969,91023.0,1.0
18:13:54.638530,135250.40625,143752.65625,160827.875,157771.578125,178065.09375,175683.734375,685918.75,131103.1875,0.0810546875,1.0068359375,-0.06982421875,-2.624511480331421,0.0610351525247097,0.7934569716453552,86.66667175292969,91024.0,1.0
18:13:54.638557,135226.8125,143717.875,160808.109375,157767.921875,178041.484375,175658.171875,685877.375,131103.453125,0.081787109375,1.006591796875,-0.07080078125,-2.563476324081421,0.2136230319738388,0.7934569716453552,86.66667175292969,91025.0,1.0
18:13:54.638582,135219.921875,143714.84375,160796.3125,157756.203125,178026.28125,175645.109375,685897.5625,131083.875,0.081787109375,1.00439453125,-0.07275390625,-2.441406011581421,0.3356933295726776,0.7019042372703552,86.66667175292969,91026.0,1.0
18:13:54.641275,135245.40625,143748.09375,160811.328125,157766.484375,178039.515625,175658.796875,686046.5,131088.609375,0.081298828125,1.005126953125,-0.071533203125,-2.319335699081421,0.3051757514476776,0.6103515028953552,86.66667175292969,91027.0,1.0
18:13:54.641350,135260.15625,143764.90625,160833.140625,157777.65625,178067.953125,175688.65625,685957.875,131102.109375,0.08203125,1.004150390625,-0.07080078125,-2.288818120956421,0.3662109076976776,0.6103515028953552,86.66667175292969,91028.0,1.0
18:13:54.643705,135235.03125,143729.59375,160816.34375,157769.890625,178050.078125,175666.921875,685873.6875,131102.109375,0.081298828125,1.00146484375,-0.068359375,-2.227782964706421,0.4577636420726776,0.5187987685203552,86.66667175292969,91029.0,1.0
18:13:54.643786,135220.109375,143713.765625,160797.03125,157755.84375,178028.4375,175646.1875,685911.5,131087.09375,0.079345703125,1.00146484375,-0.0693359375,-2.105712652206421,0.5493163466453552,0.4272460639476776,86.66667175292969,91030.0,1.0
18:13:54.645271,135245.40625,143748.1875,160812.578125,157768.640625,178042.46875,175662.71875,686029.25,131093.078125,0.076904296875,1.001708984375,-0.06787109375,-1.9531248807907104,0.7019042372703552,0.4272460639476776,86.66667175292969,91031.0,1.0
18:13:54.648034,135255.859375,143762.765625,160828.140625,157771.21875,178065.09375,175687.484375,686020.5,131097.640625,0.075439453125,1.002685546875,-0.069580078125,-1.8310545682907104,0.6408690810203552,0.4577636420726776,86.66667175292969,91032.0,1.0
18:13:54.650283,135233.25,143730.390625,160815.890625,157766.3125,178054.8125,175672.109375,685865.8125,131098.171875,0.07470703125,1.00244140625,-0.066162109375,-1.7089842557907104,0.7629393935203552,0.2441406100988388,86.66667175292969,91033.0,1.0
18:13:54.652794,135218.578125,143711.796875,160799.171875,157757.09375,178033.890625,175649.765625,685916.5,131092.8125,0.074462890625,1.003662109375,-0.069091796875,-1.6479490995407104,0.8239745497703552,0.2441406100988388,86.66667175292969,91034.0,1.0
18:13:54.655274,135239.0625,143740.765625,160809.546875,157770.515625,178042.375,175661.390625,685995.125,131101.578125,0.07275390625,1.001708984375,-0.066650390625,-1.5869139432907104,0.7324218153953552,0.2441406100988388,86.66667175292969,91035.0,1.0
18:13:54.657807,135259.625,143766.34375,160831.0,157785.359375,178068.21875,175690.0,686044.5625,131115.25,0.070556640625,1.001953125,-0.0654296875,-1.4953612089157104,0.8239745497703552,0.2441406100988388,86.66667175292969,91036.0,1.0
18:13:54.660296,135245.578125,143745.859375,160830.109375,157777.3125,178069.734375,175689.015625,685858.125,131108.09375,0.07080078125,1.003662109375,-0.06591796875,-1.4038084745407104,0.7934569716453552,0.1831054538488388,86.66667175292969,91037.0,1.0
18:13:54.663407,135222.34375,143715.640625,160806.59375,157765.140625,178041.671875,175657.09375,685914.1875,131101.390625,0.06982421875,1.00537109375,-0.067138671875,-1.2817381620407104,0.7934569716453552,0.2746581733226776,86.66667175292969,91038.0,1.0
18:13:54.663436,135232.359375,143734.421875,160806.421875,157764.515625,178039.96875,175656.015625,685945.375,131099.875,0.06787109375,1.006591796875,-0.06494140625,-1.2512205839157104,0.5798339247703552,0.3051757514476776,86.66667175292969,91039.0,1.0
18:13:54.665455,135246.75,143754.171875,160817.328125,157768.28125,178052.484375,175671.21875,686055.375,131104.875,0.067626953125,1.006591796875,-0.068603515625,-1.1901854276657104,0.5798339247703552,0.2746581733226776,86.66667175292969,91040.0,1.0
18:13:54.672850,135236.90625,143742.109375,160820.1875,157765.859375,178058.203125,175677.5625,685859.125,131099.421875,0.067626953125,1.007568359375,-0.06787109375,-1.2207030057907104,0.4272460639476776,0.2136230319738388,86.66667175292969,91041.0,1.0
18:13:54.691605,135215.8125,143709.46875,160798.90625,157760.234375,178030.484375,175648.15625,685921.8125,131093.703125,0.064453125,1.008056640625,-0.067626953125,-1.2817381620407104,0.2746581733226776,0.1831054538488388,86.66667175292969,91042.0,1.0
18:13:54.691641,135226.1875,143724.140625,160802.5625,157761.125,178032.375,175648.78125,685924.75,131092.8125,0.063232421875,1.008056640625,-0.067626953125,-1.2512205839157104,0.1220703050494194,0.2136230319738388,86.66667175292969,91043.0,1.0
18:13:54.691649,135241.734375,143746.578125,160811.78125,157759.609375,178041.75,175661.65625,686063.0625,131088.421875,0.06396484375,1.009521484375,-0.06787109375,-1.1596678495407104,0.0610351525247097,0.1525878757238388,86.66667175292969,91044.0,1.0
18:13:54.696586,135238.96875,143741.296875,160820.09375,157761.125,178055.875,175675.875,685871.4375,131092.984375,0.06494140625,1.009521484375,-0.06884765625,-1.1901854276657104,-0.0610351525247097,0.2441406100988388,86.66667175292969,91045.0,1.0
18:13:54.699576,135219.921875,143711.890625,160802.296875,157757.375,178033.359375,175651.28125,685881.3125,131092.1875,0.063720703125,1.008056640625,-0.071044921875,-1.1901854276657104,-0.1525878757238388,0.3356933295726776,86.66667175292969,91046.0,1.0
18:13:54.699596,135224.21875,143722.171875,160801.40625,157756.5625,178029.78125,175648.234375,685894.25,131090.125,0.0654296875,1.00830078125,-0.068603515625,-1.1291502714157104,-0.2441406100988388,0.3051757514476776,86.66667175292969,91047.0,1.0
18:13:54.701596,135246.484375,143749.890625,160814.8125,157766.046875,178041.3125,175660.578125,686046.9375,131092.625,0.065185546875,1.00927734375,-0.067138671875,-1.0681151151657104,-0.3662109076976776,0.3356933295726776,86.66667175292969,91048.0,1.0
18:13:54.704113,135261.40625,143764.8125,160837.890625,157776.765625,178071.4375,175693.03125,685907.125,131104.25,0.066650390625,1.00830078125,-0.066650390625,-1.1291502714157104,-0.5798339247703552,0.4272460639476776,86.66667175292969,91049.0,1.0
18:13:54.707109,135234.765625,143726.90625,160815.09375,157770.515625,178046.9375,175663.171875,685872.0625,131101.296875,0.067138671875,1.00927734375,-0.06787109375,-1.0986326932907104,-0.5798339247703552,0.4272460639476776,86.66667175292969,91050.0,1.0
18:13:54.707145,135221.890625,143716.890625,160798.375,157757.28125,178027.625,175643.953125,685899.6875,131089.5,0.066650390625,1.010009765625,-0.070556640625,-1.1596678495407104,-0.7324218153953552,0.3967284858226776,86.66667175292969,91051.0,1.0
18:13:54.716556,135239.328125,143743.890625,160805.78125,157761.125,178034.0625,175653.515625,686018.5,131094.859375,0.068115234375,1.0078125,-0.06982421875,-1.1596678495407104,-0.7629393935203552,0.4882812201976776,86.66667175292969,91052.0,1.0
18:13:54.720923,135245.5,143753.109375,160819.109375,157763.0,178055.609375,175676.859375,685931.375,131104.703125,0.067138671875,1.01025390625,-0.070068359375,-1.1596678495407104,-0.7934569716453552,0.5493163466453552,86.66667175292969,91053.0,1.0
18:13:54.720945,135229.21875,143724.765625,160811.15625,157764.703125,178047.921875,175663.625,685838.1875,131104.078125,0.0693359375,1.0087890625,-0.070068359375,-1.1291502714157104,-0.9155272841453552,0.5798339247703552,86.66667175292969,91054.0,1.0
18:13:54.728421,135213.3125,143705.8125,160791.21875,157751.015625,178026.203125,175639.921875,685919.375,131089.140625,0.0693359375,1.01025390625,-0.0732421875,-1.1291502714157104,-0.9765624403953552,0.5798339247703552,86.66667175292969,91055.0,1.0
18:13:54.728451,135238.703125,143743.09375,160806.859375,157761.65625,178039.609375,175657.265625,686008.9375,131094.15625,0.070556640625,1.009765625,-0.070556640625,-1.1291502714157104,-1.0070799589157104,0.6713866591453552,86.66667175292969,91056.0,1.0
18:13:54.734625,135253.625,143764.109375,160826.890625,157771.21875,178063.296875,175684.265625,685980.375,131102.015625,0.072509765625,1.01025390625,-0.068603515625,-1.1291502714157104,-0.9765624403953552,0.7934569716453552,86.66667175292969,91057.0,1.0
18:13:54.734647,135237.8125,143736.828125,160820.359375,157771.671875,178057.40625,175672.5625,685816.75,131105.328125,0.0751953125,1.01171875,-0.07177734375,-1.0986326932907104,-1.0375975370407104,0.8850097060203552,86.66667175292969,91058.0,1.0
18:13:54.736567,135228.421875,143719.125,160808.65625,157771.046875,178039.609375,175651.640625,685887.0625,131106.3125,0.07470703125,1.010986328125,-0.069091796875,-1.2512205839157104,-0.9765624403953552,0.9460448622703552,86.66667175292969,91059.0,1.0
18:13:54.746538,135248.0,143749.796875,160819.5625,157775.609375,178046.671875,175662.375,685951.625,131105.765625,0.07666015625,1.009765625,-0.06982421875,-1.2817381620407104,-0.9155272841453552,0.8544921278953552,86.66667175292969,91060.0,1.0
18:13:54.749666,135260.0625,143766.609375,160831.625,157776.953125,178060.984375,175678.015625,686000.9375,131105.859375,0.0771484375,1.010009765625,-0.069580078125,-1.2817381620407104,-0.8544921278953552,0.9765624403953552,86.66667175292969,91061.0,1.0
18:13:54.749681,135250.40625,143751.046875,160831.890625,157776.859375,178064.5625,175681.953125,685805.3125,131109.609375,0.077392578125,1.009033203125,-0.072265625,-1.3427733182907104,-0.6713866591453552,0.9765624403953552,86.66667175292969,91062.0,1.0
18:13:54.751603,135229.84375,143719.84375,160808.5625,157771.859375,178036.390625,175651.453125,685893.25,131105.5,0.077392578125,1.011474609375,-0.072265625,-1.3122557401657104,-0.6408690810203552,0.9155272841453552,86.66667175292969,91063.0,1.0
18:13:54.766517,135237.625,143738.171875,160807.671875,157764.34375,178033.4375,175652.359375,685946.0,131099.875,0.07861328125,1.01123046875,-0.071044921875,-1.3122557401657104,-0.4882812201976776,0.8850097060203552,86.66667175292969,91064.0,1.0
18:13:54.769623,135241.734375,143747.296875,160807.9375,157755.671875,178034.6875,175656.921875,686018.8125,131088.34375,0.08056640625,1.00927734375,-0.074462890625,-1.3122557401657104,-0.4577636420726776,0.9460448622703552,86.66667175292969,91065.0,1.0
18:13:54.769643,135236.640625,143739.0625,160815.265625,157760.234375,178047.125,175667.203125,685816.4375,131092.8125,0.080322265625,1.009033203125,-0.072998046875,-1.3122557401657104,-0.2441406100988388,0.9155272841453552,86.66667175292969,91066.0,1.0
18:13:54.771890,135223.328125,143716.453125,160801.59375,157763.453125,178029.78125,175647.890625,685883.6875,131099.15625,0.0810546875,1.008544921875,-0.072998046875,-1.3122557401657104,-0.1220703050494194,0.9460448622703552,86.66667175292969,91067.0,1.0
18:13:54.776527,135233.15625,143733.796875,160805.4375,157763.453125,178031.296875,175651.109375,685902.1875,131097.453125,0.078857421875,1.007568359375,-0.07275390625,-1.3122557401657104,-0.03051757626235485,1.0070799589157104,86.66667175292969,91068.0,1.0
18:13:54.784663,135246.03125,143752.296875,160811.875,157762.46875,178037.90625,175659.78125,686026.5625,131096.390625,0.0810546875,1.008544921875,-0.07373046875,-1.3122557401657104,0.1220703050494194,0.8850097060203552,86.66667175292969,91069.0,1.0
18:13:54.784696,135251.578125,143759.09375,160828.40625,157771.21875,178060.625,175685.25,685848.5,131100.234375,0.079833984375,1.007568359375,-0.07568359375,-1.2512205839157104,0.2441406100988388,0.8239745497703552,86.66667175292969,91070.0,1.0
18:13:54.792137,135227.96875,143724.671875,160806.859375,157761.125,178035.140625,175657.546875,685863.375,131091.734375,0.07861328125,1.00732421875,-0.07763671875,-1.2817381620407104,0.3051757514476776,0.8544921278953552,86.66667175292969,91071.0,1.0
18:13:54.792156,135222.609375,143722.4375,160796.484375,157752.0,178021.28125,175643.5,685948.1875,131079.9375,0.07861328125,1.007080078125,-0.073486328125,-1.3122557401657104,0.4577636420726776,0.8239745497703552,86.66667175292969,91072.0,1.0
18:13:54.794076,135247.8125,143755.25,160812.3125,157763.453125,178034.328125,175659.328125,686060.375,131086.8125,0.08056640625,1.008056640625,-0.07177734375,-1.3122557401657104,0.6408690810203552,0.8239745497703552,86.66667175292969,91073.0,1.0
18:13:54.800263,135244.515625,143754.625,160819.109375,157763.171875,178048.8125,175675.25,685908.4375,131088.25,0.080810546875,1.0068359375,-0.0712890625,-1.3122557401657104,0.7019042372703552,0.7934569716453552,86.66667175292969,91074.0,1.0
18:13:54.816689,135219.828125,143717.609375,160799.890625,157760.59375,178027.359375,175648.953125,685849.0,131092.0,0.078857421875,1.00634765625,-0.07275390625,-1.2207030057907104,0.7934569716453552,0.7629393935203552,86.66667175292969,91075.0,1.0
18:13:54.816724,135214.109375,143713.140625,160788.796875,157750.390625,178012.34375,175635.90625,685897.75,131086.640625,0.078125,1.0068359375,-0.07275390625,-1.1901854276657104,0.7934569716453552,0.8544921278953552,86.66667175292969,91076.0,1.0
18:13:54.816730,135234.40625,143743.359375,160797.921875,157750.03125,178020.65625,175647.96875,686023.25,131083.515625,0.078369140625,1.005615234375,-0.07177734375,-1.0986326932907104,0.9765624403953552,0.6713866591453552,86.66667175292969,91077.0,1.0
18:13:54.816736,135246.921875,143758.203125,160817.5,157763.625,178047.390625,175675.59375,685956.5625,131095.046875,0.076904296875,1.00537109375,-0.072021484375,-1.0681151151657104,1.0681151151657104,0.6103515028953552,86.66667175292969,91078.0,1.0
18:13:54.820250,135230.46875,143733.171875,160808.828125,157763.265625,178038.890625,175664.953125,685848.8125,131096.75,0.07666015625,1.005859375,-0.07373046875,-1.0375975370407104,1.0681151151657104,0.6713866591453552,86.66667175292969,91079.0,1.0
18:13:54.831030,135213.21875,143712.25,160787.640625,157749.59375,178015.375,175638.9375,685884.125,131086.109375,0.07568359375,1.005859375,-0.07373046875,-0.9765624403953552,1.1291502714157104,0.6408690810203552,86.66667175292969,91080.0,1.0
18:13:54.831049,135232.4375,143738.171875,160797.390625,157757.546875,178022.53125,175646.359375,685970.4375,131090.390625,0.074951171875,1.00537109375,-0.07421875,-0.9460448622703552,1.1291502714157104,0.7019042372703552,86.66667175292969,91081.0,1.0
18:13:54.835648,135242.71875,143751.3125,160811.953125,157758.171875,178041.578125,175665.5,685985.0,131094.15625,0.072509765625,1.0078125,-0.07373046875,-0.9460448622703552,1.0986326932907104,0.7019042372703552,86.66667175292969,91082.0,1.0
18:13:54.835667,135229.3125,143730.390625,160810.53125,157760.140625,178040.859375,175660.578125,685819.5625,131099.15625,0.0712890625,1.0068359375,-0.0751953125,-0.7934569716453552,1.0986326932907104,0.7324218153953552,86.66667175292969,91083.0,1.0
18:13:54.842745,135216.53125,143710.375,160793.453125,157751.46875,178019.9375,175637.328125,685876.75,131087.796875,0.0712890625,1.007568359375,-0.07421875,-0.8544921278953552,1.0070799589157104,0.7629393935203552,86.66667175292969,91084.0,1.0
18:13:54.845258,135232.078125,143733.609375,160800.609375,157753.4375,178024.40625,175643.40625,685932.0,131085.921875,0.0703125,1.0087890625,-0.07275390625,-0.7324218153953552,1.0070799589157104,0.8239745497703552,86.66667175292969,91085.0,1.0
18:13:54.855281,135245.859375,143754.171875,160814.8125,157758.890625,178040.421875,175662.71875,686013.3125,131089.5,0.06982421875,1.0078125,-0.073486328125,-0.7629393935203552,0.9460448622703552,0.7934569716453552,86.66667175292969,91086.0,1.0
18:13:54.859591,135245.578125,143749.34375,160826.53125,157772.5625,178054.71875,175674.53125,685824.0,131107.109375,0.06982421875,1.009521484375,-0.071533203125,-0.8544921278953552,0.8850097060203552,0.7629393935203552,86.66667175292969,91087.0,1.0
18:13:54.859604,135224.578125,143718.5,160804.0,157760.234375,178027.984375,175645.109375,685884.75,131096.5625,0.068359375,1.010498046875,-0.073486328125,-0.8544921278953552,0.7629393935203552,0.8239745497703552,86.66667175292969,91088.0,1.0
18:13:54.862041,135234.140625,143736.65625,160806.140625,157760.5,178028.171875,175644.84375,685906.6875,131095.046875,0.069580078125,1.0107421875,-0.071533203125,-0.9765624403953552,0.7324218153953552,0.9460448622703552,86.66667175292969,91089.0,1.0
18:13:54.862053,135253.265625,143761.6875,160820.71875,157766.75,178042.921875,175663.078125,686040.6875,131094.859375,0.06884765625,1.009033203125,-0.072021484375,-0.9765624403953552,0.5798339247703552,0.9155272841453552,86.66667175292969,91090.0,1.0
18:13:54.873950,135253.546875,143758.65625,160832.515625,157773.28125,178060.359375,175680.78125,685856.3125,131102.640625,0.068115234375,1.0087890625,-0.0712890625,-0.9765624403953552,0.5798339247703552,0.9765624403953552,86.66667175292969,91091.0,1.0
18:13:54.876087,135231.453125,143727.0,160811.6875,157766.75,178035.765625,175654.046875,685896.0625,131098.890625,0.06787109375,1.009521484375,-0.072265625,-1.0070799589157104,0.4272460639476776,0.9460448622703552,86.66667175292969,91092.0,1.0
18:13:54.876098,135237.265625,143738.359375,160810.890625,157763.625,178033.0,175652.0,685905.875,131094.234375,0.069091796875,1.011474609375,-0.074462890625,-1.0681151151657104,0.3662109076976776,0.9460448622703552,86.66667175292969,91093.0,1.0
18:13:54.885619,135249.875,143759.1875,160816.78125,157766.484375,178038.71875,175660.046875,686054.75,131093.703125,0.069091796875,1.010986328125,-0.075439453125,-1.1596678495407104,0.3051757514476776,0.9765624403953552,86.66667175292969,91094.0,1.0
18:13:54.890214,135241.5625,143750.515625,160819.296875,157760.5,178047.65625,175670.421875,685882.8125,131092.1875,0.070068359375,1.010986328125,-0.0732421875,-1.2817381620407104,0.1831054538488388,0.8850097060203552,86.66667175292969,91095.0,1.0
18:13:54.890232,135219.5625,143715.28125,160800.6875,157757.1875,178024.671875,175642.96875,685888.1875,131093.4375,0.0712890625,1.01220703125,-0.07421875,-1.3122557401657104,0.1220703050494194,0.7629393935203552,86.66667175292969,91096.0,1.0
18:13:54.890238,135219.5625,143719.75,160794.515625,157752.890625,178015.828125,175637.953125,685899.3125,131089.5,0.068359375,1.0107421875,-0.073974609375,-1.3427733182907104,0.03051757626235485,0.8544921278953552,86.66667175292969,91097.0,1.0
18:13:54.892797,135237.625,143746.125,160803.28125,157756.390625,178023.15625,175647.53125,686040.1875,131092.984375,0.070556640625,1.00927734375,-0.073486328125,-1.4038084745407104,0.0610351525247097,0.8544921278953552,86.66667175292969,91098.0,1.0
18:13:54.904020,135238.609375,143747.109375,160814.015625,157757.640625,178041.390625,175664.0625,685917.5625,131092.625,0.070556640625,1.010009765625,-0.072509765625,-1.2817381620407104,0.0,0.7934569716453552,86.66667175292969,91099.0,1.0
18:13:54.907071,135212.234375,143709.75,160792.734375,157748.15625,178018.328125,175638.140625,685840.625,131085.203125,0.07080078125,1.00927734375,-0.0732421875,-1.3427733182907104,-0.1220703050494194,0.8239745497703552,86.66667175292969,91100.0,1.0
18:13:54.907086,135204.28125,143701.421875,160780.21875,157743.234375,178002.421875,175620.890625,685892.4375,131082.703125,0.0732421875,1.01123046875,-0.074951171875,-1.4038084745407104,-0.1220703050494194,0.7934569716453552,86.66667175292969,91101.0,1.0
18:13:54.909400,135225.734375,143732.546875,160790.859375,157747.359375,178010.28125,175631.875,686003.75,131082.890625,0.072509765625,1.0087890625,-0.072998046875,-1.4038084745407104,-0.2441406100988388,0.7019042372703552,86.66667175292969,91102.0,1.0
18:13:54.921341,135239.421875,143748.546875,160810.078125,157754.859375,178034.6875,175658.171875,685949.875,131087.265625,0.072021484375,1.00927734375,-0.073974609375,-1.4343260526657104,-0.3051757514476776,0.7324218153953552,86.66667175292969,91103.0,1.0
18:13:54.923395,135227.53125,143725.484375,160807.125,157760.671875,178031.109375,175649.84375,685841.3125,131095.140625,0.07275390625,1.00732421875,-0.076171875,-1.4038084745407104,-0.3051757514476776,0.8850097060203552,86.66667175292969,91104.0,1.0
18:13:54.923406,135219.390625,143713.3125,160794.703125,157758.703125,178015.46875,175632.5,685891.0,131095.3125,0.07470703125,1.00634765625,-0.07421875,-1.3122557401657104,-0.4272460639476776,0.9460448622703552,86.66667175292969,91105.0,1.0
18:13:54.935934,135241.828125,143747.390625,160806.953125,157764.15625,178025.75,175646.625,685977.5625,131094.234375,0.07666015625,1.00634765625,-0.074462890625,-1.2817381620407104,-0.4577636420726776,0.9460448622703552,86.66667175292969,91106.0,1.0
18:13:54.937083,135257.203125,143768.65625,160824.46875,157770.421875,178048.734375,175674.609375,686006.1875,131100.3125,0.07666015625,1.00439453125,-0.072265625,-1.2207030057907104,-0.4882812201976776,0.9460448622703552,86.66667175292969,91107.0,1.0
18:13:54.937104,135240.9375,143743.890625,160819.734375,157770.0625,178045.78125,175668.09375,685830.125,131104.703125,0.076171875,1.00146484375,-0.072998046875,-1.2512205839157104,-0.4577636420726776,0.8850097060203552,86.66667175292969,91108.0,1.0
18:13:54.943331,135221.625,143716.0,160798.375,157762.015625,178018.953125,175638.40625,685883.25,131099.328125,0.073486328125,1.003662109375,-0.07421875,-1.2207030057907104,-0.5187987685203552,0.9155272841453552,86.66667175292969,91109.0,1.0
18:13:54.943350,135235.578125,143739.421875,160802.5625,157760.5,178021.28125,175643.234375,685924.8125,131093.875,0.07470703125,1.00634765625,-0.07421875,-1.1291502714157104,-0.4577636420726776,1.0070799589157104,86.66667175292969,91110.0,1.0
18:13:54.975279,135247.640625,143755.34375,160813.125,157761.296875,178036.03125,175659.0625,686010.5,131095.21875,0.07373046875,1.008544921875,-0.073486328125,-1.2512205839157104,-0.4577636420726776,0.9765624403953552,86.66667175292969,91111.0,1.0
18:13:54.997875,135243.34375,143743.09375,160820.890625,157773.375,178048.375,175666.484375,685818.6875,131108.546875,0.072998046875,1.009521484375,-0.07080078125,-1.3122557401657104,-0.4882812201976776,0.8850097060203552,86.66667175292969,91112.0,1.0
18:13:54.997918,135226.1875,143719.21875,160802.296875,157764.515625,178026.203125,175643.953125,685889.125,131107.65625,0.074462890625,1.006591796875,-0.07080078125,-1.3427733182907104,-0.3967284858226776,0.8850097060203552,86.66667175292969,91113.0,1.0
18:13:54.997928,135237.265625,143739.421875,160806.0625,157766.75,178026.734375,175647.34375,685924.9375,131103.359375,0.074462890625,1.00537109375,-0.07373046875,-1.3732908964157104,-0.4272460639476776,0.9155272841453552,86.66667175292969,91114.0,1.0
18:13:55.001489,135245.765625,143753.46875,160809.0,157760.671875,178029.78125,175654.953125,686047.9375,131088.875,0.07666015625,1.005615234375,-0.075927734375,-1.3427733182907104,-0.3662109076976776,0.8544921278953552,86.66667175292969,91115.0,1.0
18:13:55.001510,135253.625,143758.375,160827.25,157774.53125,178052.578125,175677.390625,685865.1875,131103.53125,0.080078125,1.0048828125,-0.076904296875,-1.4343260526657104,-0.4577636420726776,0.7934569716453552,86.66667175292969,91116.0,1.0
18:13:55.001514,135216.96875,143711.171875,160793.0,157755.578125,178012.78125,175635.015625,685888.25,131089.140625,0.0849609375,1.009033203125,-0.0771484375,-1.4953612089157104,-0.3356933295726776,0.8850097060203552,86.66667175292969,91117.0,1.0
18:13:55.007872,135220.734375,143722.53125,160789.78125,157750.9375,178007.328125,175633.125,685898.375,131082.609375,0.088134765625,1.0078125,-0.078125,-1.4648436307907104,-0.1831054538488388,1.0070799589157104,86.66667175292969,91118.0,1.0
18:13:55.007948,135240.671875,143749.796875,160800.609375,157755.765625,178018.15625,175646.90625,686051.0,131084.765625,0.08935546875,1.0107421875,-0.07861328125,-1.4343260526657104,-0.1220703050494194,1.0681151151657104,86.66667175292969,91119.0,1.0
18:13:55.007956,135242.640625,143751.046875,160813.921875,157760.5,178038.09375,175665.59375,685894.0625,131091.921875,0.08642578125,1.009033203125,-0.079833984375,-1.3732908964157104,0.03051757626235485,1.0986326932907104,86.66667175292969,91120.0,1.0
18:13:55.010819,135217.953125,143716.453125,160793.890625,157752.265625,178013.59375,175638.859375,685886.9375,131088.421875,0.085693359375,1.009033203125,-0.080078125,-1.3122557401657104,0.2441406100988388,1.0681151151657104,86.66667175292969,91121.0,1.0
18:13:55.010843,135220.109375,143721.28125,160790.5,157751.5625,178006.703125,175632.328125,685910.5,131088.34375,0.082763671875,1.008056640625,-0.078857421875,-1.3122557401657104,0.3662109076976776,1.0375975370407104,86.66667175292969,91122.0,1.0
18:13:55.015546,135235.578125,143744.4375,160796.125,157751.28125,178010.90625,175639.65625,686053.5625,131083.234375,0.0810546875,1.01025390625,-0.077880859375,-1.2817381620407104,0.6103515028953552,0.9765624403953552,86.66667175292969,91123.0,1.0
18:13:55.015568,135239.140625,143746.671875,160809.359375,157755.484375,178030.578125,175657.8125,685945.0,131088.78125,0.07763671875,1.01025390625,-0.07763671875,-1.4648436307907104,0.6408690810203552,0.7629393935203552,86.66667175292969,91124.0,1.0
18:13:55.017758,135214.46875,143709.75,160792.015625,157750.390625,178011.359375,175633.671875,685867.4375,131091.015625,0.076904296875,1.014404296875,-0.074951171875,-1.5258787870407104,0.6713866591453552,0.5493163466453552,86.66667175292969,91125.0,1.0
18:13:55.020447,135208.21875,143704.640625,160781.5625,157746.109375,177999.5625,175621.953125,685894.4375,131088.34375,0.077392578125,1.01318359375,-0.072998046875,-1.5258787870407104,0.7019042372703552,0.3051757514476776,86.66667175292969,91126.0,1.0
18:13:55.023191,135226.265625,143732.453125,160789.15625,157746.453125,178005.375,175631.703125,686008.875,131079.3125,0.076416015625,1.012939453125,-0.072998046875,-1.6784666776657104,0.6103515028953552,0.1220703050494194,86.66667175292969,91127.0,1.0
18:13:55.026002,135231.71875,143740.328125,160800.25,157747.625,178023.78125,175648.6875,685968.8125,131085.03125,0.07421875,1.013671875,-0.070556640625,-1.7700194120407104,0.5493163466453552,0.0,86.66667175292969,91128.0,1.0
18:13:55.027978,135221.09375,143722.96875,160799.265625,157753.171875,178022.265625,175646.984375,685851.75,131089.5,0.073486328125,1.012451171875,-0.071533203125,-1.8615721464157104,0.4882812201976776,-0.3051757514476776,86.66667175292969,91129.0,1.0
18:13:55.035759,135210.09375,143707.953125,160784.515625,157747.09375,178003.125,175626.515625,685905.25,131082.890625,0.075439453125,1.01220703125,-0.07421875,-1.9531248807907104,0.5493163466453552,-0.4272460639476776,86.66667175292969,91130.0,1.0
18:13:55.035833,135222.34375,143727.53125,160786.5625,157747.09375,178002.0625,175627.234375,685975.3125,131077.609375,0.077392578125,1.01318359375,-0.07568359375,-2.014159917831421,0.4577636420726776,-0.4882812201976776,86.66667175292969,91131.0,1.0
18:13:55.035861,135240.046875,143748.640625,160804.984375,157751.828125,178024.140625,175652.625,686015.1875,131082.34375,0.076171875,1.009765625,-0.069580078125,-2.136230230331421,0.3662109076976776,-0.5493163466453552,86.66667175292969,91132.0,1.0
18:13:55.035884,135228.328125,143732.453125,160805.15625,157750.125,178027.890625,175653.703125,685840.75,131085.203125,0.07666015625,1.009765625,-0.07080078125,-2.136230230331421,0.3662109076976776,-0.4882812201976776,86.66667175292969,91133.0,1.0
18:13:55.042752,135210.09375,143708.84375,160785.40625,157742.078125,178004.390625,175628.9375,685901.5,131079.75,0.07861328125,1.01171875,-0.07177734375,-2.166747808456421,0.3356933295726776,-0.4577636420726776,86.66667175292969,91134.0,1.0
18:13:55.047069,135229.046875,143738.71875,160795.859375,157750.21875,178013.140625,175641.453125,685964.4375,131084.5,0.07763671875,1.0126953125,-0.072021484375,-2.166747808456421,0.3051757514476776,-0.4272460639476776,86.66667175292969,91135.0,1.0
18:13:55.047081,135228.328125,143742.109375,160793.453125,157738.0625,178014.21875,175641.984375,686054.3125,131072.328125,0.076904296875,1.0126953125,-0.070068359375,-2.197265386581421,0.2746581733226776,-0.3051757514476776,86.66667175292969,91136.0,1.0
18:13:55.056575,135221.625,143726.90625,160798.71875,157744.578125,178023.96875,175645.109375,685852.9375,131083.0625,0.076416015625,1.01123046875,-0.0693359375,-2.288818120956421,0.3051757514476776,-0.1525878757238388,86.66667175292969,91137.0,1.0
18:13:55.060960,135204.28125,143696.6875,160779.765625,157741.28125,177998.9375,175615.78125,685907.1875,131084.578125,0.073486328125,1.009765625,-0.0703125,-2.349853277206421,0.3051757514476776,-0.0610351525247097,86.66667175292969,91138.0,1.0
18:13:55.061022,135216.96875,143717.15625,160783.703125,157742.171875,177999.28125,175621.0625,685938.0625,131079.578125,0.0712890625,1.009033203125,-0.0703125,-2.471923589706421,0.1831054538488388,0.03051757626235485,86.66667175292969,91139.0,1.0
18:13:55.064590,135234.765625,143739.875,160795.421875,157749.5,178010.46875,175634.109375,686069.5,131081.984375,0.06787109375,1.008544921875,-0.068603515625,-2.410888433456421,0.1220703050494194,0.0,86.66667175292969,91140.0,1.0
18:13:55.064603,135235.84375,143739.609375,160810.171875,157758.4375,178030.671875,175651.640625,685875.5,131094.15625,0.067626953125,1.00927734375,-0.072021484375,-2.441406011581421,-0.03051757626235485,0.1220703050494194,86.66667175292969,91141.0,1.0
18:13:55.070334,135214.03125,143709.03125,160788.984375,157749.046875,178005.453125,175625.890625,685892.4375,131086.015625,0.068603515625,1.0078125,-0.06982421875,-2.410888433456421,-0.0610351525247097,0.3051757514476776,86.66667175292969,91142.0,1.0
18:13:55.102765,135220.015625,143721.359375,160790.671875,157749.140625,178004.46875,175625.0,685901.25,131088.78125,0.066162109375,1.008056640625,-0.068115234375,-2.471923589706421,-0.1525878757238388,0.2136230319738388,86.66667175292969,91143.0,1.0
18:13:55.105838,135238.34375,143746.484375,160800.328125,157752.546875,178013.6875,175635.546875,686050.4375,131084.671875,0.06640625,1.008056640625,-0.06591796875,-2.502441167831421,-0.3051757514476776,0.1831054538488388,86.66667175292969,91144.0,1.0
18:13:55.105854,135240.046875,143749.265625,160814.015625,157758.625,178034.421875,175655.484375,685891.1875,131091.109375,0.067138671875,1.0087890625,-0.066650390625,-2.502441167831421,-0.4272460639476776,0.3051757514476776,86.66667175292969,91145.0,1.0
18:13:55.107760,135215.625,143714.484375,160795.15625,157749.5,178012.34375,175630.265625,685876.4375,131088.15625,0.066162109375,1.010009765625,-0.064697265625,-2.502441167831421,-0.5187987685203552,0.2441406100988388,86.66667175292969,91146.0,1.0
18:13:55.112800,135216.53125,143717.609375,160790.671875,157748.34375,178004.109375,175624.015625,685893.0625,131087.09375,0.065673828125,1.009521484375,-0.06640625,-2.471923589706421,-0.6103515028953552,0.2136230319738388,86.66667175292969,91147.0,1.0
18:13:55.115245,135236.203125,143744.609375,160799.984375,157752.625,178011.171875,175633.84375,686035.9375,131087.0,0.066162109375,1.0078125,-0.06787109375,-2.471923589706421,-0.7019042372703552,0.3051757514476776,86.66667175292969,91148.0,1.0
18:13:55.117773,135246.921875,143756.5,160820.0,157763.625,178038.625,175660.140625,685948.3125,131098.4375,0.066650390625,1.007080078125,-0.067138671875,-2.441406011581421,-0.8239745497703552,0.2746581733226776,86.66667175292969,91149.0,1.0
18:13:55.120327,135226.359375,143725.125,160806.59375,157760.40625,178024.671875,175641.53125,685863.75,131101.84375,0.0673828125,1.00634765625,-0.066650390625,-2.532958745956421,-0.9765624403953552,0.1525878757238388,86.66667175292969,91150.0,1.0
18:13:55.122896,135225.109375,143722.625,160801.9375,157761.21875,178017.703125,175632.953125,685899.625,131101.296875,0.0673828125,1.00341796875,-0.067138671875,-2.441406011581421,-1.0681151151657104,0.0915527269244194,86.66667175292969,91151.0,1.0
18:13:55.125324,135238.796875,143743.53125,160806.234375,157761.03125,178019.3125,175636.53125,686006.0,131093.078125,0.067626953125,1.003662109375,-0.06640625,-2.563476324081421,-1.1596678495407104,0.1525878757238388,86.66667175292969,91152.0,1.0
18:13:55.127867,135243.171875,143750.609375,160814.375,157758.53125,178032.8125,175652.890625,685977.3125,131090.21875,0.0712890625,1.001220703125,-0.06982421875,-2.319335699081421,-1.2207030057907104,0.0915527269244194,86.66667175292969,91153.0,1.0
18:13:55.130437,135220.90625,143721.28125,160802.03125,157750.75,178020.390625,175638.671875,685836.875,131086.8125,0.071533203125,1.001220703125,-0.06787109375,-2.227782964706421,-1.2817381620407104,-0.03051757626235485,86.66667175292969,91154.0,1.0
18:13:55.133604,135211.15625,143707.515625,160787.8125,157744.3125,178002.953125,175620.96875,685897.3125,131083.875,0.07275390625,1.00146484375,-0.068115234375,-2.166747808456421,-1.4038084745407104,-0.0915527269244194,86.66667175292969,91155.0,1.0
18:13:55.133619,135228.78125,143736.390625,160795.59375,157750.125,178009.84375,175630.984375,685966.1875,131086.109375,0.075927734375,1.000244140625,-0.0693359375,-1.9836424589157104,-1.4038084745407104,-0.03051757626235485,86.66667175292969,91156.0,1.0
18:13:55.135568,135240.75,143753.546875,160808.5625,157752.890625,178028.609375,175652.359375,686007.25,131088.421875,0.077392578125,1.001953125,-0.06884765625,-1.8920897245407104,-1.3427733182907104,0.1525878757238388,86.66667175292969,91157.0,1.0
18:13:55.137827,135227.53125,143730.9375,160806.6875,157757.015625,178030.578125,175649.140625,685819.5625,131096.921875,0.0791015625,1.000244140625,-0.069580078125,-1.8005369901657104,-1.2817381620407104,0.1831054538488388,86.66667175292969,91158.0,1.0
18:13:55.148575,135206.515625,143703.578125,160784.59375,157742.34375,178003.9375,175621.234375,685882.25,131089.765625,0.08056640625,1.0,-0.068359375,-1.5869139432907104,-1.2207030057907104,0.3356933295726776,86.66667175292969,91159.0,1.0
18:13:55.148610,135218.40625,143726.734375,160789.515625,157741.8125,178005.09375,175626.515625,685928.6875,131079.578125,0.080322265625,1.000244140625,-0.070556640625,-1.4343260526657104,-1.0986326932907104,0.3662109076976776,86.66667175292969,91160.0,1.0
18:13:55.150831,135231.28125,143743.71875,160799.4375,157746.8125,178016.984375,175638.859375,686022.8125,131081.453125,0.0791015625,0.99951171875,-0.0712890625,-1.2817381620407104,-0.9765624403953552,0.3967284858226776,86.66667175292969,91161.0,1.0
18:13:55.150839,135234.59375,143741.75,160813.484375,157760.765625,178036.296875,175658.53125,685842.5625,131100.765625,0.0810546875,1.0,-0.0703125,-1.0986326932907104,-0.8850097060203552,0.5493163466453552,86.66667175292969,91162.0,1.0
18:13:55.167836,135212.953125,143710.8125,160793.265625,157754.0625,178011.625,175630.890625,685902.5625,131096.390625,0.0791015625,1.003173828125,-0.071533203125,-0.9155272841453552,-0.7934569716453552,0.5798339247703552,86.66667175292969,91163.0,1.0
18:13:55.167939,135220.640625,143729.40625,160793.890625,157751.28125,178011.171875,175632.5,685909.625,131089.671875,0.079833984375,1.004150390625,-0.073486328125,-0.7629393935203552,-0.6713866591453552,0.5493163466453552,86.66667175292969,91164.0,1.0
18:13:55.169095,135234.40625,143750.6875,160801.859375,157752.09375,178020.390625,175645.203125,686049.375,131087.0,0.078125,1.00537109375,-0.072998046875,-0.7629393935203552,-0.5493163466453552,0.5798339247703552,86.66667175292969,91165.0,1.0
18:13:55.172297,135227.53125,143735.671875,160807.3125,157753.875,178031.921875,175649.3125,685865.1875,131090.84375,0.0771484375,1.006591796875,-0.070068359375,-0.8239745497703552,-0.3051757514476776,0.5798339247703552,86.66667175292969,91166.0,1.0
18:13:55.172775,135211.78125,143707.421875,160793.625,157754.234375,178013.234375,175626.6875,685892.375,131095.046875,0.078369140625,1.00830078125,-0.072265625,-0.7629393935203552,-0.2441406100988388,0.5187987685203552,86.66667175292969,91167.0,1.0
18:13:55.179135,135222.609375,143726.1875,160798.8125,157758.0,178014.75,175632.5,685901.375,131096.390625,0.080322265625,1.009033203125,-0.071533203125,-0.7629393935203552,-0.2136230319738388,0.5187987685203552,86.66667175292969,91168.0,1.0
18:13:55.187381,135239.765625,143746.84375,160806.234375,157766.75,178020.484375,175637.328125,686046.9375,131100.59375,0.07958984375,1.0078125,-0.07666015625,-0.6408690810203552,-0.0915527269244194,0.5187987685203552,86.66667175292969,91169.0,1.0
18:13:55.187964,135231.28125,143738.0,160807.9375,157755.3125,178028.875,175645.375,685892.8125,131092.984375,0.0771484375,1.010498046875,-0.075927734375,-0.6103515028953552,-0.03051757626235485,0.4882812201976776,86.66667175292969,91170.0,1.0
18:13:55.189899,135210.0,143705.265625,160791.125,157749.046875,178008.765625,175621.6875,685867.875,131090.3125,0.078369140625,1.01123046875,-0.071044921875,-0.5798339247703552,0.1220703050494194,0.5187987685203552,86.66667175292969,91171.0,1.0
18:13:55.189989,135211.4375,143709.203125,160786.828125,157752.1875,178001.96875,175613.46875,685881.5625,131089.671875,0.078125,1.0107421875,-0.0703125,-0.6713866591453552,0.2746581733226776,0.3051757514476776,86.66667175292969,91172.0,1.0
18:13:55.199406,135230.5625,143738.359375,160796.046875,157750.3125,178008.046875,175623.390625,686016.3125,131084.21875,0.077392578125,1.01123046875,-0.07275390625,-0.6713866591453552,0.3051757514476776,0.1831054538488388,86.66667175292969,91173.0,1.0
18:13:55.203806,135246.828125,143754.53125,160821.078125,157764.96875,178039.078125,175653.25,685954.125,131104.078125,0.07666015625,1.012939453125,-0.071044921875,-0.7019042372703552,0.3356933295726776,0.1831054538488388,86.66667175292969,91174.0,1.0
18:13:55.203856,135236.015625,143733.4375,160817.765625,157771.046875,178034.96875,175646.625,685872.6875,131110.25,0.074462890625,1.010986328125,-0.07177734375,-0.7629393935203552,0.3662109076976776,0.2136230319738388,86.66667175292969,91175.0,1.0
18:13:55.214091,135218.9375,143716.890625,160796.046875,157754.234375,178009.921875,175621.953125,685900.125,131091.46875,0.073974609375,1.009765625,-0.072021484375,-0.8239745497703552,0.3662109076976776,0.1831054538488388,86.66667175292969,91176.0,1.0
18:13:55.217215,135237.53125,143745.59375,160804.09375,157754.0625,178015.65625,175631.34375,686006.75,131084.765625,0.07421875,1.009521484375,-0.072021484375,-0.8850097060203552,0.4882812201976776,0.1525878757238388,86.66667175292969,91177.0,1.0
18:13:55.217308,135241.828125,143750.515625,160812.671875,157752.359375,178029.6875,175644.390625,685989.9375,131084.765625,0.072509765625,1.009033203125,-0.073486328125,-0.9460448622703552,0.5493163466453552,0.1220703050494194,86.66667175292969,91178.0,1.0
18:13:55.219064,135227.875,143725.75,160809.359375,157757.453125,178026.375,175636.703125,685850.1875,131095.046875,0.074462890625,1.0087890625,-0.07666015625,-0.9460448622703552,0.5798339247703552,0.0610351525247097,86.66667175292969,91179.0,1.0
18:13:55.233370,135209.546875,143700.984375,160787.8125,157744.578125,178000.71875,175608.546875,685896.75,131085.75,0.076416015625,1.008544921875,-0.074462890625,-0.9460448622703552,0.5493163466453552,0.1220703050494194,86.66667175292969,91180.0,1.0
18:13:55.233454,135219.03125,143716.1875,160787.546875,157741.453125,177996.875,175604.96875,685953.1875,131077.703125,0.076416015625,1.008544921875,-0.071044921875,-0.8544921278953552,0.6408690810203552,0.2441406100988388,86.66667175292969,91181.0,1.0
18:13:55.234573,135241.921875,143744.796875,160810.703125,157755.3125,178024.765625,175636.265625,686014.25,131089.046875,0.076904296875,1.00830078125,-0.0732421875,-0.8850097060203552,0.7019042372703552,0.3051757514476776,86.66667175292969,91182.0,1.0
18:13:55.234605,135235.296875,143733.703125,160816.15625,157762.109375,178035.59375,175644.9375,685835.25,131099.875,0.077880859375,1.00634765625,-0.07568359375,-0.8850097060203552,0.8239745497703552,0.4882812201976776,86.66667175292969,91183.0,1.0
18:13:55.236526,135222.15625,143714.03125,160801.59375,157760.59375,178016.984375,175626.421875,685896.75,131100.765625,0.073974609375,1.0048828125,-0.074462890625,-0.9155272841453552,0.8239745497703552,0.4882812201976776,86.66667175292969,91184.0,1.0
18:13:55.246571,135237.265625,143740.328125,160810.265625,157762.734375,178022.71875,175635.28125,685937.9375,131102.015625,0.06884765625,1.005615234375,-0.07421875,-0.8850097060203552,0.7934569716453552,0.6408690810203552,86.66667175292969,91185.0,1.0
18:13:55.250896,135254.078125,143764.28125,160824.75,157766.75,178038.984375,175652.53125,686052.6875,131106.671875,0.06787109375,1.007568359375,-0.072998046875,-0.8544921278953552,0.8239745497703552,0.6103515028953552,86.66667175292969,91186.0,1.0
18:13:55.250940,135249.421875,143754.71875,160832.34375,157773.546875,178051.6875,175663.625,685857.4375,131112.03125,0.0703125,1.00830078125,-0.07275390625,-0.8850097060203552,0.6103515028953552,0.5798339247703552,86.66667175292969,91187.0,1.0
18:13:55.257784,135226.265625,143720.734375,160809.28125,157765.765625,178025.3125,175633.84375,685892.8125,131105.6875,0.067626953125,1.0068359375,-0.07275390625,-1.0375975370407104,0.5493163466453552,0.3967284858226776,86.66667175292969,91188.0,1.0
18:13:55.265836,135228.59375,143730.21875,160804.984375,157759.15625,178019.671875,175629.203125,685907.0,131099.328125,0.0673828125,1.0087890625,-0.0712890625,-1.0070799589157104,0.6103515028953552,0.4272460639476776,86.66667175292969,91189.0,1.0
18:13:55.265856,135248.0,143758.46875,160818.21875,157768.453125,178032.90625,175645.5625,686051.4375,131107.65625,0.068359375,1.010009765625,-0.075439453125,-1.0375975370407104,0.5798339247703552,0.4272460639476776,86.66667175292969,91190.0,1.0
18:13:55.269618,135252.375,143762.046875,160832.078125,157773.90625,178052.125,175667.640625,685871.6875,131108.8125,0.0673828125,1.00830078125,-0.07666015625,-1.0375975370407104,0.5187987685203552,0.2746581733226776,86.66667175292969,91191.0,1.0
18:13:55.269637,135237.8125,143736.203125,160818.9375,157773.90625,178035.3125,175646.90625,685886.125,131111.859375,0.0673828125,1.007080078125,-0.07568359375,-1.0070799589157104,0.4272460639476776,0.2136230319738388,86.66667175292969,91192.0,1.0
18:13:55.275290,135228.59375,143730.03125,160803.90625,157761.65625,178018.515625,175627.859375,685886.9375,131097.546875,0.063720703125,1.00830078125,-0.0751953125,-1.0681151151657104,0.2441406100988388,0.1525878757238388,86.66667175292969,91193.0,1.0
18:13:55.290846,135253.0,143760.96875,160818.65625,157772.828125,178031.390625,175641.453125,686038.9375,131105.234375,0.0625,1.010498046875,-0.0732421875,-1.1291502714157104,0.1525878757238388,0.03051757626235485,86.66667175292969,91194.0,1.0
18:13:55.290866,135259.703125,143768.84375,160835.828125,157776.859375,178054.625,175667.015625,685902.5,131108.546875,0.061767578125,1.011474609375,-0.071044921875,-1.1291502714157104,0.03051757626235485,0.0,86.66667175292969,91195.0,1.0
18:13:55.293318,135236.109375,143733.703125,160817.5,157772.5625,178033.0,175643.6875,685867.625,131106.75,0.065673828125,1.01220703125,-0.06884765625,-1.1901854276657104,-0.03051757626235485,0.0,86.66667175292969,91196.0,1.0
18:13:55.293331,135223.859375,143723.15625,160802.390625,157758.890625,178015.65625,175625.53125,685899.875,131095.765625,0.068359375,1.012939453125,-0.072021484375,-1.2512205839157104,-0.0915527269244194,0.0610351525247097,86.66667175292969,91197.0,1.0
18:13:55.295303,135241.828125,143748.90625,160809.09375,157761.84375,178020.296875,175633.125,686019.6875,131092.8125,0.06640625,1.012451171875,-0.072509765625,-1.4038084745407104,-0.2136230319738388,0.1220703050494194,86.66667175292969,91198.0,1.0
18:13:55.301504,135245.578125,143753.828125,160818.390625,157760.046875,178034.0625,175650.03125,685944.75,131091.828125,0.06787109375,1.012451171875,-0.073486328125,-1.3732908964157104,-0.1831054538488388,0.2746581733226776,86.66667175292969,91199.0,1.0
18:13:55.305899,135226.546875,143724.578125,160807.484375,157761.21875,178022.09375,175635.453125,685843.5625,131095.140625,0.069580078125,1.012451171875,-0.074951171875,-1.4648436307907104,-0.2746581733226776,0.2746581733226776,86.66667175292969,91200.0,1.0
18:13:55.305926,135212.5,143710.90625,160789.78125,157749.765625,178000.8125,175614.890625,685891.0,131084.84375,0.06884765625,1.010986328125,-0.073486328125,-1.4953612089157104,-0.3051757514476776,0.3356933295726776,86.66667175292969,91201.0,1.0
18:13:55.315323,135238.609375,143747.109375,160806.140625,157758.703125,178014.484375,175629.734375,685993.3125,131088.421875,0.070068359375,1.009521484375,-0.07177734375,-1.4953612089157104,-0.3662109076976776,0.4577636420726776,86.66667175292969,91202.0,1.0
18:13:55.363386,135251.21875,143763.5625,160823.140625,157765.765625,178036.03125,175652.4375,685986.9375,131093.96875,0.06884765625,1.0087890625,-0.072509765625,-1.5258787870407104,-0.3967284858226776,0.5187987685203552,86.66667175292969,91203.0,1.0
18:13:55.363416,135243.703125,143747.390625,160825.28125,157771.40625,178038.8125,175653.96875,685839.375,131105.140625,0.06884765625,1.008544921875,-0.0703125,-1.6479490995407104,-0.3967284858226776,0.5187987685203552,86.66667175292969,91204.0,1.0
18:13:55.365275,135234.859375,143733.171875,160813.65625,157771.578125,178023.0625,175636.625,685910.0,131109.796875,0.06982421875,1.005615234375,-0.07080078125,-1.6784666776657104,-0.3662109076976776,0.6103515028953552,86.66667175292969,91205.0,1.0
18:13:55.369421,135241.46875,143748.71875,160809.90625,157762.828125,178016.09375,175631.4375,685953.6875,131091.921875,0.07080078125,1.006591796875,-0.073974609375,-1.6784666776657104,-0.4882812201976776,0.7629393935203552,86.66667175292969,91206.0,1.0
18:13:55.370325,135253.0,143765.171875,160820.71875,157761.390625,178029.328125,175647.4375,686007.0625,131089.59375,0.06884765625,1.007080078125,-0.075439453125,-1.6479490995407104,-0.5187987685203552,0.7934569716453552,86.66667175292969,91207.0,1.0
18:13:55.372690,135252.015625,143757.125,160830.015625,157774.625,178041.046875,175658.703125,685811.375,131104.703125,0.06982421875,1.007080078125,-0.07080078125,-1.7089842557907104,-0.4577636420726776,0.8544921278953552,86.66667175292969,91208.0,1.0
18:13:55.375323,135236.90625,143732.71875,160812.859375,157773.1875,178019.84375,175633.046875,685901.25,131109.796875,0.071533203125,1.007568359375,-0.072021484375,-1.7089842557907104,-0.4882812201976776,0.7934569716453552,86.66667175292969,91209.0,1.0
18:13:55.377716,135236.46875,143738.171875,160805.25,157764.078125,178009.65625,175623.5625,685948.4375,131100.234375,0.0693359375,1.008056640625,-0.074462890625,-1.6784666776657104,-0.3967284858226776,0.8544921278953552,86.66667175292969,91210.0,1.0
18:13:55.382735,135241.5625,143750.0625,160807.3125,157752.0,178012.4375,175630.09375,686025.6875,131080.734375,0.071044921875,1.00927734375,-0.07421875,-1.7089842557907104,-0.3662109076976776,0.7934569716453552,86.66667175292969,91211.0,1.0
18:13:55.387798,135238.4375,143743.71875,160816.875,157755.9375,178027.09375,175643.6875,685824.3125,131086.28125,0.073486328125,1.00927734375,-0.074462890625,-1.7089842557907104,-0.4577636420726776,0.7324218153953552,86.66667175292969,91212.0,1.0
18:13:55.394031,135219.203125,143712.78125,160798.015625,157752.1875,178003.765625,175617.84375,685892.25,131087.09375,0.073486328125,1.00927734375,-0.072509765625,-1.7089842557907104,-0.4577636420726776,0.6408690810203552,86.66667175292969,91213.0,1.0
18:13:55.396525,135227.25,143728.25,160798.8125,157755.3125,178001.703125,175617.578125,685920.8125,131087.890625,0.07275390625,1.008544921875,-0.072265625,-1.7700194120407104,-0.4272460639476776,0.7934569716453552,86.66667175292969,91214.0,1.0
18:13:55.399045,135245.140625,143753.828125,160808.375,157758.0,178009.65625,175630.265625,686032.5,131084.40625,0.07568359375,1.008056640625,-0.074462890625,-1.8310545682907104,-0.5187987685203552,0.6408690810203552,86.66667175292969,91215.0,1.0
18:13:55.401513,135242.453125,143748.640625,160816.703125,157759.328125,178023.875,175644.3125,685850.8125,131085.921875,0.07568359375,1.009521484375,-0.07373046875,-1.8005369901657104,-0.4882812201976776,0.5798339247703552,86.66667175292969,91216.0,1.0
18:13:55.404034,135212.953125,143707.15625,160789.34375,157744.671875,177994.015625,175610.421875,685857.9375,131076.09375,0.076171875,1.009521484375,-0.0693359375,-1.8005369901657104,-0.4272460639476776,0.5798339247703552,86.66667175292969,91217.0,1.0
18:13:55.407658,135214.203125,143712.25,160784.421875,157741.984375,177987.390625,175604.96875,685919.8125,131072.953125,0.0771484375,1.0107421875,-0.071044921875,-1.8310545682907104,-0.3662109076976776,0.5187987685203552,86.66667175292969,91218.0,1.0
18:13:55.407672,135236.90625,143742.109375,160797.65625,157752.09375,177998.484375,175619.453125,686032.75,131077.4375,0.07470703125,1.008544921875,-0.06982421875,-1.9531248807907104,-0.3662109076976776,0.5798339247703552,86.66667175292969,91219.0,1.0
18:13:55.407678,135240.40625,143745.0625,160810.4375,157760.046875,178018.6875,175636.96875,685890.875,131092.359375,0.075439453125,1.009033203125,-0.0712890625,-2.014159917831421,-0.1831054538488388,0.5187987685203552,86.66667175292969,91220.0,1.0
18:13:55.410285,135219.75,143713.40625,160794.96875,157752.71875,177999.640625,175614.890625,685843.5625,131087.796875,0.07568359375,1.00830078125,-0.06884765625,-2.044677495956421,-0.0915527269244194,0.4577636420726776,86.66667175292969,91221.0,1.0
18:13:55.417737,135215.90625,143708.578125,160787.546875,157749.5,177989.453125,175603.625,685880.9375,131084.3125,0.077880859375,1.006591796875,-0.07080078125,-2.014159917831421,0.0,0.4272460639476776,86.66667175292969,91222.0,1.0
18:13:55.426620,135231.015625,143733.609375,160794.078125,157750.75,177994.375,175609.703125,685985.4375,131079.390625,0.07763671875,1.005126953125,-0.0732421875,-1.8615721464157104,0.0610351525247097,0.3662109076976776,86.66667175292969,91223.0,1.0
18:13:55.429555,135231.90625,143737.1875,160801.671875,157747.71875,178008.671875,175625.796875,685923.125,131075.828125,0.0791015625,1.007568359375,-0.07275390625,-1.9226073026657104,0.0915527269244194,0.3356933295726776,86.66667175292969,91224.0,1.0
18:13:55.429563,135219.203125,143712.96875,160796.3125,157752.359375,178002.6875,175615.25,685816.8125,131083.15625,0.07861328125,1.005126953125,-0.072021484375,-1.8310545682907104,0.1831054538488388,0.2746581733226776,86.66667175292969,91225.0,1.0
18:13:55.442778,135209.109375,143701.25,160783.34375,157743.6875,177985.609375,175597.453125,685913.1875,131078.59375,0.075439453125,1.00439453125,-0.0712890625,-1.7700194120407104,0.2441406100988388,0.3662109076976776,86.66667175292969,91226.0,1.0
18:13:55.449299,135228.59375,143730.84375,160792.90625,157751.828125,177991.78125,175607.921875,685977.375,131082.609375,0.07470703125,1.004638671875,-0.072265625,-1.6784666776657104,0.3356933295726776,0.3051757514476776,86.66667175292969,91227.0,1.0
18:13:55.453881,135241.734375,143749.796875,160807.671875,157753.609375,178011.453125,175632.78125,685978.4375,131083.421875,0.07568359375,1.0048828125,-0.071533203125,-1.6174315214157104,0.3356933295726776,0.2136230319738388,86.66667175292969,91228.0,1.0
18:13:55.453902,135228.78125,143732.71875,160804.984375,157756.5625,178011.625,175632.78125,685823.5,131087.890625,0.075439453125,1.005126953125,-0.071044921875,-1.6479490995407104,0.4577636420726776,0.2136230319738388,86.66667175292969,91229.0,1.0
18:13:55.454036,135211.96875,143709.46875,160785.84375,157749.046875,177988.640625,175606.84375,685902.375,131083.15625,0.0751953125,1.0048828125,-0.071533203125,-1.4648436307907104,0.4272460639476776,0.2136230319738388,86.66667175292969,91230.0,1.0
18:13:55.457026,135225.375,143730.84375,160788.890625,157749.046875,177988.109375,175607.921875,685936.375,131078.953125,0.07470703125,1.0068359375,-0.071533203125,-1.4648436307907104,0.5187987685203552,0.2136230319738388,86.66667175292969,91231.0,1.0
18:13:55.458990,135231.90625,143743.8125,160794.4375,157744.140625,177997.234375,175621.15625,686001.25,131072.0625,0.0732421875,1.0068359375,-0.070068359375,-1.5258787870407104,0.4882812201976776,0.2746581733226776,86.66667175292969,91232.0,1.0
18:13:55.462137,135222.78125,143728.078125,160798.546875,157750.390625,178006.703125,175625.53125,685802.4375,131079.21875,0.07080078125,1.005126953125,-0.072509765625,-1.4343260526657104,0.5187987685203552,0.1831054538488388,86.66667175292969,91233.0,1.0
18:13:55.462163,135196.140625,143693.03125,160771.359375,157735.015625,177975.140625,175591.828125,685881.5625,131070.90625,0.07177734375,1.005126953125,-0.07080078125,-1.3427733182907104,0.4272460639476776,0.0915527269244194,86.66667175292969,91234.0,1.0
18:13:55.465230,135205.796875,143712.515625,160772.34375,157729.921875,177974.515625,175593.609375,685919.5625,131067.328125,0.068359375,1.00537109375,-0.070068359375,-1.2207030057907104,0.3662109076976776,0.2441406100988388,86.66667175292969,91235.0,1.0
18:13:55.465258,135233.25,143744.875,160794.34375,157748.0625,177996.25,175617.84375,686027.125,131075.828125,0.068603515625,1.005615234375,-0.0712890625,-1.1596678495407104,0.3356933295726776,0.1525878757238388,86.66667175292969,91236.0,1.0
18:13:55.465266,135235.484375,143742.5625,160808.46875,157758.4375,178016.359375,175636.53125,685838.1875,131082.890625,0.068115234375,1.008056640625,-0.072021484375,-1.1596678495407104,0.3051757514476776,0.1831054538488388,86.66667175292969,91237.0,1.0
18:13:55.467745,135202.40625,143701.15625,160776.375,157738.859375,177980.515625,175600.046875,685889.9375,131067.5078125,0.067138671875,1.009033203125,-0.070068359375,-1.0986326932907104,0.2441406100988388,0.1831054538488388,86.66667175292969,91238.0,1.0
18:13:55.477357,135200.4375,143708.21875,160767.4375,157728.3125,177969.25,175594.234375,685920.0625,131055.9765625,0.068359375,1.007080078125,-0.07177734375,-1.0681151151657104,0.0610351525247097,0.1220703050494194,86.66667175292969,91239.0,1.0
18:13:55.477372,135206.0625,143718.421875,160765.203125,157719.90625,177967.453125,175591.640625,686030.6875,131044.8828125,0.067626953125,1.007568359375,-0.070556640625,-1.0986326932907104,0.03051757626235485,0.1525878757238388,86.66667175292969,91240.0,1.0
18:13:55.489427,135205.984375,143716.1875,160776.640625,157723.296875,177986.953125,175609.4375,685856.875,131053.2890625,0.06689453125,1.008544921875,-0.0673828125,-1.1291502714157104,0.0,0.2441406100988388,86.66667175292969,91241.0,1.0
18:13:55.489452,135185.40625,143684.078125,160758.578125,157719.640625,177965.84375,175585.03125,685857.875,131055.703125,0.069091796875,1.008544921875,-0.06787109375,-1.0986326932907104,0.03051757626235485,0.2441406100988388,86.66667175292969,91242.0,1.0
18:13:55.489458,135188.359375,143689.8125,160757.421875,157721.34375,177962.265625,175579.125,685890.875,131058.7421875,0.066162109375,1.009033203125,-0.06884765625,-1.1901854276657104,-0.1220703050494194,0.3967284858226776,86.66667175292969,91243.0,1.0
18:13:55.489463,135205.796875,143716.71875,160765.90625,157726.515625,177969.96875,175588.703125,686023.875,131058.65625,0.069091796875,1.0078125,-0.072998046875,-1.1596678495407104,-0.0915527269244194,0.4577636420726776,86.66667175292969,91244.0,1.0
18:13:55.489468,135227.53125,143739.6875,160796.9375,157749.59375,178008.140625,175628.296875,685917.3125,131082.265625,0.067138671875,1.00927734375,-0.071533203125,-1.1596678495407104,-0.1831054538488388,0.4882812201976776,86.66667175292969,91245.0,1.0
