Timestamp,Fz,FC3,FCz,FC4,Cz,C3,C4
15:33:05.333757,198459.0,177514.171875,233427.328125,206426.953125,199590.1875,171367.171875,686423.0625,201319.484375,0.0830078125,0.985595703125,-0.227783203125,-2.105712652206421,0.3051757514476776,0.5493163466453552,100.0,86265.0,1.0
15:33:05.333771,198459.0,177513.359375,233425.359375,206434.546875,199588.125,171361.09375,686493.875,201319.84375,0.083251953125,0.984619140625,-0.227783203125,-2.136230230331421,0.3051757514476776,0.7629393935203552,100.0,86266.0,1.0
15:33:05.347464,198465.078125,177521.9375,233435.90625,206438.390625,199601.625,171393.1875,686492.4375,201322.890625,0.083740234375,0.983642578125,-0.22998046875,-2.075195074081421,0.2746581733226776,0.7934569716453552,100.0,86267.0,1.0
15:33:05.347476,198462.84375,177521.046875,233430.8125,206428.734375,199595.640625,171397.296875,686446.125,201307.515625,0.0810546875,0.9853515625,-0.227783203125,-2.258300542831421,0.3662109076976776,0.7019042372703552,100.0,86268.0,1.0
15:33:05.350636,198458.734375,177513.359375,233420.265625,206431.875,199585.625,171372.984375,686417.625,201310.015625,0.081298828125,0.986083984375,-0.227294921875,-2.319335699081421,0.3662109076976776,0.7324218153953552,100.0,86269.0,1.0
15:33:05.350649,198456.765625,177508.71875,233417.84375,206443.140625,199583.5625,171359.296875,686474.3125,201314.65625,0.08203125,0.985107421875,-0.227294921875,-2.349853277206421,0.3051757514476776,0.6713866591453552,100.0,86270.0,1.0
15:33:05.350651,198456.234375,177512.734375,233423.03125,206442.515625,199591.34375,171383.265625,686510.1875,201310.109375,0.08349609375,0.987548828125,-0.227783203125,-2.319335699081421,0.3356933295726776,0.7324218153953552,100.0,86271.0,1.0
15:33:05.353653,198459.625,177519.171875,233429.03125,206438.3125,199593.75,171399.796875,686449.3125,201302.859375,0.0830078125,0.98681640625,-0.2294921875,-2.380370855331421,0.3356933295726776,0.7019042372703552,100.0,86272.0,1.0
15:33:05.353658,198459.625,177515.859375,233423.65625,206441.265625,199587.5,171379.6875,686408.3125,201307.421875,0.08251953125,0.986572265625,-0.22607421875,-2.380370855331421,0.3051757514476776,0.4882812201976776,100.0,86273.0,1.0
15:33:05.355608,198455.421875,177507.546875,233418.734375,206444.296875,199582.40625,171359.125,686452.5,201312.421875,0.082275390625,0.9833984375,-0.226318359375,-2.349853277206421,0.2441406100988388,0.4882812201976776,100.0,86274.0,1.0
15:33:05.359349,198456.5,177513.359375,233424.109375,206439.46875,199588.921875,171380.75,686506.3125,201308.578125,0.0830078125,0.982421875,-0.22705078125,-2.441406011581421,0.2746581733226776,0.5187987685203552,100.0,86275.0,1.0
15:33:05.359430,198456.5,177516.046875,233427.859375,206434.28125,199591.796875,171400.421875,686439.375,201300.09375,0.082275390625,0.982666015625,-0.227294921875,-2.471923589706421,0.3051757514476776,0.4882812201976776,100.0,86276.0,1.0
15:33:05.360668,198457.84375,177514.171875,233425.359375,206432.3125,199587.140625,171385.859375,686413.0625,201299.90625,0.083984375,0.982177734375,-0.22802734375,-2.410888433456421,0.4577636420726776,0.4882812201976776,100.0,86277.0,1.0
15:33:05.363096,198457.484375,177508.0,233423.921875,206451.359375,199587.140625,171363.59375,686467.625,201313.765625,0.08349609375,0.981201171875,-0.2255859375,-2.441406011581421,0.4272460639476776,0.4882812201976776,100.0,86278.0,1.0
15:33:05.365861,198455.15625,177506.75,233421.328125,206450.015625,199584.015625,171371.546875,686519.5,201305.546875,0.083251953125,0.980712890625,-0.2275390625,-2.319335699081421,0.3662109076976776,0.4882812201976776,100.0,86279.0,1.0
15:33:05.368079,198455.6875,177512.640625,233428.9375,206446.09375,199590.265625,171397.125,686457.6875,201301.078125,0.083740234375,0.9814453125,-0.228271484375,-2.288818120956421,0.4882812201976776,0.3662109076976776,100.0,86280.0,1.0
15:33:05.372663,198454.625,177511.03125,233422.765625,206438.3125,199584.015625,171385.578125,686419.6875,201298.390625,0.0849609375,0.98046875,-0.2255859375,-2.197265386581421,0.3967284858226776,0.3967284858226776,100.0,86281.0,1.0
15:33:05.373654,198452.921875,177502.1875,233418.203125,206447.515625,199581.78125,171358.671875,686432.75,201311.71875,0.08203125,0.981689453125,-0.22802734375,-2.136230230331421,0.3967284858226776,0.3967284858226776,100.0,86282.0,1.0
15:33:05.375654,198457.03125,177504.515625,233420.265625,206447.34375,199584.015625,171362.78125,686505.9375,201310.109375,0.0830078125,0.98046875,-0.225341796875,-2.044677495956421,0.3967284858226776,0.4882812201976776,100.0,86283.0,1.0
15:33:05.378180,198460.96875,177514.25,233430.28125,206447.515625,199596.265625,171394.4375,686455.1875,201309.390625,0.082763671875,0.980712890625,-0.22607421875,-2.075195074081421,0.3356933295726776,0.4577636420726776,100.0,86284.0,1.0
15:33:05.381193,198453.28125,177508.984375,233418.65625,206432.578125,199581.421875,171384.78125,686419.9375,201294.8125,0.080810546875,0.982421875,-0.2255859375,-2.044677495956421,0.3662109076976776,0.3967284858226776,100.0,86285.0,1.0
15:33:05.381204,198443.265625,177493.25,233404.890625,206436.25,199569.4375,171353.046875,686417.25,201300.265625,0.081298828125,0.98193359375,-0.22265625,-1.9531248807907104,0.3051757514476776,0.3051757514476776,100.0,86286.0,1.0
15:33:05.383364,198446.3125,177494.40625,233406.046875,206441.078125,199571.046875,171353.3125,686505.3125,201301.78125,0.0791015625,0.98193359375,-0.226318359375,-1.8310545682907104,0.2136230319738388,0.2746581733226776,100.0,86287.0,1.0
15:33:05.385587,198447.375,177500.046875,233414.71875,206441.078125,199581.78125,171380.125,686493.8125,201300.71875,0.078369140625,0.981689453125,-0.225830078125,-1.7700194120407104,0.2441406100988388,0.2136230319738388,100.0,86288.0,1.0
15:33:05.415681,198443.359375,177499.6875,233408.640625,206430.0,199573.546875,171380.484375,686432.3125,201289.890625,0.08056640625,0.98291015625,-0.22412109375,-1.7395018339157104,0.2746581733226776,0.2441406100988388,100.0,86289.0,1.0
15:33:05.418744,198440.671875,177492.625,233402.65625,206436.515625,199568.984375,171355.453125,686416.9375,201299.90625,0.080078125,0.982666015625,-0.224609375,-1.7700194120407104,0.3356933295726776,0.1831054538488388,100.0,86290.0,1.0
15:33:05.418755,198439.6875,177490.203125,233400.328125,206443.5,199566.75,171346.6875,686484.75,201299.734375,0.07861328125,0.982177734375,-0.22216796875,-1.6479490995407104,0.1831054538488388,0.3051757514476776,100.0,86291.0,1.0
15:33:05.420820,198443.265625,177497.265625,233410.96875,206447.96875,199577.75,171375.125,686477.1875,201300.625,0.0791015625,0.9833984375,-0.2216796875,-1.6479490995407104,0.1525878757238388,0.3356933295726776,100.0,86292.0,1.0
15:33:05.431610,198445.765625,177502.09375,233413.109375,206441.078125,199577.21875,171384.15625,686434.625,201294.359375,0.080810546875,0.9833984375,-0.222900390625,-1.6784666776657104,0.1220703050494194,0.3662109076976776,100.0,86293.0,1.0
15:33:05.431626,198445.0625,177498.25,233407.296875,206442.59375,199572.125,171365.734375,686407.1875,201299.8125,0.080322265625,0.983642578125,-0.223876953125,-1.6479490995407104,0.0,0.3356933295726776,100.0,86294.0,1.0
15:33:05.431630,198443.625,177492.625,233402.921875,206439.65625,199567.734375,171350.453125,686469.125,201300.359375,0.08056640625,0.9833984375,-0.2255859375,-1.6784666776657104,0.0,0.3967284858226776,100.0,86295.0,1.0
15:33:05.431633,198441.5625,177493.609375,233406.578125,206432.671875,199573.28125,171369.84375,686508.5625,201296.78125,0.080078125,0.984130859375,-0.2265625,-1.5869139432907104,0.03051757626235485,0.5187987685203552,100.0,86296.0,1.0
15:33:05.433208,198441.75,177497.984375,233408.015625,206424.625,199575.875,171386.75,686445.875,201291.421875,0.080810546875,0.98388671875,-0.223388671875,-1.5869139432907104,-0.0610351525247097,0.4577636420726776,100.0,86297.0,1.0
15:33:05.435884,198438.171875,177493.6875,233398.890625,206420.34375,199568.09375,171367.25,686408.0,201293.46875,0.080322265625,0.9833984375,-0.225341796875,-1.5563963651657104,0.0,0.5187987685203552,100.0,86298.0,1.0
15:33:05.438191,198433.25,177489.21875,233395.046875,206423.015625,199563.171875,171350.625,686454.3125,201295.890625,0.080810546875,0.985107421875,-0.225341796875,-1.5563963651657104,-0.03051757626235485,0.6408690810203552,100.0,86299.0,1.0
15:33:05.440604,198440.046875,177502.28125,233404.171875,206426.234375,199574.265625,171378.875,686513.0625,201296.25,0.080810546875,0.983642578125,-0.22509765625,-1.4953612089157104,-0.1525878757238388,0.7324218153953552,100.0,86300.0,1.0
15:33:05.443695,198446.3125,177513.8125,233413.28125,206428.5625,199584.015625,171405.796875,686453.1875,201293.5625,0.080322265625,0.9853515625,-0.22265625,-1.6174315214157104,-0.1525878757238388,0.7629393935203552,100.0,86301.0,1.0
15:33:05.443761,198443.53125,177509.15625,233404.171875,206423.203125,199575.703125,171387.015625,686416.0,201291.59375,0.080810546875,0.98388671875,-0.224609375,-1.5869139432907104,-0.1525878757238388,0.8239745497703552,100.0,86302.0,1.0
15:33:05.445690,198438.96875,177500.84375,233397.546875,206429.90625,199568.984375,171360.015625,686439.4375,201300.53125,0.08056640625,0.98583984375,-0.2265625,-1.6479490995407104,-0.1525878757238388,0.9765624403953552,100.0,86303.0,1.0
15:33:05.448170,198440.5,177504.421875,233398.984375,206427.21875,199571.671875,171370.75,686512.6875,201298.390625,0.08154296875,0.984375,-0.22705078125,-1.5869139432907104,-0.1831054538488388,1.0070799589157104,100.0,86304.0,1.0
15:33:05.453363,198442.015625,177508.0,233406.21875,206425.609375,199580.078125,171395.421875,686459.125,201296.875,0.080810546875,0.982666015625,-0.226806640625,-1.6479490995407104,-0.1831054538488388,1.0375975370407104,100.0,86305.0,1.0
15:33:05.453438,198440.9375,177502.90625,233400.5,206420.78125,199571.578125,171379.859375,686421.375,201293.921875,0.080322265625,0.98681640625,-0.2275390625,-1.6174315214157104,-0.1831054538488388,1.0681151151657104,100.0,86306.0,1.0
15:33:05.458770,198439.15625,177494.765625,233395.140625,206433.03125,199567.375,171353.40625,686438.75,201307.421875,0.080810546875,0.98486328125,-0.22607421875,-1.6479490995407104,-0.2441406100988388,1.0375975370407104,100.0,86307.0,1.0
15:33:05.458793,198436.03125,177494.5,233390.9375,206431.953125,199564.34375,171356.171875,686513.375,201301.25,0.081787109375,0.984130859375,-0.22607421875,-1.6174315214157104,-0.1525878757238388,1.0681151151657104,100.0,86308.0,1.0
15:33:05.464479,198434.140625,177497.796875,233395.859375,206428.828125,199571.046875,171382.09375,686464.0625,201297.234375,0.084228515625,0.984619140625,-0.228759765625,-1.5869139432907104,-0.1831054538488388,1.1291502714157104,100.0,86309.0,1.0
15:33:05.472443,198431.015625,177495.5625,233389.421875,206418.546875,199560.9375,171373.609375,686420.5625,201286.671875,0.08544921875,0.98388671875,-0.22802734375,-1.6174315214157104,-0.1525878757238388,1.1291502714157104,100.0,86310.0,1.0
15:33:05.472528,198426.453125,177486.265625,233382.71875,206424.53125,199557.09375,171347.5,686415.6875,201297.046875,0.084228515625,0.985107421875,-0.2275390625,-1.5563963651657104,-0.1220703050494194,1.2512205839157104,100.0,86311.0,1.0
15:33:05.474398,198425.75,177485.90625,233381.8125,206426.6875,199555.84375,171345.625,686495.75,201294.453125,0.082763671875,0.98486328125,-0.22705078125,-1.7089842557907104,-0.1831054538488388,1.3427733182907104,100.0,86312.0,1.0
15:33:05.483205,198424.765625,177491.28125,233389.6875,206433.03125,199562.828125,171372.078125,686459.375,201289.359375,0.084228515625,0.985595703125,-0.227783203125,-1.6784666776657104,-0.1525878757238388,1.3122557401657104,100.0,86313.0,1.0
15:33:05.491359,198426.09375,177497.09375,233389.140625,206425.875,199559.875,171375.84375,686413.0625,201282.65625,0.08544921875,0.986328125,-0.229736328125,-1.6479490995407104,0.03051757626235485,1.3122557401657104,100.0,86314.0,1.0
15:33:05.491405,198422.96875,177488.421875,233380.65625,206427.578125,199553.609375,171349.734375,686406.4375,201292.125,0.085693359375,0.98486328125,-0.23095703125,-1.6479490995407104,0.03051757626235485,1.4038084745407104,100.0,86315.0,1.0
15:33:05.493804,198422.703125,177487.96875,233377.34375,206425.96875,199552.453125,171344.28125,686480.5625,201289.8125,0.0859375,0.9833984375,-0.22607421875,-1.6479490995407104,0.0915527269244194,1.3427733182907104,100.0,86316.0,1.0
15:33:05.493842,198426.90625,177500.390625,233388.875,206423.375,199563.625,171379.6875,686500.3125,201286.5,0.08642578125,0.98291015625,-0.227783203125,-1.6479490995407104,0.1220703050494194,1.1901854276657104,100.0,86317.0,1.0
15:33:05.503105,198424.765625,177498.609375,233386.90625,206411.484375,199557.375,171383.34375,686441.4375,201273.4375,0.083740234375,0.982177734375,-0.22802734375,-1.7089842557907104,0.1831054538488388,1.2512205839157104,100.0,86318.0,1.0
15:33:05.507148,198415.90625,177484.125,233371.984375,206406.84375,199543.953125,171348.03125,686411.5625,201271.828125,0.085205078125,0.984619140625,-0.229248046875,-1.6784666776657104,0.2136230319738388,1.1901854276657104,100.0,86319.0,1.0
15:33:05.507216,198413.9375,177480.375,233367.59375,206413.984375,199541.359375,171332.75,686474.5625,201274.609375,0.08544921875,0.984130859375,-0.22998046875,-1.7089842557907104,0.3051757514476776,1.1901854276657104,100.0,86320.0,1.0
15:33:05.509560,198414.296875,177485.90625,233371.984375,206419.625,199548.34375,171357.515625,686494.375,201269.515625,0.0859375,0.984130859375,-0.23095703125,-1.6784666776657104,0.3051757514476776,1.1596678495407104,100.0,86321.0,1.0
15:33:05.519639,198417.703125,177492.890625,233378.78125,206420.875,199552.1875,171377.1875,686433.625,201264.421875,0.08740234375,0.98388671875,-0.22900390625,-1.6784666776657104,0.3967284858226776,1.0986326932907104,100.0,86322.0,1.0
15:33:05.525156,198416.984375,177489.21875,233374.3125,206423.375,199545.296875,171357.953125,686407.4375,201267.640625,0.088134765625,0.98193359375,-0.228515625,-1.6784666776657104,0.4577636420726776,1.0375975370407104,100.0,86323.0,1.0
15:33:05.525231,198413.578125,177481.890625,233372.34375,206429.015625,199540.828125,171338.5625,686462.4375,201275.859375,0.0869140625,0.98193359375,-0.226806640625,-1.6479490995407104,0.3662109076976776,1.0375975370407104,100.0,86324.0,1.0
15:33:05.526975,198418.5,177488.421875,233378.0625,206431.15625,199549.765625,171359.484375,686510.4375,201277.734375,0.0849609375,0.981689453125,-0.2265625,-1.5869139432907104,0.4882812201976776,0.9460448622703552,100.0,86325.0,1.0
15:33:05.534503,198417.15625,177487.078125,233378.78125,206427.40625,199551.5625,171371.09375,686447.4375,201270.3125,0.0859375,0.98193359375,-0.22607421875,-1.6784666776657104,0.5493163466453552,1.0070799589157104,100.0,86326.0,1.0
15:33:05.545181,198415.109375,177482.421875,233370.640625,206425.796875,199541.8125,171352.140625,686409.6875,201267.09375,0.085205078125,0.97998046875,-0.228515625,-1.6174315214157104,0.4882812201976776,0.9765624403953552,100.0,86327.0,1.0
15:33:05.545289,198414.5625,177479.203125,233368.671875,206436.15625,199540.5625,171334.09375,686426.8125,201279.609375,0.08544921875,0.97998046875,-0.226806640625,-1.5869139432907104,0.5187987685203552,0.8850097060203552,100.0,86328.0,1.0
15:33:05.547636,198414.03125,177480.640625,233368.234375,206431.25,199540.109375,171346.15625,686502.5,201273.984375,0.08642578125,0.980224609375,-0.2294921875,-1.6174315214157104,0.5187987685203552,0.8850097060203552,100.0,86329.0,1.0
15:33:05.547727,198411.703125,177483.859375,233373.140625,206424.1875,199545.5625,171371.546875,686448.5625,201264.59375,0.0869140625,0.983642578125,-0.2275390625,-1.6479490995407104,0.5798339247703552,0.8544921278953552,100.0,86330.0,1.0
15:33:05.554492,198411.890625,177484.125,233368.671875,206416.40625,199539.390625,171362.515625,686418.625,201257.265625,0.08740234375,0.985107421875,-0.2275390625,-1.7089842557907104,0.5493163466453552,0.9155272841453552,100.0,86331.0,1.0
15:33:05.562595,198410.640625,177476.53125,233364.375,206426.234375,199537.078125,171337.75,686438.4375,201270.765625,0.087158203125,0.987548828125,-0.22705078125,-1.7395018339157104,0.4882812201976776,0.7629393935203552,100.0,86332.0,1.0
15:33:05.562692,198415.546875,177483.046875,233369.5625,206429.90625,199542.96875,171349.734375,686515.875,201271.5625,0.087158203125,0.988037109375,-0.22509765625,-1.7395018339157104,0.5187987685203552,0.8544921278953552,100.0,86333.0,1.0
15:33:05.565027,198419.9375,177491.453125,233381.109375,206432.765625,199556.734375,171382.28125,686463.0625,201272.8125,0.087158203125,0.987060546875,-0.2255859375,-1.7700194120407104,0.4882812201976776,0.9155272841453552,100.0,86334.0,1.0
15:33:05.565196,198421.625,177493.6875,233379.40625,206427.484375,199552.453125,171379.59375,686422.375,201267.359375,0.087890625,0.98486328125,-0.2275390625,-1.8615721464157104,0.4577636420726776,0.8850097060203552,100.0,86335.0,1.0
15:33:05.577099,198420.921875,177487.703125,233376.625,206437.234375,199549.234375,171356.34375,686429.5,201280.234375,0.08837890625,0.987548828125,-0.2255859375,-1.8920897245407104,0.5187987685203552,0.7934569716453552,100.0,86336.0,1.0
15:33:05.580030,198426.8125,177494.859375,233381.546875,206441.796875,199554.0625,171360.375,686514.8125,201283.09375,0.086669921875,0.98681640625,-0.22705078125,-2.044677495956421,0.4272460639476776,0.6713866591453552,100.0,86337.0,1.0
15:33:05.580250,198433.078125,177509.25,233394.25,206445.8125,199568.984375,171394.796875,686515.625,201284.4375,0.08544921875,0.9853515625,-0.22705078125,-2.166747808456421,0.4882812201976776,0.7324218153953552,100.0,86338.0,1.0
15:33:05.581976,198433.25,177512.46875,233392.640625,206438.75,199566.84375,171400.0625,686470.125,201277.203125,0.083740234375,0.987548828125,-0.224853515625,-2.136230230331421,0.4577636420726776,0.6103515028953552,100.0,86339.0,1.0
15:33:05.597567,198429.765625,177503.609375,233386.640625,206447.609375,199563.890625,171377.265625,686445.25,201289.1875,0.0849609375,0.984375,-0.2255859375,-2.227782964706421,0.3356933295726776,0.7324218153953552,100.0,86340.0,1.0
15:33:05.597648,198425.390625,177497.359375,233381.375,206446.359375,199558.4375,171366.1875,686494.0,201286.671875,0.084228515625,0.983154296875,-0.226806640625,-2.197265386581421,0.3356933295726776,0.7324218153953552,100.0,86341.0,1.0
15:33:05.600559,198422.796875,177497.359375,233385.21875,206439.203125,199564.15625,171388.09375,686487.125,201280.59375,0.083984375,0.98388671875,-0.227783203125,-2.258300542831421,0.2746581733226776,0.7629393935203552,100.0,86342.0,1.0
15:33:05.600641,198415.46875,177491.09375,233379.21875,206423.5625,199556.65625,171387.46875,686433.5625,201267.359375,0.082763671875,0.98583984375,-0.22705078125,-2.227782964706421,0.3356933295726776,0.7019042372703552,100.0,86343.0,1.0
15:33:05.612463,198401.0625,177472.5,233359.828125,206413.8125,199538.328125,171350.984375,686401.1875,201261.640625,0.08251953125,0.98486328125,-0.22802734375,-2.288818120956421,0.0915527269244194,0.5798339247703552,100.0,86344.0,1.0
15:33:05.619454,198391.671875,177461.140625,233347.484375,206410.328125,199526.96875,171329.34375,686467.625,201254.9375,0.082275390625,0.9853515625,-0.22314453125,-2.349853277206421,0.03051757626235485,0.6408690810203552,100.0,86345.0,1.0
15:33:05.619476,198384.796875,177460.25,233346.40625,206401.46875,199526.609375,171346.609375,686494.5,201245.1875,0.083740234375,0.98583984375,-0.220947265625,-2.410888433456421,-0.03051757626235485,0.7324218153953552,100.0,86346.0,1.0
15:33:05.619482,198380.765625,177460.25,233345.515625,206393.609375,199525.0,171356.890625,686445.4375,201234.109375,0.08544921875,0.985595703125,-0.22412109375,-2.319335699081421,0.0610351525247097,0.7019042372703552,100.0,86347.0,1.0
15:33:05.626197,198373.890625,177447.921875,233331.296875,206386.546875,199510.875,171328.71875,686403.4375,201230.0,0.084228515625,0.983642578125,-0.22412109375,-2.410888433456421,0.0610351525247097,0.7934569716453552,100.0,86348.0,1.0
15:33:05.626220,198372.28125,177440.859375,233326.296875,206395.03125,199506.40625,171309.140625,686453.5,201237.328125,0.087158203125,0.9833984375,-0.2265625,-2.288818120956421,0.0,0.8544921278953552,100.0,86349.0,1.0
15:33:05.630604,198377.90625,177447.203125,233333.71875,206397.0,199513.734375,171326.578125,686514.5625,201237.59375,0.085693359375,0.982666015625,-0.22607421875,-2.349853277206421,-0.0915527269244194,0.6713866591453552,100.0,86350.0,1.0
15:33:05.633165,198379.515625,177450.15625,233339.171875,206391.1875,199518.75,171344.28125,686453.1875,201232.5,0.0869140625,0.98486328125,-0.2236328125,-2.319335699081421,-0.0610351525247097,0.6408690810203552,100.0,86351.0,1.0
15:33:05.636914,198377.828125,177446.84375,233331.75,206384.75,199510.078125,171327.46875,686405.0,201230.34375,0.0859375,0.984375,-0.222900390625,-2.471923589706421,-0.1220703050494194,0.6713866591453552,100.0,86352.0,1.0
15:33:05.647521,198376.296875,177442.46875,233328.796875,206394.765625,199506.765625,171307.71875,686433.125,201240.28125,0.08544921875,0.983642578125,-0.224853515625,-2.441406011581421,-0.2136230319738388,0.6103515028953552,100.0,86353.0,1.0
15:33:05.647539,198379.875,177448.09375,233330.5,206394.234375,199509.53125,171321.5625,686507.3125,201235.984375,0.087890625,0.9833984375,-0.22314453125,-2.410888433456421,-0.0915527269244194,0.5493163466453552,100.0,86354.0,1.0
15:33:05.649390,198383.0,177455.0625,233340.15625,206394.5,199520.796875,171349.734375,686448.5,201234.546875,0.086669921875,0.98388671875,-0.223388671875,-2.349853277206421,-0.1220703050494194,0.5798339247703552,100.0,86355.0,1.0
15:33:05.655680,198385.59375,177458.203125,233339.34375,206391.015625,199518.296875,171342.671875,686415.25,201235.171875,0.0869140625,0.984130859375,-0.227294921875,-2.410888433456421,-0.1525878757238388,0.6103515028953552,100.0,86356.0,1.0
15:33:05.666853,198385.953125,177454.796875,233338.28125,206402.546875,199519.1875,171322.90625,686435.25,201253.6875,0.08642578125,0.98486328125,-0.2275390625,-2.349853277206421,-0.1220703050494194,0.5493163466453552,100.0,86357.0,1.0
15:33:05.666870,198392.3125,177463.296875,233344.4375,206404.78125,199524.5625,171334.890625,686515.4375,201253.421875,0.08642578125,0.98583984375,-0.225830078125,-2.319335699081421,-0.1831054538488388,0.4882812201976776,100.0,86358.0,1.0
15:33:05.666875,198399.71875,177474.109375,233358.75,206409.34375,199539.9375,171368.234375,686482.0,201254.046875,0.086181640625,0.983154296875,-0.223876953125,-2.319335699081421,-0.1831054538488388,0.4577636420726776,100.0,86359.0,1.0
15:33:05.691283,198394.0,177467.578125,233348.109375,206397.453125,199527.421875,171354.65625,686421.9375,201239.296875,0.08837890625,0.984375,-0.224853515625,-2.319335699081421,-0.2136230319738388,0.3967284858226776,100.0,86360.0,1.0
15:33:05.691304,198386.84375,177454.4375,233337.109375,206400.21875,199518.125,171322.203125,686421.0625,201247.609375,0.088134765625,0.983154296875,-0.222412109375,-2.319335699081421,-0.1220703050494194,0.4272460639476776,100.0,86361.0,1.0
15:33:05.713484,198387.03125,177451.765625,233334.15625,206397.453125,199515.53125,171317.640625,686497.0,201246.09375,0.088623046875,0.981689453125,-0.224609375,-2.288818120956421,-0.1220703050494194,0.3356933295726776,100.0,86362.0,1.0
15:33:05.716879,198391.140625,177459.359375,233344.53125,206398.078125,199526.96875,171347.59375,686456.8125,201245.640625,0.08935546875,0.9794921875,-0.223388671875,-2.349853277206421,-0.0915527269244194,0.2441406100988388,100.0,86363.0,1.0
15:33:05.716897,198388.015625,177457.03125,233339.96875,206384.65625,199517.40625,171346.15625,686424.5,201233.65625,0.089599609375,0.979248046875,-0.221923828125,-2.197265386581421,0.0,0.3356933295726776,100.0,86364.0,1.0
15:33:05.716905,198384.96875,177449.53125,233332.46875,206388.15625,199510.421875,171322.375,686408.1875,201242.421875,0.089111328125,0.9794921875,-0.22607421875,-2.197265386581421,-0.03051757626235485,0.3356933295726776,100.0,86365.0,1.0
15:33:05.719364,198381.671875,177444.515625,233327.28125,206389.40625,199504.890625,171310.75,686483.875,201243.140625,0.087158203125,0.980224609375,-0.224853515625,-2.075195074081421,0.1525878757238388,0.2441406100988388,100.0,86366.0,1.0
15:33:05.721917,198385.421875,177451.84375,233338.90625,206393.78125,199516.6875,171338.734375,686500.6875,201245.8125,0.0869140625,0.98095703125,-0.22412109375,-2.075195074081421,0.2441406100988388,0.2441406100988388,100.0,86367.0,1.0
15:33:05.724350,198386.5,177454.625,233341.140625,206387.4375,199514.625,171345.890625,686437.8125,201237.765625,0.086669921875,0.981689453125,-0.224365234375,-1.9226073026657104,0.2136230319738388,0.2136230319738388,100.0,86368.0,1.0
15:33:05.726865,198381.84375,177447.203125,233332.90625,206384.75,199505.328125,171321.125,686409.875,201241.078125,0.0869140625,0.98193359375,-0.22607421875,-1.9531248807907104,0.2136230319738388,0.2441406100988388,100.0,86369.0,1.0
15:33:05.729421,198381.84375,177447.640625,233332.015625,206389.140625,199505.0625,171310.65625,686477.4375,201246.09375,0.084716796875,0.98291015625,-0.22314453125,-1.9531248807907104,0.2441406100988388,0.3051757514476776,100.0,86370.0,1.0
15:33:05.734702,198382.65625,177453.90625,233338.359375,206386.09375,199512.84375,171337.21875,686501.125,201242.234375,0.0869140625,0.9814453125,-0.222900390625,-1.8615721464157104,0.2746581733226776,0.3356933295726776,100.0,86371.0,1.0
15:33:05.736915,198385.234375,177460.34375,233344.171875,206385.640625,199517.84375,171356.4375,686438.375,201238.9375,0.086181640625,0.982177734375,-0.22412109375,-1.8615721464157104,0.2136230319738388,0.2441406100988388,100.0,86372.0,1.0
15:33:05.739310,198380.59375,177454.359375,233333.171875,206382.96875,199508.546875,171333.90625,686403.625,201238.75,0.0859375,0.985107421875,-0.225830078125,-1.8005369901657104,0.2136230319738388,0.3356933295726776,100.0,86373.0,1.0
15:33:05.741915,198375.9375,177446.3125,233326.5625,206386.625,199504.4375,171310.296875,686452.5,201244.125,0.087890625,0.987060546875,-0.2265625,-1.8310545682907104,0.2441406100988388,0.3356933295726776,100.0,86374.0,1.0
15:33:05.744351,198380.5,177453.09375,233331.5625,206386.265625,199510.875,171330.421875,686505.875,201241.171875,0.08740234375,0.987548828125,-0.22705078125,-1.7395018339157104,0.3356933295726776,0.3662109076976776,100.0,86375.0,1.0
15:33:05.746879,198385.78125,177462.84375,233339.796875,206384.484375,199517.21875,171355.984375,686447.9375,201235.171875,0.086669921875,0.98828125,-0.22509765625,-1.8005369901657104,0.4577636420726776,0.4577636420726776,100.0,86376.0,1.0
15:33:05.749979,198385.953125,177461.421875,233334.96875,206380.640625,199510.15625,171340.796875,686408.0625,201233.296875,0.087646484375,0.9873046875,-0.225830078125,-1.8310545682907104,0.3662109076976776,0.3967284858226776,100.0,86377.0,1.0
15:33:05.749998,198381.9375,177452.5625,233332.828125,206391.015625,199507.484375,171317.015625,686429.4375,201245.375,0.08740234375,0.985595703125,-0.224609375,-1.9531248807907104,0.3662109076976776,0.4272460639476776,100.0,86378.0,1.0
15:33:05.751938,198383.359375,177456.140625,233335.59375,206390.296875,199510.96875,171328.546875,686509.25,201242.328125,0.084228515625,0.986328125,-0.224609375,-2.014159917831421,0.3967284858226776,0.3662109076976776,100.0,86379.0,1.0
15:33:05.755635,198385.0625,177462.75,233342.75,206386.71875,199518.75,171355.90625,686454.375,201237.6875,0.08154296875,0.988525390625,-0.224609375,-2.014159917831421,0.4272460639476776,0.2746581733226776,100.0,86380.0,1.0
15:33:05.759920,198383.09375,177459.984375,233334.15625,206378.40625,199507.921875,171344.453125,686406.625,201230.625,0.083251953125,0.989013671875,-0.223388671875,-2.014159917831421,0.3356933295726776,0.1220703050494194,100.0,86381.0,1.0
15:33:05.759932,198378.53125,177451.40625,233326.5625,206386.265625,199504.078125,171319.6875,686422.625,201240.8125,0.0791015625,0.989013671875,-0.224853515625,-2.014159917831421,0.2746581733226776,0.03051757626235485,100.0,86382.0,1.0
15:33:05.769994,198374.515625,177449.703125,233322.1875,206381.09375,199499.875,171319.953125,686505.9375,201233.296875,0.077392578125,0.989990234375,-0.225341796875,-2.166747808456421,0.2136230319738388,-0.1220703050494194,100.0,86383.0,1.0
15:33:05.770012,198373.171875,177451.484375,233328.890625,206376.890625,199506.40625,171345.0,686458.25,201228.109375,0.078369140625,0.989990234375,-0.223876953125,-2.197265386581421,0.1525878757238388,-0.3051757514476776,100.0,86384.0,1.0
15:33:05.772483,198372.28125,177450.234375,233324.6875,206366.328125,199499.078125,171340.703125,686416.8125,201219.53125,0.07763671875,0.989990234375,-0.22509765625,-2.197265386581421,0.0915527269244194,-0.3051757514476776,100.0,86385.0,1.0
15:33:05.772496,198370.046875,177442.546875,233319.046875,206373.84375,199494.328125,171314.859375,686410.375,201231.515625,0.078857421875,0.989501953125,-0.22216796875,-2.319335699081421,0.03051757626235485,-0.3051757514476776,100.0,86386.0,1.0
15:33:05.782518,198370.9375,177442.1875,233319.953125,206374.296875,199494.15625,171314.328125,686494.625,201231.421875,0.07861328125,0.98876953125,-0.221435546875,-2.410888433456421,-0.1525878757238388,-0.3662109076976776,100.0,86387.0,1.0
15:33:05.782537,198374.78125,177448.71875,233329.609375,206375.09375,199506.234375,171344.28125,686483.0625,201231.78125,0.080078125,0.987548828125,-0.218994140625,-2.502441167831421,-0.2746581733226776,-0.4272460639476776,100.0,86388.0,1.0
15:33:05.784583,198375.3125,177450.421875,233328.625,206368.125,199501.84375,171345.0,686429.875,201222.9375,0.081298828125,0.986328125,-0.220703125,-2.563476324081421,-0.2441406100988388,-0.2746581733226776,100.0,86389.0,1.0
15:33:05.788165,198374.421875,177443.890625,233323.4375,206375.546875,199497.015625,171319.953125,686416.0,201234.203125,0.08349609375,0.986083984375,-0.220458984375,-2.593993902206421,-0.2746581733226776,-0.2441406100988388,100.0,86390.0,1.0
15:33:05.798811,198375.140625,177442.1875,233322.984375,206378.9375,199495.859375,171312.1875,686489.25,201237.953125,0.084228515625,0.985595703125,-0.220947265625,-2.655029058456421,-0.3356933295726776,-0.1831054538488388,100.0,86391.0,1.0
15:33:05.798832,198379.15625,177449.96875,233332.203125,206380.375,199507.921875,171341.59375,686492.75,201238.484375,0.084228515625,0.98291015625,-0.22265625,-2.624511480331421,-0.3662109076976776,-0.1831054538488388,100.0,86392.0,1.0
15:33:05.801144,198380.5,177454.796875,233334.96875,206374.5625,199508.015625,171353.484375,686428.625,201230.984375,0.084228515625,0.983642578125,-0.22021484375,-2.563476324081421,-0.3662109076976776,-0.03051757626235485,100.0,86393.0,1.0
15:33:05.801155,198378.359375,177449.34375,233330.59375,206380.546875,199500.140625,171331.765625,686400.4375,201238.578125,0.087158203125,0.984130859375,-0.220703125,-2.502441167831421,-0.3967284858226776,0.1220703050494194,100.0,86394.0,1.0
15:33:05.808102,198373.890625,177440.859375,233323.796875,206382.96875,199492.8125,171311.46875,686458.5625,201239.921875,0.08837890625,0.98388671875,-0.22119140625,-2.502441167831421,-0.2441406100988388,0.2746581733226776,100.0,86395.0,1.0
15:33:05.814998,198377.375,177445.234375,233329.78125,206381.890625,199501.75,171333.453125,686513.5625,201239.375,0.087646484375,0.984375,-0.218994140625,-2.563476324081421,-0.1831054538488388,0.4577636420726776,100.0,86396.0,1.0
15:33:05.815016,198376.296875,177446.9375,233330.40625,206375.8125,199502.921875,171347.046875,686446.75,201231.78125,0.08740234375,0.984130859375,-0.21923828125,-2.471923589706421,-0.2441406100988388,0.5798339247703552,100.0,86397.0,1.0
15:33:05.824385,198375.40625,177441.828125,233324.328125,206376.609375,199496.21875,171326.484375,686404.75,201235.71875,0.08544921875,0.984619140625,-0.21923828125,-2.532958745956421,-0.2136230319738388,0.7019042372703552,100.0,86398.0,1.0
15:33:05.828796,198374.515625,177435.84375,233323.703125,206385.5625,199494.96875,171308.0625,686460.0,201245.546875,0.08740234375,0.984619140625,-0.22021484375,-2.471923589706421,-0.1220703050494194,0.7934569716453552,100.0,86399.0,1.0
15:33:05.828819,198376.5625,177441.203125,233327.375,206382.875,199499.96875,171326.390625,686513.3125,201240.625,0.085693359375,0.985107421875,-0.218994140625,-2.441406011581421,-0.1525878757238388,0.9460448622703552,100.0,86400.0,1.0
15:33:05.835060,198376.5625,177445.40625,233333.09375,206380.734375,199506.234375,171346.78125,686449.8125,201235.09375,0.08251953125,0.984375,-0.216796875,-2.471923589706421,-0.1525878757238388,1.0070799589157104,100.0,86401.0,1.0
15:33:05.835129,198376.75,177442.8125,233327.453125,206382.25,199500.234375,171331.671875,686404.875,201235.0,0.0810546875,0.982421875,-0.2158203125,-2.471923589706421,-0.1525878757238388,0.9460448622703552,100.0,86402.0,1.0
15:33:05.837188,198373.0,177437.359375,233324.859375,206391.015625,199497.375,171308.0625,686423.5625,201246.71875,0.079833984375,0.98486328125,-0.216552734375,-2.441406011581421,-0.1220703050494194,1.0070799589157104,100.0,86403.0,1.0
15:33:05.851815,198376.75,177444.515625,233331.03125,206389.40625,199503.1875,171322.375,686509.4375,201245.109375,0.079833984375,0.984130859375,-0.21435546875,-2.410888433456421,-0.0915527269244194,0.9765624403953552,100.0,86404.0,1.0
15:33:05.858057,198381.484375,177452.109375,233342.484375,206389.578125,199512.84375,171352.234375,686446.75,201243.046875,0.0810546875,0.98291015625,-0.216064453125,-2.319335699081421,-0.2441406100988388,0.9765624403953552,100.0,86405.0,1.0
15:33:05.858073,198381.84375,177451.140625,233336.9375,206385.109375,199505.25,171342.046875,686399.6875,201239.109375,0.081298828125,0.98046875,-0.216796875,-2.258300542831421,-0.3662109076976776,0.8239745497703552,100.0,86406.0,1.0
15:33:05.858075,198380.859375,177447.015625,233332.734375,206397.1875,199503.453125,171319.515625,686428.125,201253.328125,0.080810546875,0.97998046875,-0.218505859375,-2.227782964706421,-0.3662109076976776,0.9765624403953552,100.0,86407.0,1.0
15:33:05.861201,198379.875,177449.875,233333.09375,206396.375,199504.171875,171326.046875,686508.9375,201250.109375,0.080810546875,0.98193359375,-0.218017578125,-2.166747808456421,-0.3051757514476776,0.8239745497703552,100.0,86408.0,1.0
15:33:05.861212,198382.203125,177454.4375,233342.484375,206398.609375,199514.1875,171352.140625,686460.9375,201248.59375,0.083251953125,0.981201171875,-0.219482421875,-2.105712652206421,-0.3051757514476776,0.7934569716453552,100.0,86409.0,1.0
15:33:05.870598,198380.953125,177451.046875,233336.21875,206389.765625,199505.953125,171344.1875,686414.625,201238.3125,0.084228515625,0.98095703125,-0.219970703125,-1.9836424589157104,-0.2746581733226776,0.7934569716453552,100.0,86410.0,1.0
15:33:05.877467,198378.0,177442.546875,233331.125,206396.375,199501.578125,171319.0625,686415.9375,201249.578125,0.08447265625,0.982421875,-0.2177734375,-1.9226073026657104,-0.3051757514476776,0.7934569716453552,100.0,86411.0,1.0
15:33:05.877482,198376.484375,177440.3125,233327.71875,206395.921875,199498.625,171313.25,686478.6875,201248.5,0.08740234375,0.982421875,-0.218017578125,-1.8310545682907104,-0.2441406100988388,0.8544921278953552,100.0,86412.0,1.0
15:33:05.880064,198376.84375,177443.0,233333.8125,206395.21875,199508.1875,171340.53125,686460.375,201247.15625,0.086669921875,0.981201171875,-0.22021484375,-1.7395018339157104,-0.2136230319738388,0.7934569716453552,100.0,86413.0,1.0
15:33:05.880076,198377.828125,177445.40625,233333.53125,206386.71875,199505.6875,171345.078125,686419.0625,201239.828125,0.088623046875,0.9814453125,-0.22021484375,-1.7089842557907104,-0.1220703050494194,0.6103515028953552,100.0,86414.0,1.0
15:33:05.894443,198377.46875,177440.046875,233329.6875,206391.375,199502.375,171322.90625,686398.9375,201249.84375,0.0888671875,0.9814453125,-0.22021484375,-1.5869139432907104,-0.1525878757238388,0.6713866591453552,100.0,86415.0,1.0
15:33:05.897418,198378.53125,177440.140625,233329.15625,206394.5,199501.125,171313.875,686463.0625,201251.8125,0.087646484375,0.981689453125,-0.220458984375,-1.4648436307907104,-0.1220703050494194,0.6103515028953552,100.0,86416.0,1.0
15:33:05.897429,198380.765625,177449.34375,233335.328125,206391.90625,199509.0,171342.140625,686478.625,201245.90625,0.08837890625,0.98193359375,-0.21923828125,-1.3427733182907104,-0.0610351525247097,0.6103515028953552,100.0,86417.0,1.0
15:33:05.904932,198378.796875,177450.421875,233331.75,206378.046875,199505.875,171351.4375,686426.5625,201231.328125,0.088623046875,0.98388671875,-0.22021484375,-1.3122557401657104,0.1220703050494194,0.5798339247703552,100.0,86418.0,1.0
15:33:05.904944,198375.40625,177441.921875,233322.546875,206376.703125,199497.203125,171325.6875,686401.8125,201235.09375,0.087890625,0.98583984375,-0.220458984375,-1.4038084745407104,0.1525878757238388,0.6408690810203552,100.0,86419.0,1.0
15:33:05.915230,198376.5625,177439.953125,233325.21875,206383.328125,199496.390625,171312.8125,686475.9375,201242.234375,0.08740234375,0.987548828125,-0.218017578125,-1.2817381620407104,0.2441406100988388,0.6408690810203552,100.0,86420.0,1.0
15:33:05.915313,198380.59375,177447.203125,233331.84375,206385.375,199505.515625,171337.84375,686521.875,201240.90625,0.087158203125,0.986572265625,-0.217529296875,-1.3122557401657104,0.2441406100988388,0.4882812201976776,100.0,86421.0,1.0
15:33:05.917269,198380.0625,177451.3125,233332.109375,206381.171875,199506.859375,171355.71875,686442.25,201231.0625,0.086669921875,0.9853515625,-0.218505859375,-1.2207030057907104,0.2746581733226776,0.5187987685203552,100.0,86422.0,1.0
15:33:05.920623,198382.109375,177451.21875,233327.1875,206382.25,199500.140625,171339.8125,686395.375,201234.203125,0.086181640625,0.984619140625,-0.21875,-1.2207030057907104,0.2441406100988388,0.3967284858226776,100.0,86423.0,1.0
15:33:05.936306,198383.8125,177447.734375,233327.015625,206394.59375,199498.1875,171322.015625,686439.375,201244.484375,0.08544921875,0.986083984375,-0.21923828125,-1.2207030057907104,0.3356933295726776,0.4272460639476776,100.0,86424.0,1.0
15:33:05.936377,198384.265625,177449.96875,233329.0625,206392.53125,199501.578125,171335.875,686494.25,201238.671875,0.08642578125,0.98681640625,-0.219970703125,-1.0986326932907104,0.2746581733226776,0.3662109076976776,100.0,86425.0,1.0
15:33:05.939154,198387.921875,177457.484375,233336.9375,206388.6875,199510.15625,171360.90625,686439.1875,201235.53125,0.083251953125,0.987060546875,-0.218994140625,-1.0681151151657104,0.2746581733226776,0.4272460639476776,100.0,86426.0,1.0
15:33:05.939212,198388.109375,177457.921875,233330.40625,206383.859375,199503.453125,171351.4375,686403.0,201232.671875,0.083740234375,0.988525390625,-0.220947265625,-1.2512205839157104,0.3051757514476776,0.4272460639476776,100.0,86427.0,1.0
15:33:05.941728,198381.390625,177446.125,233322.359375,206387.875,199495.40625,171323.09375,686426.8125,201238.75,0.0830078125,0.9873046875,-0.218017578125,-1.1901854276657104,0.2441406100988388,0.3356933295726776,100.0,86428.0,1.0
15:33:05.941782,198379.25,177445.234375,233324.234375,206383.234375,199495.5,171327.921875,686502.6875,201232.3125,0.08203125,0.9873046875,-0.21923828125,-1.0681151151657104,0.2136230319738388,0.3662109076976776,100.0,86429.0,1.0
15:33:05.955687,198378.265625,177447.28125,233331.03125,206381.0,199502.203125,171350.71875,686449.0,201227.9375,0.082275390625,0.986083984375,-0.21826171875,-1.0070799589157104,0.2136230319738388,0.2746581733226776,100.0,86430.0,1.0
15:33:05.963238,198378.71875,177447.640625,233323.875,206376.34375,199496.03125,171342.21875,686401.625,201222.296875,0.08251953125,0.98583984375,-0.217529296875,-1.0375975370407104,0.2136230319738388,0.2441406100988388,100.0,86431.0,1.0
15:33:05.963327,198373.34375,177439.59375,233316.1875,206380.640625,199489.421875,171316.921875,686423.5625,201229.90625,0.082275390625,0.984375,-0.218994140625,-1.1291502714157104,0.1831054538488388,0.2441406100988388,100.0,86432.0,1.0
15:33:05.963362,198374.328125,177442.28125,233316.375,206378.5,199487.890625,171321.65625,686508.5,201225.609375,0.082275390625,0.982666015625,-0.220947265625,-1.1596678495407104,0.0610351525247097,0.3051757514476776,100.0,86433.0,1.0
15:33:05.966374,198375.59375,177447.640625,233323.34375,206377.78125,199495.3125,171348.03125,686465.3125,201221.140625,0.081787109375,0.9814453125,-0.226318359375,-1.0681151151657104,0.1831054538488388,0.3967284858226776,100.0,86434.0,1.0
15:33:05.966461,198375.859375,177447.921875,233319.5,206369.109375,199489.859375,171344.375,686410.5625,201213.625,0.081787109375,0.981201171875,-0.224609375,-1.0986326932907104,0.1525878757238388,0.4882812201976776,100.0,86435.0,1.0
15:33:05.968680,198371.734375,177438.890625,233313.15625,206375.71875,199485.125,171319.515625,686401.875,201225.25,0.082275390625,0.979248046875,-0.22265625,-0.9460448622703552,0.0610351525247097,0.5187987685203552,100.0,86436.0,1.0
15:33:05.978062,198370.9375,177438.265625,233311.0,206375.71875,199482.890625,171317.453125,686487.0,201223.90625,0.08203125,0.980224609375,-0.224609375,-0.8850097060203552,0.0,0.5187987685203552,100.0,86437.0,1.0
15:33:05.984116,198369.859375,177440.9375,233315.921875,206371.78125,199490.9375,171342.140625,686478.5,201219.265625,0.082275390625,0.98095703125,-0.220703125,-0.8850097060203552,-0.0610351525247097,0.7019042372703552,100.0,86438.0,1.0
15:33:05.985310,198366.109375,177438.796875,233309.84375,206359.0,199482.984375,171340.4375,686414.9375,201206.75,0.08154296875,0.9814453125,-0.22216796875,-0.8544921278953552,-0.0610351525247097,0.6103515028953552,100.0,86439.0,1.0
15:33:05.989454,198359.40625,177429.3125,233301.171875,206360.875,199473.140625,171314.234375,686406.8125,201212.296875,0.0810546875,0.9794921875,-0.221923828125,-0.8544921278953552,-0.1220703050494194,0.5493163466453552,100.0,86440.0,1.0
15:33:05.996356,198357.171875,177425.828125,233298.578125,206363.921875,199469.921875,171304.046875,686479.0625,201214.53125,0.080078125,0.980224609375,-0.22216796875,-0.7324218153953552,-0.2441406100988388,0.7019042372703552,100.0,86441.0,1.0
15:33:05.996433,198357.609375,177431.109375,233305.90625,206364.453125,199479.578125,171329.796875,686491.8125,201212.015625,0.0771484375,0.98291015625,-0.22412109375,-0.8239745497703552,-0.2746581733226776,0.5493163466453552,100.0,86442.0,1.0
15:33:05.998230,198354.578125,177431.109375,233304.484375,206355.875,199476.1875,171336.046875,686434.1875,201200.9375,0.076416015625,0.984375,-0.228759765625,-0.8239745497703552,-0.3356933295726776,0.3967284858226776,100.0,86443.0,1.0
15:33:06.014535,198353.234375,177425.390625,233297.328125,206353.640625,199469.921875,171312.1875,686408.5,201206.65625,0.076171875,0.98681640625,-0.22509765625,-0.7934569716453552,-0.4272460639476776,0.3967284858226776,100.0,86444.0,1.0
15:33:06.027380,198352.609375,177421.984375,233292.328125,206356.59375,199466.984375,171296.625,686467.0,201211.578125,0.076171875,0.98681640625,-0.225830078125,-0.8239745497703552,-0.4272460639476776,0.4577636420726776,100.0,86445.0,1.0
15:33:06.027475,198352.78125,177426.015625,233296.703125,206353.375,199472.25,171317.28125,686508.3125,201206.390625,0.074951171875,0.989990234375,-0.224853515625,-0.8850097060203552,-0.5493163466453552,0.4882812201976776,100.0,86446.0,1.0
15:33:06.027506,198354.9375,177433.515625,233302.6875,206350.78125,199476.984375,171336.765625,686440.375,201202.546875,0.077880859375,0.988037109375,-0.22705078125,-0.9155272841453552,-0.6713866591453552,0.3967284858226776,100.0,86447.0,1.0
15:33:06.057492,198348.40625,177427.078125,233291.34375,206344.875,199466.53125,171316.5625,686392.75,201199.59375,0.078125,0.990234375,-0.2216796875,-0.9765624403953552,-0.6408690810203552,0.3662109076976776,100.0,86448.0,1.0
15:33:06.057519,198346.34375,177420.640625,233287.84375,206352.03125,199462.953125,171298.0625,686439.875,201207.828125,0.08154296875,0.989013671875,-0.224365234375,-1.0375975370407104,-0.8239745497703552,0.4272460639476776,100.0,86449.0,1.0
15:33:06.081919,198356.0,177432.09375,233298.40625,206358.734375,199475.03125,171323.625,686504.0625,201211.390625,0.0810546875,0.989013671875,-0.224365234375,-1.0375975370407104,-0.8239745497703552,0.5493163466453552,100.0,86450.0,1.0
15:33:06.103301,198358.328125,177436.46875,233305.1875,206358.46875,199483.15625,171344.71875,686440.0625,201206.921875,0.083984375,0.990234375,-0.224853515625,-1.1901854276657104,-0.9155272841453552,0.4882812201976776,100.0,86451.0,1.0
15:33:06.105711,198352.703125,177428.25,233294.46875,206351.5,199471.53125,171322.90625,686400.75,201200.671875,0.08447265625,0.988037109375,-0.224365234375,-1.3122557401657104,-0.9155272841453552,0.4577636420726776,100.0,86452.0,1.0
15:33:06.108276,198348.3125,177421.09375,233288.828125,206358.640625,199468.234375,171299.9375,686425.6875,201210.6875,0.084716796875,0.98974609375,-0.222412109375,-1.3427733182907104,-0.9155272841453552,0.6103515028953552,100.0,86453.0,1.0
15:33:06.110669,198348.140625,177423.78125,233289.640625,206354.71875,199469.03125,171308.15625,686504.0,201204.953125,0.0859375,0.988525390625,-0.22314453125,-1.4343260526657104,-0.8544921278953552,0.5798339247703552,100.0,86454.0,1.0
15:33:06.113311,198351.53125,177429.40625,233299.390625,206353.8125,199477.96875,171335.421875,686440.8125,201201.296875,0.087890625,0.9892578125,-0.222900390625,-1.5258787870407104,-0.7324218153953552,0.5798339247703552,100.0,86455.0,1.0
15:33:06.115666,198353.6875,177428.875,233294.46875,206348.0,199472.515625,171326.21875,686404.9375,201196.90625,0.087646484375,0.98779296875,-0.224365234375,-1.5869139432907104,-0.7629393935203552,0.6408690810203552,100.0,86456.0,1.0
15:33:06.118292,198349.75,177419.296875,233289.28125,206356.953125,199468.59375,171299.578125,686417.5625,201209.15625,0.0869140625,0.98486328125,-0.2255859375,-1.7700194120407104,-0.7934569716453552,0.5493163466453552,100.0,86457.0,1.0
15:33:06.120821,198355.109375,177426.1875,233295.71875,206361.6875,199472.25,171306.90625,686494.4375,201211.390625,0.084716796875,0.986328125,-0.224609375,-1.7700194120407104,-0.6713866591453552,0.7324218153953552,100.0,86458.0,1.0
15:33:06.123231,198354.390625,177429.40625,233304.125,206360.34375,199479.40625,171333.8125,686447.4375,201207.109375,0.086181640625,0.98486328125,-0.222412109375,-1.7395018339157104,-0.6408690810203552,0.8544921278953552,100.0,86459.0,1.0
15:33:06.125648,198349.390625,177425.5625,233297.234375,206346.9375,199470.375,171328.453125,686406.75,201194.046875,0.0849609375,0.985595703125,-0.222900390625,-1.7395018339157104,-0.6103515028953552,0.7934569716453552,100.0,86460.0,1.0
15:33:06.128504,198346.078125,177416.890625,233290.4375,206353.640625,199466.625,171302.96875,686395.625,201205.046875,0.08544921875,0.984375,-0.224365234375,-1.8920897245407104,-0.5187987685203552,0.6713866591453552,100.0,86461.0,1.0
15:33:06.131065,198343.9375,177414.828125,233288.65625,206353.28125,199463.765625,171297.15625,686473.4375,201204.0625,0.083740234375,0.984619140625,-0.225341796875,-1.9531248807907104,-0.5798339247703552,0.7019042372703552,100.0,86462.0,1.0
15:33:06.133128,198343.578125,177420.28125,233297.78125,206350.59375,199473.6875,171325.765625,686463.5625,201200.578125,0.08544921875,0.984130859375,-0.224609375,-1.9226073026657104,-0.4882812201976776,0.6713866591453552,100.0,86463.0,1.0
15:33:06.135801,198347.0625,177425.828125,233301.703125,206345.140625,199473.953125,171335.78125,686409.5,201193.421875,0.083984375,0.982666015625,-0.2255859375,-1.9836424589157104,-0.3967284858226776,0.6103515028953552,100.0,86464.0,1.0
15:33:06.138231,198345.640625,177420.015625,233295.09375,206352.484375,199469.5625,171310.75,686397.8125,201203.078125,0.082763671875,0.982666015625,-0.22607421875,-1.9226073026657104,-0.3356933295726776,0.5493163466453552,100.0,86465.0,1.0
15:33:06.140660,198343.84375,177416.09375,233291.34375,206354.71875,199466.0,171296.09375,686472.8125,201204.6875,0.082763671875,0.984619140625,-0.224853515625,-1.9226073026657104,-0.2746581733226776,0.5187987685203552,100.0,86466.0,1.0
15:33:06.143174,198346.703125,177422.4375,233298.484375,206352.921875,199475.828125,171321.5625,686480.6875,201202.28125,0.081298828125,0.984375,-0.224365234375,-2.075195074081421,-0.2441406100988388,0.4882812201976776,100.0,86467.0,1.0
15:33:06.145702,198347.0625,177424.765625,233297.859375,206343.359375,199474.9375,171331.3125,686424.6875,201193.78125,0.081298828125,0.984375,-0.224365234375,-2.075195074081421,-0.1831054538488388,0.5187987685203552,100.0,86468.0,1.0
15:33:06.148794,198346.078125,177419.390625,233294.734375,206346.21875,199469.484375,171309.953125,686394.5625,201201.296875,0.081787109375,0.98779296875,-0.22265625,-2.136230230331421,-0.2136230319738388,0.4272460639476776,100.0,86469.0,1.0
15:33:06.150584,198348.140625,177419.125,233299.828125,206357.03125,199470.28125,171297.15625,686452.4375,201212.921875,0.080810546875,0.985595703125,-0.22412109375,-2.166747808456421,-0.2746581733226776,0.4882812201976776,100.0,86470.0,1.0
15:33:06.153178,198350.1875,177426.28125,233305.109375,206357.03125,199477.96875,171320.59375,686498.25,201208.265625,0.08251953125,0.98779296875,-0.221923828125,-2.288818120956421,-0.2441406100988388,0.5187987685203552,100.0,86471.0,1.0
15:33:06.156849,198345.8125,177425.109375,233302.15625,206346.484375,199475.734375,171334.4375,686431.3125,201194.3125,0.08251953125,0.985595703125,-0.22119140625,-2.349853277206421,-0.3662109076976776,0.4577636420726776,100.0,86472.0,1.0
15:33:06.156886,198341.875,177418.765625,233291.6875,206340.578125,199467.15625,171314.5,686393.875,201195.03125,0.081298828125,0.987060546875,-0.22412109375,-2.380370855331421,-0.2746581733226776,0.3967284858226776,100.0,86473.0,1.0
15:33:06.156896,198338.125,177410.625,233288.125,206345.6875,199463.84375,171292.609375,686453.9375,201201.734375,0.080810546875,0.986572265625,-0.224609375,-2.380370855331421,-0.2746581733226776,0.4882812201976776,100.0,86474.0,1.0
15:33:06.163679,198338.921875,177413.3125,233289.109375,206340.765625,199464.65625,171304.9375,686517.9375,201195.125,0.081787109375,0.988525390625,-0.224365234375,-2.502441167831421,-0.2441406100988388,0.5493163466453552,100.0,86475.0,1.0
15:33:06.163695,198341.703125,177419.296875,233295.1875,206338.34375,199470.203125,171329.796875,686448.9375,201189.21875,0.080810546875,0.98779296875,-0.224609375,-2.410888433456421,-0.2136230319738388,0.5187987685203552,100.0,86476.0,1.0
15:33:06.167109,198342.78125,177419.578125,233289.375,206332.625,199464.203125,171319.15625,686401.375,201185.015625,0.081787109375,0.988525390625,-0.226318359375,-2.593993902206421,-0.2136230319738388,0.6713866591453552,100.0,86477.0,1.0
15:33:06.167164,198341.25,177415.375,233285.25,206340.671875,199461.703125,171297.96875,686421.3125,201195.296875,0.0810546875,0.98681640625,-0.22314453125,-2.532958745956421,-0.4272460639476776,0.7934569716453552,100.0,86478.0,1.0
15:33:06.167181,198343.046875,177417.15625,233287.3125,206339.78125,199464.03125,171305.46875,686500.8125,201193.421875,0.081787109375,0.98583984375,-0.22265625,-2.532958745956421,-0.4272460639476776,0.6713866591453552,100.0,86479.0,1.0
15:33:06.170033,198346.34375,177424.671875,233296.796875,206342.90625,199474.75,171332.484375,686448.375,201192.703125,0.080322265625,0.985107421875,-0.221923828125,-2.532958745956421,-0.4882812201976776,0.7934569716453552,100.0,86480.0,1.0
15:33:06.170090,198346.34375,177424.484375,233291.515625,206335.9375,199468.3125,171324.15625,686399.0625,201187.4375,0.0810546875,0.98486328125,-0.2216796875,-2.593993902206421,-0.3662109076976776,0.8239745497703552,100.0,86481.0,1.0
15:33:06.171917,198340.53125,177414.828125,233283.203125,206338.796875,199461.515625,171298.953125,686397.8125,201195.296875,0.082275390625,0.985107421875,-0.22119140625,-2.624511480331421,-0.3051757514476776,0.8239745497703552,100.0,86482.0,1.0
15:33:06.175032,198339.28125,177413.765625,233280.875,206335.578125,199459.015625,171299.84375,686482.25,201190.203125,0.08154296875,0.98583984375,-0.222900390625,-2.532958745956421,-0.4272460639476776,0.8850097060203552,100.0,86483.0,1.0
15:33:06.175086,198339.90625,177418.234375,233287.578125,206334.234375,199468.40625,171327.296875,686451.0625,201187.96875,0.08056640625,0.98388671875,-0.22314453125,-2.502441167831421,-0.4272460639476776,0.8850097060203552,100.0,86484.0,1.0
15:33:06.177062,198337.671875,177418.140625,233281.5,206327.53125,199462.15625,171324.4375,686399.125,201179.484375,0.08251953125,0.986328125,-0.218994140625,-2.471923589706421,-0.4272460639476776,0.9460448622703552,100.0,86485.0,1.0
15:33:06.179355,198331.59375,177407.953125,233275.421875,206333.25,199455.890625,171298.234375,686401.4375,201190.390625,0.08154296875,0.98388671875,-0.21923828125,-2.410888433456421,-0.4882812201976776,1.0375975370407104,100.0,86486.0,1.0
15:33:06.181993,198327.390625,177401.875,233270.234375,206332.265625,199449.71875,171287.78125,686480.375,201187.25,0.082763671875,0.982666015625,-0.2216796875,-2.441406011581421,-0.4882812201976776,1.0070799589157104,100.0,86487.0,1.0
15:33:06.184782,198330.875,177408.046875,233279.171875,206334.859375,199460.984375,171315.578125,686465.1875,201186.625,0.08154296875,0.985107421875,-0.22216796875,-2.410888433456421,-0.4272460639476776,1.0375975370407104,100.0,86488.0,1.0
15:33:06.186975,198333.125,177413.765625,233281.40625,206328.96875,199459.90625,171322.828125,686414.3125,201178.671875,0.083740234375,0.982421875,-0.220703125,-2.380370855331421,-0.3662109076976776,1.0681151151657104,100.0,86489.0,1.0
15:33:06.190049,198328.640625,177405.171875,233271.671875,206331.734375,199451.59375,171296.71875,686392.0625,201184.84375,0.084716796875,0.982421875,-0.217041015625,-2.410888433456421,-0.3967284858226776,1.0681151151657104,100.0,86490.0,1.0
15:33:06.190096,198324.625,177402.140625,233266.03125,206332.0,199446.40625,171285.984375,686463.6875,201184.3125,0.083984375,0.98046875,-0.216796875,-2.349853277206421,-0.2746581733226776,1.0986326932907104,100.0,86491.0,1.0
15:33:06.216185,198325.96875,177409.375,233272.03125,206329.671875,199455.0,171311.734375,686489.4375,201182.609375,0.08349609375,0.9814453125,-0.21923828125,-2.166747808456421,-0.2746581733226776,1.1901854276657104,100.0,86492.0,1.0
15:33:06.216256,198330.53125,177417.0625,233276.578125,206327.0,199458.390625,171326.125,686425.25,201177.6875,0.084716796875,0.982421875,-0.21923828125,-2.136230230331421,-0.3662109076976776,1.1901854276657104,100.0,86493.0,1.0
15:33:06.216272,198327.84375,177411.265625,233269.34375,206328.421875,199450.703125,171302.25,686398.125,201182.703125,0.082275390625,0.9814453125,-0.220947265625,-2.075195074081421,-0.3662109076976776,1.2512205839157104,100.0,86494.0,1.0
15:33:06.218218,198325.15625,177404.46875,233264.875,206333.796875,199445.875,171284.90625,686451.5,201188.328125,0.08349609375,0.982666015625,-0.22216796875,-2.044677495956421,-0.2746581733226776,1.1596678495407104,100.0,86495.0,1.0
15:33:06.221223,198325.515625,177406.4375,233267.828125,206334.953125,199450.796875,171303.234375,686502.5625,201184.390625,0.083251953125,0.984130859375,-0.22021484375,-2.136230230331421,-0.2441406100988388,1.2207030057907104,100.0,86496.0,1.0
15:33:06.221249,198327.21875,177410.984375,233273.71875,206334.6875,199454.734375,171322.640625,686441.4375,201179.84375,0.08349609375,0.985595703125,-0.22021484375,-1.9531248807907104,-0.2136230319738388,1.1596678495407104,100.0,86497.0,1.0
15:33:06.223106,198325.34375,177406.609375,233268.0,206330.84375,199449.09375,171305.03125,686403.125,201182.34375,0.0849609375,0.984130859375,-0.21826171875,-1.9226073026657104,-0.0915527269244194,1.1901854276657104,100.0,86498.0,1.0
15:33:06.225662,198319.265625,177399.453125,233259.953125,206335.3125,199442.125,171282.046875,686446.25,201188.859375,0.08447265625,0.98486328125,-0.217529296875,-1.8920897245407104,-0.2441406100988388,1.3122557401657104,100.0,86499.0,1.0
15:33:06.233110,198318.8125,177403.921875,233261.203125,206331.109375,199445.78125,171298.234375,686512.6875,201182.609375,0.083984375,0.984375,-0.21533203125,-1.9226073026657104,-0.1220703050494194,1.2512205839157104,100.0,86500.0,1.0
15:33:06.235650,198319.53125,177407.140625,233267.734375,206324.3125,199451.15625,171319.78125,686450.375,201177.421875,0.08447265625,0.984375,-0.217529296875,-1.9836424589157104,-0.0915527269244194,1.2207030057907104,100.0,86501.0,1.0
15:33:06.272464,198318.71875,177404.109375,233263.0,206318.0625,199442.125,171304.765625,686402.25,201173.671875,0.085205078125,0.98681640625,-0.218505859375,-1.9226073026657104,0.0,1.2512205839157104,100.0,86502.0,1.0
15:33:06.272483,198318.8125,177399.28125,233261.65625,206332.0,199441.578125,171285.625,686424.0,201186.546875,0.085693359375,0.9873046875,-0.21484375,-2.014159917831421,0.03051757626235485,1.1901854276657104,100.0,86503.0,1.0
15:33:06.274954,198318.640625,177399.90625,233263.0,206331.640625,199442.484375,171291.703125,686513.125,201181.359375,0.0849609375,0.986572265625,-0.214599609375,-1.9531248807907104,0.1220703050494194,1.2207030057907104,100.0,86504.0,1.0
15:33:06.274972,198318.90625,177403.84375,233269.171875,206331.109375,199450.53125,171316.109375,686459.5,201175.8125,0.0859375,0.9853515625,-0.21826171875,-1.9531248807907104,0.1525878757238388,1.2817381620407104,100.0,86505.0,1.0
15:33:06.295663,198317.65625,177402.140625,233262.28125,206321.90625,199441.5,171307.890625,686405.375,201168.03125,0.08642578125,0.984619140625,-0.21728515625,-1.9226073026657104,0.2441406100988388,1.2207030057907104,100.0,86506.0,1.0
15:33:06.298172,198314.34375,177394.71875,233255.75,206327.359375,199437.734375,171282.859375,686400.9375,201178.9375,0.0849609375,0.984619140625,-0.215576171875,-1.8615721464157104,0.2746581733226776,1.2817381620407104,100.0,86507.0,1.0
15:33:06.300620,198318.546875,177396.78125,233257.09375,206330.65625,199440.421875,171283.65625,686488.8125,201177.875,0.084716796875,0.9853515625,-0.218505859375,-1.9531248807907104,0.2441406100988388,1.2817381620407104,100.0,86508.0,1.0
15:33:06.303113,198326.5,177409.296875,233273.640625,206338.890625,199459.5625,171320.40625,686462.0625,201183.5,0.08447265625,0.986572265625,-0.21728515625,-1.8920897245407104,0.2746581733226776,1.2512205839157104,100.0,86509.0,1.0
15:33:06.305570,198323.8125,177407.40625,233267.203125,206326.375,199451.875,171316.109375,686413.0625,201173.484375,0.083984375,0.983642578125,-0.2177734375,-1.8310545682907104,0.2136230319738388,1.1901854276657104,100.0,86510.0,1.0
15:33:06.308307,198312.546875,177388.109375,233250.203125,206325.03125,199435.0625,171277.21875,686404.5625,201173.75,0.0849609375,0.984619140625,-0.21875,-1.8310545682907104,0.2136230319738388,1.1901854276657104,100.0,86511.0,1.0
15:33:06.310914,198317.296875,177390.515625,233253.34375,206332.359375,199438.359375,171274.1875,686491.5625,201178.046875,0.084716796875,0.984130859375,-0.21923828125,-1.8310545682907104,0.3051757514476776,1.2512205839157104,100.0,86512.0,1.0
15:33:06.316391,198320.6875,177396.953125,233262.1875,206333.703125,199447.84375,171301.546875,686459.1875,201176.53125,0.086181640625,0.98583984375,-0.21875,-1.9226073026657104,0.2441406100988388,1.2512205839157104,100.0,86513.0,1.0
15:33:06.318139,198314.515625,177391.765625,233253.703125,206317.421875,199436.046875,171299.390625,686409.9375,201159.265625,0.08642578125,0.9833984375,-0.217041015625,-1.8005369901657104,0.3967284858226776,1.2207030057907104,100.0,86514.0,1.0
15:33:06.320606,198315.6875,177388.90625,233253.15625,206324.3125,199435.5,171280.890625,686391.8125,201171.609375,0.0869140625,0.983154296875,-0.219970703125,-1.8005369901657104,0.3051757514476776,1.2512205839157104,100.0,86515.0,1.0
15:33:06.323367,198311.75,177384.4375,233251.015625,206322.96875,199430.953125,171267.65625,686471.1875,201173.40625,0.0859375,0.983154296875,-0.21826171875,-1.7700194120407104,0.2441406100988388,1.2207030057907104,100.0,86516.0,1.0
15:33:06.325616,198308.078125,177384.703125,233252.890625,206314.484375,199432.015625,171287.0625,686495.75,201163.203125,0.0859375,0.984619140625,-0.219482421875,-1.6784666776657104,0.2746581733226776,1.2512205839157104,100.0,86517.0,1.0
15:33:06.328188,198313.8125,177392.75,233260.671875,206317.609375,199437.46875,171303.6875,686432.75,201161.5,0.0849609375,0.98583984375,-0.21533203125,-1.6479490995407104,0.3051757514476776,1.2512205839157104,100.0,86518.0,1.0
15:33:06.330598,198312.109375,177386.84375,233254.6875,206326.8125,199431.484375,171281.421875,686398.75,201164.28125,0.084228515625,0.984619140625,-0.217041015625,-1.6174315214157104,0.3051757514476776,1.3427733182907104,100.0,86519.0,1.0
15:33:06.333658,198311.21875,177382.921875,233253.96875,206334.5,199432.375,171268.109375,686457.25,201170.8125,0.08447265625,0.984619140625,-0.218017578125,-1.5258787870407104,0.3051757514476776,1.3427733182907104,100.0,86520.0,1.0
15:33:06.333673,198304.953125,177379.34375,233250.65625,206331.46875,199430.40625,171279.09375,686493.4375,201161.234375,0.08544921875,0.98486328125,-0.219482421875,-1.5563963651657104,0.2441406100988388,1.1901854276657104,100.0,86521.0,1.0
15:33:06.336220,198302.546875,177380.140625,233252.796875,206326.375,199432.203125,171292.25,686426.6875,201151.671875,0.085693359375,0.985107421875,-0.21875,-1.5563963651657104,0.3356933295726776,1.1291502714157104,100.0,86522.0,1.0
15:33:06.336234,198300.3125,177375.765625,233245.03125,206325.296875,199425.046875,171273.109375,686396.25,201152.75,0.085693359375,0.986328125,-0.215087890625,-1.4038084745407104,0.3356933295726776,1.1901854276657104,100.0,86523.0,1.0
15:33:06.338447,198294.40625,177364.671875,233237.15625,206327.265625,199417.171875,171249.0625,686453.5,201157.75,0.086669921875,0.986328125,-0.214111328125,-1.4343260526657104,0.3662109076976776,1.1596678495407104,100.0,86524.0,1.0
15:33:06.341396,198297.625,177372.1875,233241.71875,206327.265625,199423.078125,171269.796875,686505.6875,201155.78125,0.08740234375,0.986083984375,-0.214111328125,-1.4953612089157104,0.3356933295726776,1.2512205839157104,100.0,86525.0,1.0
15:33:06.341419,198301.640625,177382.109375,233250.203125,206328.875,199432.90625,171296.359375,686444.8125,201153.546875,0.08544921875,0.98828125,-0.21484375,-1.4953612089157104,0.3051757514476776,1.1901854276657104,100.0,86526.0,1.0
15:33:06.347018,198300.390625,177379.078125,233242.78125,206328.6875,199424.234375,171279.734375,686407.375,201150.953125,0.084228515625,0.9853515625,-0.217529296875,-1.4648436307907104,0.2746581733226776,1.2512205839157104,100.0,86527.0,1.0
15:33:06.348118,198304.234375,177376.75,233245.109375,206364.90625,199426.5625,171263.1875,686422.75,201166.0625,0.085693359375,0.9833984375,-0.217529296875,-1.4343260526657104,0.3051757514476776,1.1901854276657104,100.0,86528.0,1.0
15:33:06.352066,198311.21875,177386.671875,233253.078125,206383.59375,199435.0625,171280.4375,686515.375,201168.921875,0.085693359375,0.9853515625,-0.217041015625,-1.4343260526657104,0.1831054538488388,1.1291502714157104,100.0,86529.0,1.0
15:33:06.352079,198314.796875,177397.84375,233262.90625,206388.15625,199446.953125,171313.4375,686475.375,201168.84375,0.084228515625,0.986328125,-0.219970703125,-1.4038084745407104,0.1220703050494194,1.1901854276657104,100.0,86530.0,1.0
15:33:06.353704,198315.5,177399.09375,233257.625,206379.65625,199440.25,171307.984375,686431.25,201161.234375,0.085693359375,0.986328125,-0.2177734375,-1.4343260526657104,0.1831054538488388,1.0986326932907104,100.0,86531.0,1.0
15:33:06.353721,198310.140625,177389.890625,233251.28125,206386.09375,199435.953125,171282.3125,686440.875,201171.796875,0.086181640625,0.986572265625,-0.218994140625,-1.3427733182907104,0.1525878757238388,1.0986326932907104,100.0,86532.0,1.0
15:33:06.364380,198313.265625,177393.015625,233255.125,206387.34375,199439.796875,171290.453125,686511.75,201174.203125,0.087890625,0.98681640625,-0.218017578125,-1.3122557401657104,0.0915527269244194,1.0375975370407104,100.0,86533.0,1.0
15:33:06.373631,198317.65625,177400.0,233266.65625,206389.765625,199452.140625,171319.15625,686464.0625,201176.703125,0.086669921875,0.986328125,-0.218017578125,-1.3427733182907104,0.0610351525247097,1.1291502714157104,100.0,86534.0,1.0
15:33:06.373650,198306.75,177388.453125,233251.640625,206369.015625,199434.609375,171303.953125,686422.375,201156.671875,0.08935546875,0.98486328125,-0.22216796875,-1.3427733182907104,0.03051757626235485,1.1291502714157104,100.0,86535.0,1.0
15:33:06.373654,198294.21875,177371.65625,233235.90625,206364.546875,199419.859375,171269.71875,686404.125,201158.203125,0.08740234375,0.98388671875,-0.21923828125,-1.3732908964157104,0.0915527269244194,1.0681151151657104,100.0,86536.0,1.0
15:33:06.375644,198280.1875,177356.09375,233219.1875,206352.484375,199405.109375,171248.25,686482.625,201146.390625,0.08642578125,0.984375,-0.21923828125,-1.3732908964157104,0.03051757626235485,1.0681151151657104,100.0,86537.0,1.0
15:33:06.380966,198272.59375,177352.34375,233217.578125,206343.53125,199407.25,171265.328125,686457.9375,201136.03125,0.087646484375,0.984130859375,-0.22216796875,-1.3122557401657104,0.0915527269244194,1.0375975370407104,100.0,86538.0,1.0
15:33:06.383105,198271.25,177352.078125,233214.53125,206333.609375,199403.140625,171267.75,686394.5625,201126.015625,0.0869140625,0.986328125,-0.2216796875,-1.1901854276657104,0.1525878757238388,1.0681151151657104,100.0,86539.0,1.0
15:33:06.389390,198270.984375,177347.15625,233210.515625,206338.4375,199399.109375,171243.515625,686379.25,201135.9375,0.088134765625,0.984619140625,-0.218994140625,-1.3122557401657104,0.0915527269244194,0.9460448622703552,100.0,86540.0,1.0
15:33:06.394015,198273.578125,177346.890625,233212.84375,206347.65625,199398.40625,171234.578125,686456.625,201141.65625,0.087890625,0.985107421875,-0.220703125,-1.1596678495407104,0.0915527269244194,0.9765624403953552,100.0,86541.0,1.0
15:33:06.394031,198272.140625,177349.125,233217.75,206350.515625,199403.3125,171258.53125,686470.375,201137.28125,0.088623046875,0.984130859375,-0.222412109375,-1.1291502714157104,0.03051757626235485,0.9460448622703552,100.0,86542.0,1.0
15:33:06.399386,198272.328125,177352.875,233218.5625,206348.90625,199402.515625,171271.6875,686416.3125,201128.96875,0.08740234375,0.983154296875,-0.219970703125,-1.0986326932907104,0.0,0.9765624403953552,100.0,86543.0,1.0
15:33:06.434953,198269.28125,177345.453125,233210.0625,206348.453125,199393.03125,171247.359375,686380.1875,201131.375,0.087646484375,0.98193359375,-0.2177734375,-1.1291502714157104,0.1220703050494194,1.0681151151657104,100.0,86544.0,1.0
15:33:06.434977,198270.171875,177342.765625,233209.796875,206353.734375,199391.875,171231.890625,686438.125,201139.6875,0.086181640625,0.98388671875,-0.21728515625,-1.1901854276657104,0.1220703050494194,1.0070799589157104,100.0,86545.0,1.0
15:33:06.452138,198274.375,177349.921875,233216.234375,206353.109375,199398.765625,171255.40625,686495.3125,201137.015625,0.085693359375,0.986083984375,-0.21875,-1.1901854276657104,0.1220703050494194,0.9765624403953552,100.0,86546.0,1.0
15:33:06.452182,198275.453125,177356.0,233219.90625,206349.4375,199400.90625,171275.171875,686437.8125,201129.765625,0.086181640625,0.98486328125,-0.218017578125,-1.1291502714157104,0.1220703050494194,0.9155272841453552,100.0,86547.0,1.0
15:33:06.454393,198273.84375,177353.5,233212.5625,206349.078125,199393.484375,171257.734375,686394.0,201130.484375,0.0849609375,0.98779296875,-0.2197265625,-1.0375975370407104,0.03051757626235485,0.8239745497703552,100.0,86548.0,1.0
15:33:06.456895,198270.625,177348.40625,233210.875,206360.171875,199390.796875,171239.5,686438.125,201138.625,0.084228515625,0.985107421875,-0.21533203125,-1.0681151151657104,0.0610351525247097,0.7629393935203552,100.0,86549.0,1.0
15:33:06.459383,198268.75,177348.40625,233212.03125,206358.828125,199391.78125,171249.6875,686494.8125,201130.125,0.0849609375,0.983154296875,-0.2197265625,-1.0986326932907104,-0.0610351525247097,0.7934569716453552,100.0,86550.0,1.0
15:33:06.461947,198269.375,177352.078125,233216.40625,206352.484375,199397.6875,171269.265625,686431.875,201123.59375,0.086669921875,0.984375,-0.219970703125,-1.1291502714157104,-0.1220703050494194,0.6408690810203552,100.0,86551.0,1.0
15:33:06.464988,198269.90625,177350.734375,233208.28125,206341.296875,199389.8125,171255.3125,686398.125,201120.109375,0.0869140625,0.982421875,-0.220458984375,-1.0986326932907104,-0.1525878757238388,0.6713866591453552,100.0,86552.0,1.0
15:33:06.466907,198266.0625,177341.25,233202.828125,206348.09375,199384.8125,171230.734375,686427.5,201130.21875,0.08740234375,0.983154296875,-0.22119140625,-1.1596678495407104,-0.1220703050494194,0.7324218153953552,100.0,86553.0,1.0
15:33:06.470506,198265.609375,177344.828125,233205.6875,206349.4375,199385.890625,171239.765625,686501.3125,201126.109375,0.090087890625,0.981689453125,-0.22265625,-1.0986326932907104,-0.1220703050494194,0.8850097060203552,100.0,86554.0,1.0
15:33:06.477092,198267.765625,177354.484375,233215.078125,206350.59375,199397.234375,171272.84375,686440.0625,201123.515625,0.092041015625,0.980712890625,-0.2216796875,-1.0986326932907104,-0.1220703050494194,0.9155272841453552,100.0,86555.0,1.0
15:33:06.477597,198270.984375,177357.34375,233214.53125,206340.140625,199391.703125,171272.3125,686394.75,201118.5,0.092529296875,0.9814453125,-0.21826171875,-1.0375975370407104,-0.03051757626235485,0.9155272841453552,100.0,86556.0,1.0
15:33:06.479381,198270.171875,177350.46875,233213.109375,206347.65625,199390.171875,171250.21875,686418.8125,201134.0625,0.092529296875,0.981201171875,-0.220703125,-1.0986326932907104,0.03051757626235485,0.8544921278953552,100.0,86557.0,1.0
15:33:06.482469,198275.1875,177354.75,233216.6875,206345.40625,199393.3125,171253.359375,686496.875,201135.125,0.090087890625,0.98388671875,-0.224609375,-1.0070799589157104,0.0610351525247097,0.8544921278953552,100.0,86558.0,1.0
15:33:06.482493,198277.0625,177360.921875,233224.734375,206342.46875,199402.421875,171279.28125,686467.8125,201130.9375,0.0888671875,0.986083984375,-0.225830078125,-1.0986326932907104,0.0915527269244194,0.8544921278953552,100.0,86559.0,1.0
15:33:06.484998,198281.796875,177365.75,233225.796875,206339.609375,199401.890625,171281.0625,686417.4375,201127.796875,0.087646484375,0.986572265625,-0.225830078125,-1.1291502714157104,0.0610351525247097,0.7629393935203552,100.0,86560.0,1.0
15:33:06.485029,198283.9375,177363.421875,233225.796875,206358.375,199402.609375,171259.875,686415.25,201144.609375,0.087158203125,0.986572265625,-0.22412109375,-1.0070799589157104,0.0,0.7629393935203552,100.0,86561.0,1.0
15:33:06.486981,198281.984375,177361.453125,233224.734375,206354.796875,199400.1875,171252.546875,686477.8125,201142.203125,0.083984375,0.986572265625,-0.225830078125,-1.0375975370407104,0.0,0.5493163466453552,100.0,86562.0,1.0
15:33:06.493678,198281.984375,177369.328125,233231.609375,206346.21875,199409.3125,171282.765625,686479.6875,201136.921875,0.08251953125,0.9853515625,-0.22412109375,-1.0681151151657104,-0.0915527269244194,0.3662109076976776,100.0,86563.0,1.0
15:33:06.493687,198283.859375,177374.15625,233233.40625,206340.046875,199407.609375,171293.578125,686425.5625,201128.421875,0.083251953125,0.985107421875,-0.223876953125,-1.2207030057907104,-0.0915527269244194,0.5187987685203552,100.0,86564.0,1.0
15:33:06.495576,198286.71875,177368.078125,233231.171875,206346.046875,199405.109375,171268.8125,686395.8125,201141.84375,0.084716796875,0.98486328125,-0.225830078125,-1.2512205839157104,-0.0610351525247097,0.4882812201976776,100.0,86565.0,1.0
15:33:06.498777,198285.28125,177362.4375,233226.703125,206347.203125,199401.078125,171252.546875,686460.125,201142.828125,0.08642578125,0.984130859375,-0.22607421875,-1.1901854276657104,-0.0915527269244194,0.4577636420726776,100.0,86566.0,1.0
15:33:06.498794,198283.59375,177365.578125,233229.921875,206343.09375,199406.71875,171275.703125,686480.9375,201137.453125,0.087646484375,0.98388671875,-0.225341796875,-1.2817381620407104,-0.2746581733226776,0.5187987685203552,100.0,86567.0,1.0
15:33:06.500589,198286.265625,177370.21875,233233.671875,206342.1875,199410.109375,171292.609375,686425.25,201132.71875,0.088134765625,0.98486328125,-0.222900390625,-1.2817381620407104,-0.3662109076976776,0.5493163466453552,100.0,86568.0,1.0
15:33:06.503100,198282.609375,177363.609375,233224.453125,206337.09375,199402.875,171271.59375,686396.6875,201135.671875,0.090087890625,0.98583984375,-0.224365234375,-1.3732908964157104,-0.3662109076976776,0.5798339247703552,100.0,86569.0,1.0
15:33:06.521249,198279.65625,177359.484375,233221.15625,206339.6875,199399.5625,171256.296875,686451.875,201141.921875,0.089599609375,0.9873046875,-0.221923828125,-1.4343260526657104,-0.2136230319738388,0.5187987685203552,100.0,86570.0,1.0
15:33:06.521297,198277.953125,177362.359375,233225.171875,206335.125,199403.3125,171272.84375,686491.6875,201138.625,0.09228515625,0.98828125,-0.222412109375,-1.4038084745407104,-0.2136230319738388,0.6408690810203552,100.0,86571.0,1.0
15:33:06.523724,198281.53125,177368.96875,233232.78125,206332.453125,199410.46875,171291.96875,686431.0625,201134.859375,0.089599609375,0.98828125,-0.224365234375,-1.3732908964157104,-0.1220703050494194,0.4882812201976776,100.0,86572.0,1.0
15:33:06.523732,198279.5625,177363.0625,233222.9375,206328.25,199401.625,171273.640625,686396.25,201134.0625,0.08837890625,0.989990234375,-0.22265625,-1.5563963651657104,-0.1220703050494194,0.4272460639476776,100.0,86573.0,1.0
15:33:06.525644,198276.796875,177355.203125,233217.484375,206336.65625,199396.703125,171253.078125,686441.4375,201142.109375,0.087646484375,0.989013671875,-0.224365234375,-1.5869139432907104,-0.1220703050494194,0.4577636420726776,100.0,86574.0,1.0
15:33:06.533905,198281.703125,177362.53125,233223.75,206336.46875,199404.65625,171272.21875,686500.625,201140.5,0.085693359375,0.98974609375,-0.22216796875,-1.6784666776657104,-0.1831054538488388,0.3051757514476776,100.0,86575.0,1.0
15:33:06.533920,198284.03125,177368.25,233232.15625,206336.5625,199412.171875,171296.984375,686438.3125,201138.078125,0.0849609375,0.99169921875,-0.225341796875,-1.7700194120407104,-0.2441406100988388,0.2746581733226776,100.0,86576.0,1.0
15:33:06.540498,198283.234375,177364.5,233225.625,206329.859375,199401.796875,171280.078125,686402.0,201135.21875,0.083984375,0.990478515625,-0.2236328125,-1.9226073026657104,-0.1831054538488388,0.1525878757238388,100.0,86577.0,1.0
15:33:06.540580,198280.015625,177356.8125,233223.390625,206340.5,199397.5,171254.78125,686429.1875,201144.609375,0.082763671875,0.989013671875,-0.22216796875,-2.014159917831421,-0.2746581733226776,0.2441406100988388,100.0,86578.0,1.0
15:33:06.546584,198277.953125,177358.328125,233225.09375,206338.53125,199397.78125,171262.296875,686500.6875,201136.46875,0.083740234375,0.98876953125,-0.220703125,-2.075195074081421,-0.3967284858226776,0.1525878757238388,100.0,86579.0,1.0
15:33:06.546676,198278.046875,177362.796875,233232.78125,206339.0625,199405.640625,171286.703125,686444.375,201133.171875,0.0869140625,0.9892578125,-0.21923828125,-2.105712652206421,-0.4272460639476776,0.03051757626235485,100.0,86580.0,1.0
15:33:06.548690,198274.28125,177358.78125,233225.53125,206328.25,199393.9375,171275.078125,686413.5,201122.171875,0.084716796875,0.989501953125,-0.219482421875,-2.105712652206421,-0.4882812201976776,0.0610351525247097,100.0,86581.0,1.0
15:33:06.559688,198267.046875,177345.640625,233215.515625,206334.0625,199385.96875,171245.125,686414.4375,201130.296875,0.084716796875,0.9873046875,-0.221435546875,-2.075195074081421,-0.4882812201976776,0.0610351525247097,100.0,86582.0,1.0
15:33:06.563865,198265.796875,177342.59375,233212.65625,206329.234375,199383.296875,171243.96875,686492.9375,201127.796875,0.0869140625,0.986083984375,-0.21923828125,-2.166747808456421,-0.5798339247703552,0.0610351525247097,100.0,86583.0,1.0
15:33:06.563969,198268.125,177348.671875,233220.171875,206324.140625,199392.859375,171272.21875,686463.0625,201124.140625,0.088623046875,0.987060546875,-0.2197265625,-2.258300542831421,-0.5493163466453552,0.0610351525247097,100.0,86584.0,1.0
15:33:06.573851,198271.15625,177353.40625,233218.46875,206316.796875,199390.171875,171274.90625,686418.0,201117.96875,0.092041015625,0.986572265625,-0.220458984375,-2.197265386581421,-0.5493163466453552,0.1525878757238388,100.0,86585.0,1.0
15:33:06.574009,198272.59375,177349.921875,233216.859375,206328.34375,199390.625,171254.0625,686397.875,201134.953125,0.092529296875,0.987060546875,-0.21923828125,-2.227782964706421,-0.4882812201976776,0.2746581733226776,100.0,86586.0,1.0
15:33:06.578984,198271.421875,177347.6875,233216.140625,206332.984375,199388.125,171247.0,686477.25,201135.3125,0.0908203125,0.983154296875,-0.219970703125,-2.258300542831421,-0.4577636420726776,0.3967284858226776,100.0,86587.0,1.0
15:33:06.579062,198273.75,177356.09375,233226.15625,206334.6875,199398.21875,171278.125,686471.4375,201130.9375,0.09130859375,0.98388671875,-0.21875,-2.197265386581421,-0.3662109076976776,0.3662109076976776,100.0,86588.0,1.0
15:33:06.588223,198278.21875,177361.90625,233228.3125,206328.78125,199397.5,171288.046875,686414.25,201120.015625,0.0908203125,0.982177734375,-0.22021484375,-2.136230230331421,-0.3356933295726776,0.3662109076976776,100.0,86589.0,1.0
15:33:06.592550,198275.265625,177355.5625,233218.828125,206330.75,199390.359375,171263.8125,686390.875,201127.71875,0.0888671875,0.9794921875,-0.2197265625,-2.136230230331421,-0.1831054538488388,0.4272460639476776,100.0,86590.0,1.0
15:33:06.592598,198271.78125,177351.625,233212.296875,206330.21875,199385.265625,171251.390625,686458.5625,201129.140625,0.090087890625,0.981689453125,-0.222900390625,-2.044677495956421,-0.2136230319738388,0.4882812201976776,100.0,86591.0,1.0
15:33:06.602573,198271.421875,177356.09375,233216.234375,206327.078125,199390.890625,171275.53125,686474.0625,201124.21875,0.08837890625,0.98095703125,-0.2216796875,-2.044677495956421,-0.1525878757238388,0.5187987685203552,100.0,86592.0,1.0
15:33:06.602614,198275.09375,177360.75,233220.890625,206321.71875,199394.203125,171286.609375,686430.4375,201117.25,0.08984375,0.981689453125,-0.222412109375,-2.075195074081421,-0.0915527269244194,0.7019042372703552,100.0,86593.0,1.0
15:33:06.604541,198273.9375,177355.296875,233215.078125,206320.5625,199387.40625,171263.640625,686397.1875,201120.203125,0.089111328125,0.98291015625,-0.218994140625,-2.044677495956421,0.0,0.6408690810203552,100.0,86594.0,1.0
15:33:06.608290,198269.375,177346.890625,233210.421875,206326.546875,199381.953125,171244.671875,686442.5625,201125.125,0.087158203125,0.985107421875,-0.219482421875,-1.9836424589157104,0.03051757626235485,0.7019042372703552,100.0,86595.0,1.0
15:33:06.618940,198268.296875,177346.890625,233215.25,206330.9375,199383.921875,171260.6875,686506.5,201120.203125,0.0859375,0.985107421875,-0.21826171875,-1.9836424589157104,0.03051757626235485,0.6408690810203552,100.0,86596.0,1.0
15:33:06.618986,198270.4375,177349.390625,233221.6875,206332.890625,199388.296875,171276.234375,686443.125,201114.296875,0.08642578125,0.98486328125,-0.216552734375,-1.9531248807907104,0.0,0.6713866591453552,100.0,86597.0,1.0
15:33:06.626982,198272.59375,177347.328125,233217.75,206338.171875,199383.296875,171259.875,686397.1875,201117.78125,0.085205078125,0.985107421875,-0.2177734375,-1.8920897245407104,0.1220703050494194,0.6103515028953552,100.0,86598.0,1.0
15:33:06.627048,198266.859375,177338.65625,233213.015625,206343.09375,199376.3125,171236.453125,686429.0625,201123.953125,0.085205078125,0.98486328125,-0.216552734375,-1.9226073026657104,0.1220703050494194,0.6408690810203552,100.0,86599.0,1.0
15:33:06.629097,198264.71875,177340.09375,233211.5,206336.65625,199376.5,171247.625,686510.6875,201115.828125,0.085693359375,0.984375,-0.21533203125,-1.8615721464157104,0.0915527269244194,0.6103515028953552,100.0,86600.0,1.0
15:33:06.629131,198266.78125,177347.328125,233218.734375,206338.078125,199384.359375,171274.09375,686455.1875,201112.953125,0.086669921875,0.984130859375,-0.21923828125,-1.8615721464157104,0.03051757626235485,0.5493163466453552,100.0,86601.0,1.0
15:33:06.634373,198265.796875,177346.96875,233210.609375,206331.28125,199376.5,171264.703125,686407.4375,201107.953125,0.087890625,0.984130859375,-0.220458984375,-1.8615721464157104,-0.03051757626235485,0.4577636420726776,100.0,86602.0,1.0
15:33:06.650028,198257.75,177333.734375,233200.328125,206335.484375,199368.265625,171235.46875,686417.75,201114.390625,0.088623046875,0.98388671875,-0.217529296875,-1.8615721464157104,0.0610351525247097,0.3662109076976776,100.0,86603.0,1.0
15:33:06.650045,198256.3125,177331.78125,233200.140625,206332.625,199367.203125,171237.609375,686496.875,201109.296875,0.089599609375,0.984130859375,-0.2177734375,-1.8615721464157104,0.03051757626235485,0.4882812201976776,100.0,86604.0,1.0
15:33:06.652517,198256.3125,177335.984375,233206.578125,206329.765625,199375.609375,171262.828125,686447.125,201106.4375,0.0888671875,0.983642578125,-0.219970703125,-1.8005369901657104,0.0915527269244194,0.4272460639476776,100.0,86605.0,1.0
15:33:06.652544,198250.953125,177332.578125,233196.390625,206317.25,199366.578125,171253.359375,686399.6875,201098.03125,0.08984375,0.984619140625,-0.220703125,-1.8310545682907104,0.0915527269244194,0.4272460639476776,100.0,86606.0,1.0
15:33:06.659488,198244.421875,177322.921875,233187.53125,206320.734375,199360.21875,171227.328125,686408.625,201106.078125,0.089599609375,0.982421875,-0.21826171875,-1.6479490995407104,0.1525878757238388,0.3662109076976776,100.0,86607.0,1.0
15:33:06.696965,198244.515625,177324.796875,233186.8125,206319.484375,199360.046875,171230.28125,686495.3125,201102.40625,0.0908203125,0.98388671875,-0.21875,-1.6174315214157104,0.1220703050494194,0.3356933295726776,100.0,86608.0,1.0
15:33:06.697008,198251.125,177335.984375,233200.234375,206325.46875,199376.140625,171264.265625,686473.875,201105.0,0.08935546875,0.984619140625,-0.219482421875,-1.6479490995407104,0.2136230319738388,0.3356933295726776,100.0,86609.0,1.0
15:33:06.697017,198247.734375,177333.828125,233192.0,206311.265625,199366.3125,171261.046875,686404.3125,201092.578125,0.0908203125,0.9833984375,-0.21875,-1.5869139432907104,0.2441406100988388,0.3051757514476776,100.0,86610.0,1.0
15:33:06.699386,198237.546875,177318.546875,233177.34375,206305.53125,199352.796875,171225.90625,686391.375,201095.4375,0.08935546875,0.984619140625,-0.21875,-1.4953612089157104,0.1525878757238388,0.3356933295726776,100.0,86611.0,1.0
15:33:06.703049,198235.9375,177316.390625,233174.21875,206302.859375,199350.921875,171219.828125,686468.6875,201093.640625,0.089111328125,0.984619140625,-0.21875,-1.4953612089157104,0.3051757514476776,0.3662109076976776,100.0,86612.0,1.0
15:33:06.703075,198236.203125,177319.890625,233179.671875,206302.953125,199358.890625,171247.265625,686489.5,201090.515625,0.089111328125,0.982666015625,-0.217529296875,-1.4648436307907104,0.4272460639476776,0.4272460639476776,100.0,86613.0,1.0
15:33:06.703083,198239.859375,177326.046875,233180.5625,206302.671875,199360.046875,171256.296875,686420.5,201084.171875,0.08740234375,0.985107421875,-0.2177734375,-1.4038084745407104,0.3662109076976776,0.3967284858226776,100.0,86614.0,1.0
15:33:06.705654,198236.203125,177317.296875,233171.53125,206305.453125,199353.15625,171231.71875,686388.375,201091.40625,0.08740234375,0.98486328125,-0.217529296875,-1.4648436307907104,0.3967284858226776,0.3356933295726776,100.0,86615.0,1.0
15:33:06.708209,198226.09375,177304.140625,233161.15625,206301.609375,199342.34375,171210.890625,686447.75,201089.625,0.08544921875,0.986572265625,-0.2158203125,-1.4343260526657104,0.2136230319738388,0.2746581733226776,100.0,86616.0,1.0
15:33:06.711377,198223.59375,177306.109375,233161.703125,206295.875,199346.09375,171233.421875,686496.6875,201082.203125,0.083984375,0.986572265625,-0.218017578125,-1.3732908964157104,0.2746581733226776,0.2746581733226776,100.0,86617.0,1.0
15:33:06.711459,198227.53125,177312.546875,233165.71875,206292.578125,199349.3125,171249.78125,686424.625,201076.84375,0.08251953125,0.98681640625,-0.218017578125,-1.3427733182907104,0.2746581733226776,0.2136230319738388,100.0,86618.0,1.0
15:33:06.713211,198222.609375,177302.1875,233154.453125,206291.234375,199338.59375,171222.421875,686383.5625,201079.078125,0.0830078125,0.9892578125,-0.2158203125,-1.3732908964157104,0.2136230319738388,0.2136230319738388,100.0,86619.0,1.0
15:33:06.715638,198216.359375,177291.71875,233145.96875,206290.515625,199329.5625,171199.34375,686431.375,201080.234375,0.08349609375,0.988037109375,-0.218017578125,-1.4038084745407104,0.1831054538488388,0.2136230319738388,100.0,86620.0,1.0
15:33:06.718154,198216.171875,177293.421875,233149.265625,206285.59375,199334.46875,171217.234375,686477.0,201075.046875,0.0830078125,0.987548828125,-0.21728515625,-1.5258787870407104,0.0610351525247097,0.1525878757238388,100.0,86621.0,1.0
15:33:06.720665,198214.296875,177296.109375,233153.46875,206279.15625,199336.53125,171235.921875,686418.875,201066.640625,0.08349609375,0.983642578125,-0.218505859375,-1.5563963651657104,0.0,0.2441406100988388,100.0,86622.0,1.0
15:33:06.723343,198214.03125,177293.515625,233146.859375,206276.296875,199329.640625,171218.484375,686384.375,201067.890625,0.08349609375,0.98193359375,-0.217529296875,-1.5563963651657104,0.0915527269244194,0.2136230319738388,100.0,86623.0,1.0
15:33:06.726813,198209.015625,177285.375,233139.609375,206281.3125,199323.5625,171192.46875,686422.625,201074.421875,0.084716796875,0.980712890625,-0.219970703125,-1.5258787870407104,0.0,0.2746581733226776,100.0,86624.0,1.0
15:33:06.726836,198214.46875,177295.296875,233145.96875,206282.734375,199332.328125,171212.40625,686497.5625,201074.609375,0.08740234375,0.98046875,-0.218994140625,-1.5563963651657104,0.03051757626235485,0.3356933295726776,100.0,86625.0,1.0
15:33:06.733277,198217.78125,177302.265625,233156.78125,206283.546875,199344.3125,171242.0,686441.125,201075.5,0.08984375,0.981201171875,-0.219970703125,-1.4038084745407104,0.03051757626235485,0.4577636420726776,100.0,86626.0,1.0
15:33:06.741729,198216.265625,177298.875,233151.859375,206280.953125,199336.359375,171228.765625,686392.6875,201073.53125,0.09130859375,0.982421875,-0.22021484375,-1.4038084745407104,-0.1220703050494194,0.5493163466453552,100.0,86627.0,1.0
15:33:06.741824,198212.859375,177291.546875,233146.40625,206290.15625,199331.609375,171206.6875,686398.0625,201082.921875,0.091796875,0.9853515625,-0.2216796875,-1.4038084745407104,-0.0915527269244194,0.5187987685203552,100.0,86628.0,1.0
15:33:06.748244,198213.140625,177293.6875,233146.140625,206289.171875,199332.234375,171215.078125,686483.5,201079.515625,0.088623046875,0.985595703125,-0.2216796875,-1.3732908964157104,-0.1220703050494194,0.7019042372703552,100.0,86629.0,1.0
15:33:06.748329,198213.21875,177300.125,233153.734375,206286.578125,199341.0,171243.78125,686434.6875,201074.25,0.08740234375,0.987060546875,-0.218505859375,-1.4038084745407104,0.0610351525247097,0.6713866591453552,100.0,86630.0,1.0
15:33:06.749778,198205.265625,177291.625,233141.140625,206267.359375,199327.765625,171227.6875,686391.1875,201060.390625,0.08740234375,0.986083984375,-0.218994140625,-1.2817381620407104,0.0915527269244194,0.6713866591453552,100.0,86631.0,1.0
15:33:06.765703,198194.453125,177273.84375,233128.53125,206266.640625,199315.515625,171191.03125,686402.5,201065.390625,0.08642578125,0.985107421875,-0.21923828125,-1.2817381620407104,0.0,0.5798339247703552,100.0,86632.0,1.0
15:33:06.769374,198196.328125,177275.625,233130.5,206263.34375,199316.140625,171193.09375,686489.5,201063.703125,0.083251953125,0.98486328125,-0.2216796875,-1.3122557401657104,0.0,0.5493163466453552,100.0,86633.0,1.0
15:33:06.769396,198200.078125,177282.0625,233139.703125,206262.265625,199327.5,171220.546875,686439.375,201062.265625,0.0810546875,0.9853515625,-0.220947265625,-1.3122557401657104,0.03051757626235485,0.4882812201976776,100.0,86634.0,1.0
15:33:06.769400,198197.671875,177280.453125,233133.4375,206250.015625,199320.4375,171217.140625,686396.0625,201051.265625,0.07958984375,0.985595703125,-0.220458984375,-1.4038084745407104,-0.1220703050494194,0.4272460639476776,100.0,86635.0,1.0
15:33:06.794434,198192.125,177269.453125,233125.21875,206257.34375,199314.0,171189.421875,686397.9375,201061.28125,0.078857421875,0.985595703125,-0.22119140625,-1.4648436307907104,-0.1831054538488388,0.2746581733226776,100.0,86636.0,1.0
15:33:06.819430,198186.125,177264.8125,233118.515625,206256.546875,199308.8125,171179.40625,686464.5,201058.6875,0.08056640625,0.9853515625,-0.221435546875,-1.4038084745407104,-0.3662109076976776,0.1831054538488388,100.0,86637.0,1.0
15:33:06.821900,198189.53125,177273.03125,233127.640625,206257.703125,199320.53125,171209.359375,686456.1875,201058.515625,0.082275390625,0.9873046875,-0.21875,-1.4343260526657104,-0.5187987685203552,0.1220703050494194,100.0,86638.0,1.0
15:33:06.824379,198187.734375,177273.65625,233126.375,206247.78125,199317.578125,171215.53125,686389.8125,201048.5,0.082275390625,0.984130859375,-0.220703125,-1.4038084745407104,-0.6713866591453552,0.0610351525247097,100.0,86639.0,1.0
15:33:06.828096,198183.09375,177265.796875,233117.0,206251.0,199309.0,171189.96875,686372.5625,201051.71875,0.080322265625,0.983642578125,-0.220458984375,-1.4343260526657104,-0.6408690810203552,0.03051757626235485,100.0,86640.0,1.0
15:33:06.828112,198178.4375,177260.875,233111.0,206251.453125,199302.5625,171176.015625,686448.6875,201048.859375,0.08203125,0.9833984375,-0.222412109375,-1.4648436307907104,-0.7019042372703552,0.03051757626235485,100.0,86641.0,1.0
15:33:06.828119,198181.84375,177267.578125,233122.53125,206249.921875,199311.234375,171200.6875,686477.0,201046.4375,0.083984375,0.986572265625,-0.223388671875,-1.4648436307907104,-0.7019042372703552,0.0,100.0,86642.0,1.0
15:33:06.831981,198183.8125,177271.34375,233123.609375,206244.828125,199312.84375,171212.046875,686421.5,201039.828125,0.08447265625,0.986328125,-0.220703125,-1.6479490995407104,-0.7629393935203552,-0.0610351525247097,100.0,86643.0,1.0
15:33:06.832016,198183.8125,177268.03125,233116.28125,206246.171875,199307.828125,171192.734375,686386.875,201046.078125,0.085693359375,0.98681640625,-0.221435546875,-1.5869139432907104,-0.7629393935203552,0.03051757626235485,100.0,86644.0,1.0
15:33:06.834427,198181.75,177261.6875,233112.34375,206251.0,199305.515625,171174.3125,686434.875,201052.78125,0.087646484375,0.98828125,-0.22021484375,-1.7089842557907104,-0.7629393935203552,0.03051757626235485,100.0,86645.0,1.0
15:33:06.834455,198183.359375,177265.078125,233116.015625,206246.53125,199309.53125,171192.828125,686466.8125,201045.71875,0.087646484375,0.98828125,-0.221435546875,-1.6479490995407104,-0.7019042372703552,0.0,100.0,86646.0,1.0
15:33:06.834462,198185.421875,177271.96875,233122.984375,206241.4375,199313.90625,171214.1875,686414.75,201038.484375,0.089111328125,0.98779296875,-0.219970703125,-1.8005369901657104,-0.7324218153953552,0.1220703050494194,100.0,86647.0,1.0
15:33:06.837478,198183.265625,177269.015625,233115.46875,206236.34375,199305.421875,171198.1875,686378.8125,201037.953125,0.0888671875,0.987548828125,-0.2216796875,-1.7395018339157104,-0.7629393935203552,0.2136230319738388,100.0,86648.0,1.0
15:33:06.837492,198177.8125,177259.53125,233108.671875,206244.109375,199299.15625,171172.078125,686414.75,201045.8125,0.088623046875,0.989501953125,-0.22314453125,-1.7700194120407104,-0.7019042372703552,0.1220703050494194,100.0,86649.0,1.0
15:33:06.839418,198177.734375,177261.046875,233111.09375,206243.578125,199302.015625,171181.46875,686477.4375,201044.03125,0.087890625,0.98876953125,-0.22265625,-1.7395018339157104,-0.6408690810203552,0.2746581733226776,100.0,86650.0,1.0
15:33:06.841969,198182.46875,177267.3125,233120.125,206244.390625,199311.5,171207.125,686412.8125,201043.578125,0.088623046875,0.98779296875,-0.221923828125,-1.8005369901657104,-0.5493163466453552,0.3356933295726776,100.0,86651.0,1.0
15:33:06.844341,198183.890625,177265.171875,233113.859375,206239.46875,199304.609375,171194.703125,686376.4375,201039.5625,0.08935546875,0.9873046875,-0.217529296875,-1.8920897245407104,-0.5187987685203552,0.3967284858226776,100.0,86652.0,1.0
15:33:06.847322,198180.953125,177256.40625,233108.40625,206246.890625,199302.015625,171171.09375,686400.75,201051.53125,0.08544921875,0.9892578125,-0.2197265625,-1.8310545682907104,-0.4882812201976776,0.5493163466453552,100.0,86653.0,1.0
15:33:06.849347,198186.671875,177262.484375,233113.328125,206249.75,199306.765625,171182.1875,686478.5,201052.515625,0.086181640625,0.987060546875,-0.21923828125,-1.9226073026657104,-0.5493163466453552,0.5187987685203552,100.0,86654.0,1.0
15:33:06.854389,198191.234375,177270.984375,233125.390625,206252.609375,199318.828125,171212.84375,686428.0,201053.328125,0.08447265625,0.988037109375,-0.222412109375,-1.8615721464157104,-0.4272460639476776,0.4577636420726776,100.0,86655.0,1.0
15:33:06.857483,198191.3125,177272.046875,233119.859375,206241.609375,199310.609375,171204.890625,686385.25,201042.328125,0.08447265625,0.987548828125,-0.218017578125,-2.014159917831421,-0.4882812201976776,0.4882812201976776,100.0,86656.0,1.0
15:33:06.857493,198192.84375,177270.703125,233118.0625,206249.65625,199309.0,171182.546875,686383.9375,201055.46875,0.08447265625,0.986083984375,-0.21875,-2.014159917831421,-0.5493163466453552,0.4882812201976776,100.0,86657.0,1.0
15:33:06.859370,198196.421875,177274.28125,233120.65625,206249.65625,199310.78125,171182.71875,686464.0625,201054.671875,0.0869140625,0.98779296875,-0.2216796875,-2.075195074081421,-0.5187987685203552,0.4882812201976776,100.0,86658.0,1.0
15:33:06.865696,198198.203125,177280.546875,233130.3125,206250.28125,199321.328125,171209.09375,686439.0625,201052.609375,0.083740234375,0.987548828125,-0.218994140625,-2.014159917831421,-0.4882812201976776,0.5493163466453552,100.0,86659.0,1.0
15:33:06.872450,198202.9375,177285.640625,233130.3125,206244.734375,199318.5625,171213.03125,686389.8125,201045.71875,0.082763671875,0.98583984375,-0.219970703125,-2.044677495956421,-0.4882812201976776,0.3967284858226776,100.0,86660.0,1.0
15:33:06.872478,198203.125,177280.015625,233125.671875,206252.875,199315.796875,171188.796875,686382.75,201058.25,0.081787109375,0.98681640625,-0.216552734375,-2.014159917831421,-0.3662109076976776,0.3356933295726776,100.0,86661.0,1.0
15:33:06.876264,198203.5625,177278.3125,233125.671875,206256.359375,199314.625,171182.90625,686457.75,201060.125,0.086181640625,0.986572265625,-0.218017578125,-2.075195074081421,-0.4577636420726776,0.4577636420726776,100.0,86662.0,1.0
15:33:06.876289,198205.796875,177284.03125,233133.4375,206256.453125,199324.109375,171209.984375,686454.125,201056.71875,0.0859375,0.986328125,-0.215576171875,-2.136230230331421,-0.3356933295726776,0.3662109076976776,100.0,86663.0,1.0
15:33:06.885686,198211.4375,177291.1875,233138.265625,206251.625,199326.421875,171221.96875,686399.6875,201050.90625,0.085693359375,0.98583984375,-0.2138671875,-2.197265386581421,-0.3967284858226776,0.3662109076976776,100.0,86664.0,1.0
15:33:06.888670,198212.953125,177288.59375,233136.65625,206261.546875,199324.8125,171202.5625,686372.75,201062.984375,0.084228515625,0.985595703125,-0.217529296875,-2.105712652206421,-0.3662109076976776,0.3967284858226776,100.0,86665.0,1.0
15:33:06.888680,198211.171875,177285.90625,233134.34375,206266.734375,199323.296875,171191.390625,686441.9375,201067.890625,0.0849609375,0.985107421875,-0.21875,-2.197265386581421,-0.2746581733226776,0.1831054538488388,100.0,86666.0,1.0
15:33:06.897387,198211.53125,177291.359375,233141.40625,206266.375,199331.890625,171216.96875,686478.5,201065.3125,0.084228515625,0.984619140625,-0.219482421875,-2.166747808456421,-0.2746581733226776,0.0610351525247097,100.0,86667.0,1.0
15:33:06.902684,198214.390625,177298.609375,233144.890625,206259.3125,199334.46875,171236.640625,686409.9375,201059.765625,0.08447265625,0.983154296875,-0.2197265625,-2.136230230331421,-0.3051757514476776,0.03051757626235485,100.0,86668.0,1.0
15:33:06.902753,198213.84375,177293.515625,233138.8125,206260.75,199329.109375,171215.078125,686375.6875,201065.84375,0.085205078125,0.985107421875,-0.21728515625,-2.105712652206421,-0.2136230319738388,0.03051757626235485,100.0,86669.0,1.0
15:33:06.904425,198207.953125,177282.515625,233132.375,206264.5,199322.578125,171189.6875,686446.0625,201067.625,0.0849609375,0.98486328125,-0.22021484375,-2.105712652206421,-0.3051757514476776,-0.0610351525247097,100.0,86670.0,1.0
15:33:06.911927,198207.671875,177285.375,233133.53125,206262.890625,199326.515625,171208.828125,686482.5625,201059.859375,0.084716796875,0.985595703125,-0.21875,-2.105712652206421,-0.3356933295726776,-0.03051757626235485,100.0,86671.0,1.0
15:33:06.915661,198208.21875,177290.734375,233138.0,206258.953125,199330.453125,171230.640625,686422.375,201054.84375,0.083984375,0.98583984375,-0.219482421875,-2.075195074081421,-0.2746581733226776,0.0,100.0,86672.0,1.0
15:33:06.926298,198205.796875,177285.90625,233130.046875,206255.109375,199321.875,171213.390625,686384.0,201055.375,0.083740234375,0.986083984375,-0.220703125,-2.044677495956421,-0.2746581733226776,0.0915527269244194,100.0,86673.0,1.0
15:33:06.926323,198201.953125,177278.21875,233125.578125,206260.484375,199317.046875,171190.59375,686419.0625,201062.796875,0.08447265625,0.986572265625,-0.218505859375,-2.075195074081421,-0.2746581733226776,-0.0915527269244194,100.0,86674.0,1.0
15:33:06.928194,198202.046875,177282.515625,233129.515625,206255.65625,199319.28125,171202.5625,686493.5625,201055.734375,0.086181640625,0.98583984375,-0.218994140625,-2.075195074081421,-0.1525878757238388,0.03051757626235485,100.0,86675.0,1.0
15:33:06.931876,198201.328125,177286.71875,233135.140625,206249.65625,199324.46875,171226.984375,686435.6875,201049.5625,0.085693359375,0.984130859375,-0.21728515625,-1.9836424589157104,-0.0915527269244194,0.1525878757238388,100.0,86676.0,1.0
15:33:06.938795,198202.046875,177286.09375,233130.3125,206243.84375,199317.75,171216.515625,686384.625,201047.953125,0.083984375,0.984619140625,-0.216064453125,-1.8920897245407104,-0.2136230319738388,0.2136230319738388,100.0,86677.0,1.0
15:33:06.938806,198197.9375,177276.15625,233123.78125,206250.375,199312.125,171189.78125,686390.625,201057.171875,0.082275390625,0.984130859375,-0.21728515625,-1.8920897245407104,-0.1525878757238388,0.1831054538488388,100.0,86678.0,1.0
15:33:06.944582,198201.515625,177280.015625,233127.28125,206251.984375,199315.703125,171200.25,686473.4375,201055.921875,0.0830078125,0.984619140625,-0.216064453125,-1.8310545682907104,-0.1220703050494194,0.2441406100988388,100.0,86679.0,1.0
15:33:06.952488,198206.078125,177289.21875,233142.03125,206255.296875,199329.109375,171232.34375,686422.9375,201056.984375,0.08154296875,0.982421875,-0.213134765625,-1.8615721464157104,-0.1220703050494194,0.1525878757238388,100.0,86680.0,1.0
15:33:06.952561,198205.796875,177289.21875,233138.625,206246.4375,199322.046875,171224.46875,686386.0625,201048.40625,0.080810546875,0.984619140625,-0.215576171875,-1.8920897245407104,-0.1525878757238388,0.0,100.0,86681.0,1.0
15:33:06.962562,198199.09375,177277.765625,233129.78125,206250.1875,199315.609375,171195.0625,686399.125,201056.90625,0.081787109375,0.9853515625,-0.216552734375,-1.8005369901657104,-0.1831054538488388,0.1220703050494194,100.0,86682.0,1.0
15:33:06.962641,198197.125,177276.25,233129.0625,206247.875,199312.125,171193.453125,686473.8125,201052.15625,0.079345703125,0.984130859375,-0.216064453125,-1.8005369901657104,-0.1525878757238388,0.2441406100988388,100.0,86683.0,1.0
15:33:06.964438,198197.390625,177282.328125,233136.21875,206244.109375,199320.265625,171221.34375,686443.1875,201047.0625,0.0810546875,0.986328125,-0.21533203125,-1.7395018339157104,-0.1525878757238388,0.1831054538488388,100.0,86684.0,1.0
15:33:06.986761,198196.140625,177281.078125,233131.203125,206234.109375,199314.53125,171218.21875,686391.875,201036.515625,0.081298828125,0.98681640625,-0.218994140625,-1.7395018339157104,-0.2441406100988388,0.3051757514476776,100.0,86685.0,1.0
15:33:06.986853,198197.21875,177276.15625,233129.6875,206245.90625,199313.375,171194.609375,686383.125,201052.25,0.082275390625,0.985595703125,-0.217041015625,-1.7700194120407104,-0.2136230319738388,0.3967284858226776,100.0,86686.0,1.0
15:33:06.986887,198197.9375,177274.46875,233129.875,206249.03125,199311.59375,171188.359375,686457.9375,201052.96875,0.0810546875,0.985107421875,-0.2177734375,-1.8310545682907104,-0.3662109076976776,0.3662109076976776,100.0,86687.0,1.0
15:33:06.986910,198202.765625,177286.265625,233139.703125,206251.265625,199324.46875,171224.03125,686452.875,201053.59375,0.080078125,0.98486328125,-0.216796875,-1.7700194120407104,-0.4577636420726776,0.3051757514476776,100.0,86688.0,1.0
15:33:06.986932,198202.21875,177292.53125,233138.890625,206241.609375,199324.28125,171235.296875,686408.3125,201044.828125,0.078857421875,0.984619140625,-0.216552734375,-1.8310545682907104,-0.3967284858226776,0.3967284858226776,100.0,86689.0,1.0
15:33:06.990623,198190.78125,177276.796875,233122.53125,206236.15625,199309.4375,171199.4375,686380.1875,201044.109375,0.080322265625,0.98583984375,-0.21875,-1.8310545682907104,-0.4272460639476776,0.3356933295726776,100.0,86690.0,1.0
15:33:06.993170,198188.015625,177267.578125,233118.6875,206241.078125,199302.828125,171179.234375,686451.25,201046.625,0.081787109375,0.985595703125,-0.216552734375,-1.8615721464157104,-0.4577636420726776,0.4272460639476776,100.0,86691.0,1.0
15:33:06.995626,198192.390625,177274.015625,233127.984375,206246.625,199309.984375,171201.5,686466.4375,201046.0,0.081298828125,0.9853515625,-0.216796875,-1.8310545682907104,-0.4577636420726776,0.4577636420726776,100.0,86692.0,1.0
15:33:06.999575,198193.734375,177280.1875,233131.203125,206241.515625,199313.015625,171217.40625,686414.625,201038.03125,0.081298828125,0.987060546875,-0.22021484375,-1.8005369901657104,-0.4272460639476776,0.4577636420726776,100.0,86693.0,1.0
15:33:07.007922,198189.265625,177274.28125,233122.453125,206236.875,199304.796875,171196.75,686375.0625,201038.125,0.083251953125,0.98876953125,-0.218994140625,-1.7700194120407104,-0.5187987685203552,0.5493163466453552,100.0,86694.0,1.0
15:33:07.007999,198188.375,177269.8125,233120.125,206250.734375,199304.53125,171181.640625,686427.8125,201048.59375,0.08251953125,0.98681640625,-0.21533203125,-1.8310545682907104,-0.5187987685203552,0.4577636420726776,100.0,86695.0,1.0
15:33:07.013259,198191.3125,177277.0625,233125.84375,206259.046875,199312.21875,171204.0,686481.1875,201045.546875,0.08154296875,0.9873046875,-0.21435546875,-1.8005369901657104,-0.5798339247703552,0.6103515028953552,100.0,86696.0,1.0
15:33:07.018926,198191.671875,177282.328125,233130.046875,206256.453125,199317.046875,171226.796875,686409.25,201037.953125,0.082275390625,0.987060546875,-0.214599609375,-1.8310545682907104,-0.4882812201976776,0.5798339247703552,100.0,86697.0,1.0
15:33:07.019019,198188.453125,177275.53125,233120.125,206251.0,199305.859375,171206.59375,686364.375,201035.09375,0.08203125,0.98583984375,-0.218017578125,-1.8005369901657104,-0.5493163466453552,0.6713866591453552,100.0,86698.0,1.0
15:33:07.024562,198185.5,177266.78125,233115.296875,206261.8125,199302.46875,171182.71875,686399.0625,201046.171875,0.0830078125,0.987060546875,-0.21630859375,-1.7700194120407104,-0.5798339247703552,0.7324218153953552,100.0,86699.0,1.0
15:33:07.029407,198184.703125,177269.453125,233115.203125,206257.609375,199303.90625,171192.375,686485.25,201040.0,0.08349609375,0.98779296875,-0.216064453125,-1.9226073026657104,-0.5187987685203552,0.8239745497703552,100.0,86700.0,1.0
15:33:07.029487,198186.125,177273.921875,233122.265625,206254.484375,199311.859375,171216.6875,686429.25,201035.890625,0.0830078125,0.9892578125,-0.216796875,-1.8920897245407104,-0.5493163466453552,0.8544921278953552,100.0,86701.0,1.0
15:33:07.038957,198185.59375,177271.34375,233115.734375,206248.59375,199302.734375,171204.53125,686378.375,201029.0,0.086181640625,0.989013671875,-0.217041015625,-1.9531248807907104,-0.4882812201976776,0.7629393935203552,100.0,86702.0,1.0
15:33:07.040889,198179.515625,177260.703125,233106.265625,206253.234375,199296.296875,171177.453125,686383.5625,201038.65625,0.085205078125,0.98828125,-0.215576171875,-1.9836424589157104,-0.5187987685203552,0.7629393935203552,100.0,86703.0,1.0
15:33:07.048251,198183.8125,177268.125,233110.203125,206253.234375,199301.84375,171189.609375,686472.875,201039.203125,0.085693359375,0.98779296875,-0.2177734375,-2.014159917831421,-0.5493163466453552,0.8239745497703552,100.0,86704.0,1.0
15:33:07.048356,198189.625,177276.875,233123.703125,206256.453125,199316.0625,171222.15625,686443.5,201039.90625,0.085693359375,0.9873046875,-0.21923828125,-2.105712652206421,-0.3662109076976776,0.8239745497703552,100.0,86705.0,1.0
15:33:07.053300,198191.765625,177278.046875,233123.15625,206250.640625,199312.484375,171217.140625,686412.375,201035.53125,0.084228515625,0.9873046875,-0.220703125,-2.197265386581421,-0.4272460639476776,0.9155272841453552,100.0,86706.0,1.0
15:33:07.060662,198191.140625,177272.140625,233120.65625,206260.203125,199310.609375,171193.265625,686403.0625,201051.453125,0.084716796875,0.986083984375,-0.22216796875,-2.197265386581421,-0.3662109076976776,1.0070799589157104,100.0,86707.0,1.0
15:33:07.060756,198190.515625,177272.234375,233119.140625,206259.046875,199309.703125,171194.609375,686470.625,201049.5625,0.08642578125,0.988037109375,-0.220703125,-2.197265386581421,-0.3662109076976776,0.9765624403953552,100.0,86708.0,1.0
15:33:07.067635,198200.796875,177288.5,233135.046875,206264.953125,199326.96875,171232.96875,686450.0625,201054.21875,0.0859375,0.98779296875,-0.21875,-2.166747808456421,-0.3051757514476776,0.9155272841453552,100.0,86709.0,1.0
15:33:07.067797,198204.46875,177293.6875,233136.84375,206259.046875,199323.390625,171235.46875,686408.3125,201047.0625,0.0859375,0.9873046875,-0.217529296875,-2.197265386581421,-0.2441406100988388,0.9155272841453552,100.0,86710.0,1.0
15:33:07.074022,198194.171875,177277.59375,233123.4375,206257.078125,199310.0625,171198.8125,686396.6875,201047.515625,0.087890625,0.98779296875,-0.21484375,-2.227782964706421,-0.2136230319738388,0.8850097060203552,100.0,86711.0,1.0
15:33:07.074198,198187.734375,177267.40625,233115.109375,206248.859375,199301.125,171182.71875,686466.75,201040.546875,0.086669921875,0.987548828125,-0.215576171875,-2.166747808456421,-0.2441406100988388,0.9460448622703552,100.0,86712.0,1.0
15:33:07.080920,198187.03125,177269.375,233119.140625,206242.953125,199307.03125,171205.515625,686479.875,201034.375,0.085205078125,0.98974609375,-0.218994140625,-2.288818120956421,-0.1831054538488388,0.8239745497703552,100.0,86713.0,1.0
15:33:07.085113,198182.46875,177266.953125,233114.484375,206229.984375,199300.5,171208.5625,686391.8125,201020.515625,0.08544921875,0.987548828125,-0.217041015625,-2.166747808456421,-0.1831054538488388,0.7629393935203552,100.0,86714.0,1.0
15:33:07.085473,198179.78125,177261.6875,233109.390625,206236.0625,199295.40625,171186.46875,686364.6875,201028.921875,0.086181640625,0.987060546875,-0.21728515625,-2.136230230331421,-0.1220703050494194,0.8544921278953552,100.0,86715.0,1.0
15:33:07.094620,198178.71875,177257.203125,233106.625,206241.609375,199293.171875,171173.0625,686438.9375,201034.453125,0.086669921875,0.986572265625,-0.214599609375,-2.105712652206421,-0.03051757626235485,0.8544921278953552,100.0,86716.0,1.0
15:33:07.097601,198178.265625,177256.5,233109.9375,206239.203125,199299.34375,171192.828125,686462.8125,201032.21875,0.087646484375,0.9853515625,-0.21728515625,-2.166747808456421,-0.0610351525247097,0.8850097060203552,100.0,86717.0,1.0
15:33:07.097755,198178.4375,177260.421875,233110.734375,206234.453125,199300.328125,171206.859375,686403.0,201025.875,0.087158203125,0.984130859375,-0.218017578125,-2.136230230331421,0.03051757626235485,0.8850097060203552,100.0,86718.0,1.0
15:33:07.099574,198174.515625,177254.796875,233100.8125,206233.03125,199292.28125,171185.046875,686367.5625,201028.734375,0.087646484375,0.98583984375,-0.21484375,-2.105712652206421,0.0,0.8544921278953552,100.0,86719.0,1.0
15:33:07.113054,198169.0625,177247.828125,233095.71875,206237.953125,199288.4375,171166.0,686436.75,201033.921875,0.086669921875,0.986083984375,-0.216552734375,-2.197265386581421,0.0610351525247097,0.8239745497703552,100.0,86720.0,1.0
15:33:07.115293,198170.578125,177253.546875,233100.71875,206236.78125,199293.34375,171187.1875,686470.375,201028.109375,0.087158203125,0.984130859375,-0.216552734375,-2.044677495956421,0.03051757626235485,0.8544921278953552,100.0,86721.0,1.0
15:33:07.115333,198169.59375,177254.796875,233102.421875,206232.5,199294.15625,171205.078125,686409.5625,201018.28125,0.08837890625,0.983642578125,-0.216552734375,-2.044677495956421,0.1220703050494194,0.7629393935203552,100.0,86722.0,1.0
15:33:07.120687,198161.90625,177244.25,233088.46875,206222.125,199280.921875,171182.71875,686369.625,201012.28125,0.087646484375,0.984130859375,-0.216064453125,-2.014159917831421,0.1525878757238388,0.7324218153953552,100.0,86723.0,1.0
15:33:07.125168,198160.109375,177240.21875,233086.78125,206230.96875,199279.578125,171162.875,686402.375,201023.828125,0.085693359375,0.9853515625,-0.216064453125,-1.9836424589157104,0.0915527269244194,0.6408690810203552,100.0,86724.0,1.0
15:33:07.125249,198161.453125,177244.515625,233088.296875,206228.296875,199280.390625,171172.078125,686478.625,201018.1875,0.086181640625,0.984619140625,-0.2158203125,-1.9836424589157104,0.1220703050494194,0.7934569716453552,100.0,86725.0,1.0
15:33:07.131901,198161.71875,177247.734375,233093.21875,206227.84375,199284.9375,171193.71875,686419.0625,201012.5625,0.08544921875,0.986572265625,-0.214111328125,-1.8615721464157104,0.1525878757238388,0.7324218153953552,100.0,86726.0,1.0
15:33:07.138926,198160.65625,177246.921875,233085.4375,206221.9375,199275.921875,171182.90625,686373.75,201006.65625,0.085205078125,0.986572265625,-0.212158203125,-1.8310545682907104,0.1220703050494194,0.6408690810203552,100.0,86727.0,1.0
15:33:07.138961,198157.515625,177240.578125,233079.796875,206225.515625,199271.890625,171161.078125,686394.9375,201018.1875,0.0849609375,0.986572265625,-0.21435546875,-1.9226073026657104,0.1220703050494194,0.6713866591453552,100.0,86728.0,1.0
15:33:07.164453,198159.484375,177242.640625,233081.40625,206224.53125,199274.9375,171167.515625,686479.0625,201015.59375,0.08349609375,0.986572265625,-0.216064453125,-1.8920897245407104,0.1831054538488388,0.5798339247703552,100.0,86729.0,1.0
15:33:07.185651,198157.703125,177240.40625,233085.875,206222.84375,199281.28125,171185.5,686434.875,201010.671875,0.084716796875,0.985107421875,-0.21484375,-1.8310545682907104,0.1831054538488388,0.6103515028953552,100.0,86730.0,1.0
15:33:07.190629,198152.34375,177235.578125,233076.21875,206209.96875,199269.75,171174.234375,686388.9375,200997.890625,0.08837890625,0.98486328125,-0.213134765625,-1.7700194120407104,0.1220703050494194,0.6103515028953552,100.0,86731.0,1.0
15:33:07.195645,198150.734375,177230.921875,233071.3125,206215.859375,199267.15625,171153.21875,686391.0,201009.25,0.08740234375,0.98291015625,-0.211669921875,-1.7089842557907104,0.1220703050494194,0.7019042372703552,100.0,86732.0,1.0
15:33:07.198157,198150.1875,177232.4375,233071.390625,206216.125,199267.234375,171154.921875,686462.0,201006.65625,0.090087890625,0.98291015625,-0.21337890625,-1.8310545682907104,0.0915527269244194,0.6713866591453552,100.0,86733.0,1.0
15:33:07.200599,198151.4375,177238.53125,233081.140625,206217.109375,199276.71875,171183.25,686425.9375,201004.15625,0.089599609375,0.982421875,-0.213623046875,-1.7700194120407104,0.1220703050494194,0.6103515028953552,100.0,86734.0,1.0
15:33:07.203115,198149.5625,177238.875,233075.859375,206208.078125,199269.484375,171183.96875,686389.3125,200993.515625,0.088134765625,0.982421875,-0.213623046875,-1.6784666776657104,0.2136230319738388,0.7324218153953552,100.0,86735.0,1.0
15:33:07.205618,198147.421875,177231.546875,233069.15625,206214.796875,199264.5625,171159.03125,686372.8125,201004.421875,0.0859375,0.982177734375,-0.2158203125,-1.5869139432907104,0.2136230319738388,0.6408690810203552,100.0,86736.0,1.0
15:33:07.208701,198144.46875,177227.703125,233065.046875,206214.171875,199261.078125,171148.921875,686450.875,201003.4375,0.084228515625,0.98486328125,-0.21435546875,-1.5258787870407104,0.2746581733226776,0.5798339247703552,100.0,86737.0,1.0
15:33:07.208717,198149.75,177238.4375,233074.875,206214.34375,199274.125,171180.03125,686441.0625,201004.6875,0.0849609375,0.985107421875,-0.21630859375,-1.3732908964157104,0.2441406100988388,0.4272460639476776,100.0,86738.0,1.0
15:33:07.213164,198157.515625,177247.90625,233080.6875,206211.921875,199277.34375,171194.796875,686394.375,201001.375,0.08349609375,0.982666015625,-0.216552734375,-1.3732908964157104,0.3356933295726776,0.5187987685203552,100.0,86739.0,1.0
15:33:07.221657,198152.515625,177238.078125,233070.59375,206211.75,199268.40625,171168.59375,686367.8125,201004.15625,0.083984375,0.98193359375,-0.21728515625,-1.3122557401657104,0.2441406100988388,0.4882812201976776,100.0,86740.0,1.0
15:33:07.221673,198149.03125,177233.515625,233066.203125,206215.0625,199266.171875,171155.625,686438.375,201006.921875,0.084228515625,0.982421875,-0.217041015625,-1.2207030057907104,0.1525878757238388,0.4882812201976776,100.0,86741.0,1.0
15:33:07.221676,198150.28125,177238.609375,233072.203125,206213.09375,199273.765625,171179.234375,686462.0,201005.046875,0.08544921875,0.982666015625,-0.216796875,-1.2512205839157104,0.0915527269244194,0.4882812201976776,100.0,86742.0,1.0
15:33:07.223096,198147.6875,177239.328125,233072.296875,206206.125,199271.0,171190.234375,686403.6875,200993.875,0.0869140625,0.98388671875,-0.215087890625,-1.1596678495407104,0.0610351525247097,0.4577636420726776,100.0,86743.0,1.0
15:33:07.226255,198149.03125,177237.546875,233068.625,206214.796875,199266.265625,171171.640625,686365.125,200997.265625,0.087158203125,0.98486328125,-0.215576171875,-1.1596678495407104,0.0,0.4272460639476776,100.0,86744.0,1.0
15:33:07.226274,198146.25,177229.671875,233063.34375,206221.140625,199261.875,171152.5,686411.4375,201003.34375,0.086181640625,0.98583984375,-0.21728515625,-1.1596678495407104,-0.03051757626235485,0.3967284858226776,100.0,86745.0,1.0
15:33:07.228221,198147.859375,177235.125,233067.28125,206223.734375,199266.796875,171171.71875,686471.1875,200999.765625,0.08740234375,0.988525390625,-0.21484375,-1.1291502714157104,0.0,0.4577636420726776,100.0,86746.0,1.0
15:33:07.230608,198149.65625,177241.5625,233073.625,206228.375,199272.609375,171191.84375,686415.9375,200995.296875,0.087890625,0.988037109375,-0.21630859375,-1.0986326932907104,-0.1220703050494194,0.5493163466453552,100.0,86747.0,1.0
15:33:07.234024,198142.6875,177232.265625,233062.015625,206218.546875,199259.734375,171168.234375,686367.625,200988.765625,0.08544921875,0.988525390625,-0.216064453125,-1.0986326932907104,-0.1220703050494194,0.5798339247703552,100.0,86748.0,1.0
15:33:07.234043,198140.359375,177225.828125,233060.3125,206223.734375,199258.5625,171147.140625,686395.3125,201000.390625,0.085205078125,0.989013671875,-0.21728515625,-1.1596678495407104,-0.1220703050494194,0.5187987685203552,100.0,86749.0,1.0
15:33:07.238218,198144.5625,177232.4375,233066.84375,206221.578125,199264.921875,171164.21875,686470.75,201001.015625,0.082763671875,0.9892578125,-0.21826171875,-1.2207030057907104,-0.0915527269244194,0.3356933295726776,100.0,86750.0,1.0
15:33:07.238230,198147.0625,177240.484375,233076.578125,206218.640625,199275.46875,171193.0,686412.0625,201000.125,0.081787109375,0.989501953125,-0.21533203125,-1.3427733182907104,-0.0915527269244194,0.2136230319738388,100.0,86751.0,1.0
15:33:07.241267,198141.609375,177232.0,233065.3125,206205.40625,199260.265625,171172.625,686365.6875,200989.671875,0.08154296875,0.9892578125,-0.218017578125,-1.3427733182907104,-0.1525878757238388,0.2136230319738388,100.0,86752.0,1.0
15:33:07.241286,198140.0,177221.890625,233060.3125,206215.6875,199256.15625,171146.0625,686389.0,201002.0,0.07958984375,0.989013671875,-0.2138671875,-1.4038084745407104,-0.1831054538488388,0.1525878757238388,100.0,86753.0,1.0
15:33:07.243220,198146.53125,177228.234375,233065.9375,206219.078125,199262.6875,171156.171875,686469.75,201002.90625,0.080078125,0.989501953125,-0.21630859375,-1.4953612089157104,-0.2136230319738388,0.0915527269244194,100.0,86754.0,1.0
15:33:07.252935,198153.859375,177237.984375,233080.0625,206228.375,199276.890625,171186.828125,686416.375,201004.0625,0.080322265625,0.9912109375,-0.21826171875,-1.5563963651657104,-0.3356933295726776,0.0,100.0,86755.0,1.0
15:33:07.252967,198154.390625,177238.25,233076.046875,206218.359375,199269.921875,171182.09375,686367.3125,200995.203125,0.08056640625,0.991455078125,-0.217529296875,-1.6784666776657104,-0.3662109076976776,-0.0915527269244194,100.0,86756.0,1.0
15:33:07.262892,198153.765625,177231.546875,233071.21875,206226.6875,199267.875,171160.1875,686388.5,201009.515625,0.083740234375,0.990234375,-0.218017578125,-1.6174315214157104,-0.3967284858226776,-0.03051757626235485,100.0,86757.0,1.0
15:33:07.262918,198151.265625,177228.515625,233067.015625,206223.90625,199263.125,171156.609375,686470.9375,201005.140625,0.082275390625,0.98876953125,-0.215087890625,-1.6784666776657104,-0.5493163466453552,-0.0610351525247097,100.0,86758.0,1.0
15:33:07.266254,198155.828125,177239.6875,233077.125,206224.890625,199274.578125,171187.1875,686439.1875,201003.53125,0.082763671875,0.98876953125,-0.214111328125,-1.6784666776657104,-0.6103515028953552,0.0610351525247097,100.0,86759.0,1.0
15:33:07.266273,198154.75,177241.5625,233072.015625,206215.78125,199267.6875,171186.75,686390.875,200993.25,0.0849609375,0.98828125,-0.21728515625,-1.7395018339157104,-0.5187987685203552,0.0,100.0,86760.0,1.0
15:33:07.271896,198150.09375,177230.65625,233062.1875,206219.796875,199259.828125,171160.1875,686364.0625,201000.75,0.08642578125,0.987548828125,-0.21533203125,-1.8005369901657104,-0.5187987685203552,0.1525878757238388,100.0,86761.0,1.0
15:33:07.303902,198146.25,177224.21875,233056.828125,206219.796875,199253.109375,171150.796875,686438.125,200999.140625,0.08740234375,0.986328125,-0.213134765625,-1.7089842557907104,-0.4577636420726776,0.1525878757238388,100.0,86762.0,1.0
15:33:07.303931,198143.484375,177224.3125,233058.96875,206212.5625,199256.0625,171171.71875,686447.0625,200990.828125,0.090576171875,0.986328125,-0.216796875,-1.8005369901657104,-0.3967284858226776,0.1525878757238388,100.0,86763.0,1.0
15:33:07.303933,198146.703125,177229.140625,233062.640625,206204.6875,199255.4375,171181.921875,686389.8125,200982.6875,0.087646484375,0.986328125,-0.2119140625,-1.8005369901657104,-0.3662109076976776,0.2136230319738388,100.0,86764.0,1.0
15:33:07.303934,198144.46875,177222.34375,233059.5,206206.828125,199247.84375,171158.140625,686371.125,200987.96875,0.089111328125,0.984375,-0.21142578125,-1.7395018339157104,-0.3051757514476776,0.1831054538488388,100.0,86765.0,1.0
15:33:07.303936,198140.0,177216.703125,233057.71875,206208.984375,199243.109375,171144.71875,686439.0,200988.0625,0.09033203125,0.9853515625,-0.213623046875,-1.7395018339157104,-0.2441406100988388,0.3356933295726776,100.0,86766.0,1.0
15:33:07.303937,198141.421875,177223.140625,233060.3125,206206.296875,199251.421875,171169.046875,686468.875,200984.484375,0.08837890625,0.98779296875,-0.212158203125,-1.7700194120407104,-0.2136230319738388,0.4272460639476776,100.0,86767.0,1.0
15:33:07.303938,198145.0,177230.296875,233062.453125,206204.0625,199256.328125,171186.65625,686404.75,200980.734375,0.0888671875,0.985595703125,-0.212158203125,-1.8005369901657104,-0.2136230319738388,0.4577636420726776,100.0,86768.0,1.0
15:33:07.303939,198144.296875,177226.0,233054.3125,206201.109375,199250.515625,171168.234375,686365.75,200985.46875,0.087158203125,0.985107421875,-0.215087890625,-1.7700194120407104,-0.2136230319738388,0.5798339247703552,100.0,86769.0,1.0
15:33:07.303941,198139.734375,177219.296875,233049.21875,206205.21875,199245.609375,171148.75,686417.25,200991.71875,0.08447265625,0.98486328125,-0.21435546875,-1.7089842557907104,-0.0915527269244194,0.7019042372703552,100.0,86770.0,1.0
