Timestamp,Fz,FC3,FCz,FC4,Cz,C3,C4
15:39:12.073727,197949.203125,181924.4375,230354.234375,210072.796875,199557.8125,177041.375,686163.5625,200049.1875,0.0986328125,0.981201171875,-0.23876953125,-1.4038084745407104,-0.3662109076976776,0.3356933295726776,100.0,178030.0,1.0
15:39:12.078164,197958.328125,181936.6875,230361.296875,210074.3125,199565.234375,177057.46875,686158.0,200047.9375,0.09765625,0.981201171875,-0.239501953125,-1.3427733182907104,-0.3051757514476776,0.3662109076976776,100.0,178031.0,1.0
15:39:12.078180,197960.5625,181934.984375,230359.140625,210082.171875,199564.15625,177032.0,686162.9375,200059.828125,0.09765625,0.980224609375,-0.23779296875,-1.3122557401657104,-0.3356933295726776,0.4577636420726776,100.0,178032.0,1.0
15:39:12.098364,197965.125,181936.859375,230363.609375,210087.453125,199565.328125,177023.234375,686181.4375,200065.46875,0.099853515625,0.979248046875,-0.23974609375,-1.3427733182907104,-0.2136230319738388,0.3662109076976776,100.0,178033.0,1.0
15:39:12.098426,197971.5625,181948.03125,230378.09375,210092.8125,199580.609375,177059.703125,686217.25,200068.234375,0.09765625,0.97998046875,-0.2421875,-1.3732908964157104,-0.3356933295726776,0.5187987685203552,100.0,178034.0,1.0
15:39:12.098444,197972.71875,181954.03125,230382.390625,210087.90625,199582.046875,177075.71875,686188.1875,200060.546875,0.099853515625,0.980224609375,-0.238037109375,-1.4343260526657104,-0.3051757514476776,0.4882812201976776,100.0,178035.0,1.0
15:39:12.098459,197969.328125,181946.15625,230374.796875,210087.28125,199572.5625,177046.921875,686198.5625,200063.40625,0.099853515625,0.97998046875,-0.23779296875,-1.4953612089157104,-0.3051757514476776,0.3967284858226776,100.0,178036.0,1.0
15:39:12.098873,197966.90625,181940.890625,230370.328125,210089.953125,199568.359375,177026.09375,686197.1875,200066.984375,0.09912109375,0.982421875,-0.239501953125,-1.4648436307907104,-0.2746581733226776,0.4577636420726776,100.0,178037.0,1.0
15:39:12.105162,197970.84375,181948.65625,230377.75,210090.765625,199579.09375,177057.203125,686224.0,200065.46875,0.09765625,0.982666015625,-0.2412109375,-1.4953612089157104,-0.2746581733226776,0.4577636420726776,100.0,178038.0,1.0
15:39:12.109324,197970.75,181953.40625,230381.671875,210085.9375,199582.40625,177081.171875,686194.8125,200057.515625,0.09912109375,0.9814453125,-0.2392578125,-1.4343260526657104,-0.2136230319738388,0.5187987685203552,100.0,178039.0,1.0
15:39:12.109365,197963.234375,181944.1875,230369.875,210078.0625,199568.625,177054.25,686188.1875,200053.671875,0.09765625,0.981689453125,-0.237548828125,-1.4343260526657104,-0.2441406100988388,0.4882812201976776,100.0,178040.0,1.0
15:39:12.136258,197954.75,181930.953125,230357.453125,210077.703125,199556.203125,177022.34375,686172.3125,200055.1875,0.098388671875,0.98095703125,-0.23681640625,-1.4953612089157104,-0.1525878757238388,0.4577636420726776,100.0,178041.0,1.0
15:39:12.149904,197952.59375,181930.609375,230356.015625,210072.34375,199557.546875,177036.28125,686201.5625,200046.515625,0.098388671875,0.980224609375,-0.239990234375,-1.5869139432907104,-0.1220703050494194,0.4272460639476776,100.0,178042.0,1.0
15:39:12.149919,197950.640625,181934.359375,230358.34375,210067.875,199560.9375,177061.234375,686167.5625,200036.40625,0.09912109375,0.980224609375,-0.23974609375,-1.5869139432907104,-0.0915527269244194,0.3967284858226776,100.0,178043.0,1.0
15:39:12.149924,197949.296875,181933.640625,230352.984375,210063.578125,199553.078125,177046.828125,686162.75,200033.28125,0.09814453125,0.97705078125,-0.23681640625,-1.5869139432907104,-0.1220703050494194,0.3967284858226776,100.0,178044.0,1.0
15:39:12.154276,197943.296875,181923.1875,230342.96875,210069.390625,199544.046875,177015.1875,686180.4375,200039.453125,0.096923828125,0.978271484375,-0.240234375,-1.5869139432907104,-0.1220703050494194,0.4882812201976776,100.0,178045.0,1.0
15:39:12.154310,197939.8125,181918.890625,230339.296875,210063.84375,199540.46875,177019.5625,686198.5,200030.59375,0.099609375,0.97998046875,-0.239990234375,-1.5563963651657104,-0.0915527269244194,0.5187987685203552,100.0,178046.0,1.0
15:39:12.154317,197941.0625,181922.5625,230346.265625,210063.765625,199548.875,177050.953125,686171.4375,200029.609375,0.1005859375,0.978271484375,-0.24072265625,-1.4953612089157104,0.0,0.5493163466453552,100.0,178047.0,1.0
15:39:12.154324,197938.390625,181919.0625,230338.578125,210055.453125,199538.859375,177038.875,686163.1875,200023.359375,0.09912109375,0.97998046875,-0.240234375,-1.5869139432907104,0.0,0.4577636420726776,100.0,178048.0,1.0
15:39:12.156942,197936.234375,181911.203125,230332.234375,210066.4375,199534.03125,177006.875,686147.8125,200037.03125,0.100341796875,0.97900390625,-0.239501953125,-1.5869139432907104,-0.03051757626235485,0.4882812201976776,100.0,178049.0,1.0
15:39:12.156976,197935.25,181910.390625,230329.640625,210062.859375,199531.890625,177006.78125,686184.8125,200032.203125,0.0986328125,0.97900390625,-0.2353515625,-1.6174315214157104,-0.0610351525247097,0.5187987685203552,100.0,178050.0,1.0
15:39:12.158861,197937.765625,181916.65625,230340.1875,210065.640625,199545.203125,177041.5625,686188.8125,200032.46875,0.09765625,0.97998046875,-0.236572265625,-1.5563963651657104,-0.1831054538488388,0.6103515028953552,100.0,178051.0,1.0
15:39:12.161367,197943.578125,181922.640625,230341.625,210064.296875,199546.109375,177044.515625,686172.9375,200031.671875,0.0966796875,0.979736328125,-0.2373046875,-1.4648436307907104,-0.1525878757238388,0.4882812201976776,100.0,178052.0,1.0
15:39:12.163992,197940.984375,181913.609375,230332.859375,210072.171875,199539.671875,177011.875,686171.6875,200042.84375,0.0966796875,0.978759765625,-0.236572265625,-1.4648436307907104,-0.0915527269244194,0.4882812201976776,100.0,178053.0,1.0
15:39:12.171464,197945.8125,181916.125,230336.078125,210074.40625,199542.171875,177009.734375,686195.5625,200047.9375,0.09765625,0.98095703125,-0.238037109375,-1.4953612089157104,0.03051757626235485,0.4272460639476776,100.0,178054.0,1.0
15:39:12.174587,197946.34375,181920.328125,230343.59375,210072.4375,199553.078125,177040.390625,686199.125,200045.265625,0.096923828125,0.98095703125,-0.238037109375,-1.4343260526657104,-0.03051757626235485,0.4272460639476776,100.0,178055.0,1.0
15:39:12.174638,197946.515625,181924.4375,230344.65625,210065.375,199552.71875,177048.984375,686174.25,200035.96875,0.0966796875,0.978515625,-0.236083984375,-1.5258787870407104,0.03051757626235485,0.3967284858226776,100.0,178056.0,1.0
15:39:12.181427,197941.34375,181916.125,230335.28125,210068.953125,199544.671875,177018.5,686165.625,200041.328125,0.097412109375,0.980712890625,-0.237060546875,-1.5563963651657104,0.03051757626235485,0.3356933295726776,100.0,178057.0,1.0
15:39:12.188129,197939.375,181912.0,230332.59375,210070.734375,199541.71875,177003.921875,686177.0625,200043.734375,0.099365234375,0.979736328125,-0.2392578125,-1.5258787870407104,-0.0610351525247097,0.3662109076976776,100.0,178058.0,1.0
15:39:12.188163,197943.578125,181919.421875,230343.140625,210075.03125,199554.953125,177036.546875,686197.4375,200042.84375,0.098876953125,0.9794921875,-0.238037109375,-1.5258787870407104,-0.0915527269244194,0.3051757514476776,100.0,178059.0,1.0
15:39:12.195591,197944.640625,181923.984375,230346.625,210067.78125,199556.5625,177052.28125,686171.75,200035.421875,0.099609375,0.97900390625,-0.23779296875,-1.4648436307907104,-0.1220703050494194,0.5798339247703552,100.0,178060.0,1.0
15:39:12.195610,197941.15625,181916.65625,230337.859375,210067.609375,199547.71875,177024.296875,686161.3125,200039.984375,0.099853515625,0.975830078125,-0.241455078125,-1.4953612089157104,0.0,0.4882812201976776,100.0,178061.0,1.0
15:39:12.197485,197937.046875,181912.1875,230330.265625,210069.65625,199541.71875,176999.984375,686164.875,200042.046875,0.101318359375,0.9755859375,-0.239013671875,-1.5869139432907104,0.0,0.5798339247703552,100.0,178062.0,1.0
15:39:12.208065,197939.90625,181922.5625,230337.78125,210068.671875,199550.390625,177027.25,686200.1875,200037.65625,0.10302734375,0.9765625,-0.23974609375,-1.5563963651657104,0.0,0.5798339247703552,100.0,178063.0,1.0
15:39:12.208089,197943.296875,181931.046875,230344.65625,210067.34375,199557.09375,177055.6875,686167.625,200033.109375,0.099853515625,0.978271484375,-0.24072265625,-1.5258787870407104,0.03051757626235485,0.6103515028953552,100.0,178064.0,1.0
15:39:12.210088,197938.828125,181923.453125,230332.953125,210061.796875,199545.125,177031.28125,686163.0625,200029.796875,0.097900390625,0.9794921875,-0.240234375,-1.5563963651657104,-0.0610351525247097,0.5187987685203552,100.0,178065.0,1.0
15:39:12.216298,197936.234375,181917.546875,230326.0625,210066.078125,199538.6875,177005.265625,686159.875,200036.046875,0.097900390625,0.97998046875,-0.2392578125,-1.4648436307907104,0.0,0.4577636420726776,100.0,178066.0,1.0
15:39:12.264339,197934.453125,181918.625,230325.703125,210061.171875,199540.375,177020.375,686203.0625,200028.90625,0.095458984375,0.980712890625,-0.24072265625,-1.4648436307907104,0.03051757626235485,0.5187987685203552,100.0,178067.0,1.0
15:39:12.264382,197935.078125,181922.734375,230334.296875,210060.28125,199546.453125,177046.65625,686169.6875,200023.796875,0.093994140625,0.9794921875,-0.239990234375,-1.5258787870407104,-0.03051757626235485,0.4882812201976776,100.0,178068.0,1.0
15:39:12.266768,197932.9375,181918.890625,230328.390625,210053.921875,199536.265625,177029.3125,686163.625,200018.53125,0.095458984375,0.97802734375,-0.239501953125,-1.4953612089157104,-0.0915527269244194,0.3662109076976776,100.0,178069.0,1.0
15:39:12.266780,197928.734375,181911.109375,230320.078125,210057.765625,199529.390625,176999.359375,686152.4375,200025.140625,0.09521484375,0.97802734375,-0.241455078125,-1.4648436307907104,-0.0610351525247097,0.3662109076976776,100.0,178070.0,1.0
15:39:12.268715,197929.71875,181915.3125,230322.3125,210053.5625,199531.796875,177010.0,686194.3125,200020.765625,0.097900390625,0.978515625,-0.24072265625,-1.4648436307907104,-0.1525878757238388,0.3051757514476776,100.0,178071.0,1.0
15:39:12.273685,197933.828125,181924.171875,230333.84375,210055.53125,199543.15625,177043.890625,686166.6875,200020.046875,0.09765625,0.97802734375,-0.239501953125,-1.4038084745407104,-0.2136230319738388,0.4272460639476776,100.0,178072.0,1.0
15:39:12.276214,197933.5625,181923.53125,230329.015625,210048.828125,199537.25,177036.828125,686161.125,200014.859375,0.09814453125,0.981201171875,-0.2392578125,-1.4038084745407104,-0.1831054538488388,0.3967284858226776,100.0,178073.0,1.0
15:39:12.278764,197925.515625,181909.140625,230317.296875,210052.578125,199527.328125,177000.609375,686158.875,200023.09375,0.099365234375,0.980712890625,-0.238037109375,-1.3732908964157104,-0.2136230319738388,0.3662109076976776,100.0,178074.0,1.0
15:39:12.281237,197925.6875,181908.703125,230315.421875,210050.796875,199526.078125,177000.4375,686192.9375,200019.6875,0.10009765625,0.9814453125,-0.239013671875,-1.3732908964157104,-0.1831054538488388,0.3662109076976776,100.0,178075.0,1.0
15:39:12.283697,197931.046875,181918.359375,230327.765625,210055.71875,199539.9375,177038.4375,686171.4375,200021.125,0.100341796875,0.980224609375,-0.24169921875,-1.4038084745407104,-0.1831054538488388,0.3051757514476776,100.0,178076.0,1.0
15:39:12.286196,197931.765625,181919.609375,230326.515625,210048.828125,199536.53125,177038.703125,686170.125,200015.3125,0.09814453125,0.98046875,-0.239990234375,-1.4038084745407104,-0.1831054538488388,0.2136230319738388,100.0,178077.0,1.0
15:39:12.288671,197926.578125,181906.90625,230317.84375,210054.46875,199528.046875,177003.390625,686161.8125,200025.6875,0.09619140625,0.98095703125,-0.236328125,-1.4343260526657104,-0.3051757514476776,0.0915527269244194,100.0,178078.0,1.0
15:39:12.291484,197929.625,181909.765625,230319.265625,210059.46875,199529.109375,177000.34375,686180.875,200028.71875,0.0947265625,0.981201171875,-0.239501953125,-1.5258787870407104,-0.2136230319738388,-0.03051757626235485,100.0,178079.0,1.0
15:39:12.294042,197932.125,181917.640625,230332.953125,210061.796875,199541.546875,177036.203125,686197.0625,200027.828125,0.093505859375,0.982666015625,-0.24072265625,-1.5258787870407104,-0.2441406100988388,-0.1220703050494194,100.0,178080.0,1.0
15:39:12.296164,197931.40625,181919.78125,230331.421875,210052.578125,199539.03125,177044.25,686164.8125,200016.65625,0.091796875,0.984619140625,-0.23779296875,-1.6174315214157104,-0.2746581733226776,-0.2746581733226776,100.0,178081.0,1.0
15:39:12.298697,197930.609375,181913.078125,230323.296875,210054.90625,199533.40625,177014.921875,686146.75,200022.90625,0.0908203125,0.985107421875,-0.240966796875,-1.7395018339157104,-0.3051757514476776,-0.2136230319738388,100.0,178082.0,1.0
15:39:12.301788,197931.40625,181911.015625,230323.5625,210055.53125,199530.1875,177002.9375,686152.1875,200024.875,0.09326171875,0.984375,-0.236328125,-1.7700194120407104,-0.4882812201976776,-0.3051757514476776,100.0,178083.0,1.0
15:39:12.301808,197935.078125,181919.875,230335.09375,210058.390625,199543.59375,177036.546875,686187.5625,200025.6875,0.09375,0.98291015625,-0.23486328125,-1.8005369901657104,-0.4882812201976776,-0.3662109076976776,100.0,178084.0,1.0
15:39:12.303707,197943.125,181931.859375,230346.0,210061.609375,199552.890625,177060.96875,686164.25,200025.5,0.0947265625,0.984375,-0.2353515625,-1.7700194120407104,-0.5798339247703552,-0.3051757514476776,100.0,178085.0,1.0
15:39:12.306798,197940.625,181924.796875,230336.34375,210059.921875,199544.140625,177033.0625,686155.5,200027.921875,0.094970703125,0.982177734375,-0.23828125,-1.8005369901657104,-0.5187987685203552,-0.3051757514476776,100.0,178086.0,1.0
15:39:12.306823,197941.515625,181922.375,230334.828125,210064.65625,199541.28125,177013.046875,686154.25,200034.359375,0.0966796875,0.980224609375,-0.23828125,-1.8005369901657104,-0.5798339247703552,-0.2136230319738388,100.0,178087.0,1.0
15:39:12.308681,197947.6875,181931.5,230345.375,210068.234375,199554.421875,177042.359375,686191.5,200036.59375,0.097412109375,0.97998046875,-0.235595703125,-1.8615721464157104,-0.6713866591453552,-0.2441406100988388,100.0,178088.0,1.0
15:39:12.311169,197952.953125,181939.984375,230354.9375,210070.734375,199564.515625,177070.171875,686155.9375,200035.6875,0.096923828125,0.978759765625,-0.23681640625,-1.9531248807907104,-0.5493163466453552,-0.2136230319738388,100.0,178089.0,1.0
15:39:12.314245,197949.5625,181931.5,230345.109375,210067.6875,199553.4375,177044.78125,686149.5,200033.28125,0.09765625,0.97998046875,-0.235595703125,-1.8920897245407104,-0.5493163466453552,-0.0915527269244194,100.0,178090.0,1.0
15:39:12.314265,197949.921875,181927.03125,230341.359375,210074.578125,199550.03125,177019.828125,686152.625,200044.640625,0.0966796875,0.97802734375,-0.237548828125,-1.8310545682907104,-0.4577636420726776,0.1220703050494194,100.0,178091.0,1.0
15:39:12.325568,197952.515625,181932.125,230344.65625,210073.953125,199556.390625,177037.09375,686196.8125,200043.46875,0.10009765625,0.97802734375,-0.235107421875,-1.8920897245407104,-0.4577636420726776,0.1831054538488388,100.0,178092.0,1.0
15:39:12.325596,197951.625,181934.625,230349.578125,210070.5625,199561.390625,177061.59375,686161.9375,200038.109375,0.099853515625,0.97802734375,-0.23681640625,-1.8005369901657104,-0.2746581733226776,0.2136230319738388,100.0,178093.0,1.0
15:39:12.328063,197948.484375,181927.921875,230340.734375,210063.140625,199550.9375,177042.8125,686154.4375,200032.390625,0.10009765625,0.978271484375,-0.236083984375,-1.8005369901657104,-0.2441406100988388,0.3662109076976776,100.0,178094.0,1.0
15:39:12.328083,197944.015625,181918.796875,230335.28125,210069.75,199542.171875,177010.625,686152.0,200041.5,0.09912109375,0.977783203125,-0.234375,-1.8920897245407104,-0.1831054538488388,0.4577636420726776,100.0,178095.0,1.0
15:39:12.337556,197945.8125,181925.59375,230337.859375,210068.140625,199544.046875,177021.078125,686204.125,200038.109375,0.095947265625,0.978271484375,-0.234130859375,-1.8615721464157104,-0.0915527269244194,0.5493163466453552,100.0,178096.0,1.0
15:39:12.342324,197946.078125,181931.578125,230344.484375,210068.328125,199553.34375,177052.109375,686186.875,200034.71875,0.09619140625,0.979248046875,-0.2333984375,-1.8005369901657104,-0.1525878757238388,0.5798339247703552,100.0,178097.0,1.0
15:39:12.342360,197946.875,181932.75,230341.4375,210064.296875,199547.53125,177045.40625,686169.0,200030.421875,0.095703125,0.978271484375,-0.232177734375,-1.7395018339157104,-0.0610351525247097,0.6408690810203552,100.0,178098.0,1.0
15:39:12.347469,197940.265625,181920.5,230330.171875,210067.6875,199537.515625,177009.46875,686151.3125,200036.859375,0.09423828125,0.9775390625,-0.232421875,-1.6784666776657104,-0.1220703050494194,0.7324218153953552,100.0,178099.0,1.0
15:39:12.355598,197940.625,181923.890625,230328.5625,210066.625,199538.40625,177012.6875,686192.125,200035.515625,0.095458984375,0.9775390625,-0.235107421875,-1.7089842557907104,-0.03051757626235485,0.8544921278953552,100.0,178100.0,1.0
15:39:12.355641,197942.953125,181931.578125,230339.203125,210068.5,199550.84375,177048.890625,686185.1875,200034.265625,0.09423828125,0.9794921875,-0.23583984375,-1.7395018339157104,-0.03051757626235485,0.8544921278953552,100.0,178101.0,1.0
15:39:12.361251,197939.015625,181928.09375,230333.03125,210055.265625,199541.90625,177044.328125,686167.375,200021.5625,0.092041015625,0.97998046875,-0.23291015625,-1.5563963651657104,0.03051757626235485,0.7629393935203552,100.0,178102.0,1.0
15:39:12.368077,197934.71875,181917.375,230324.71875,210059.921875,199534.84375,177011.4375,686160.4375,200031.140625,0.09228515625,0.97998046875,-0.23486328125,-1.5869139432907104,-0.03051757626235485,0.7629393935203552,100.0,178103.0,1.0
15:39:12.368102,197937.671875,181918.53125,230326.15625,210060.28125,199535.015625,177006.6875,686180.1875,200032.828125,0.093017578125,0.977783203125,-0.235107421875,-1.5258787870407104,0.0,0.7934569716453552,100.0,178104.0,1.0
15:39:12.374243,197942.953125,181927.203125,230338.671875,210064.03125,199550.390625,177042.546875,686190.8125,200033.015625,0.09521484375,0.9794921875,-0.234130859375,-1.5258787870407104,0.0610351525247097,0.7324218153953552,100.0,178105.0,1.0
15:39:12.374267,197944.28125,181929.890625,230339.46875,210057.953125,199550.296875,177051.84375,686159.9375,200025.6875,0.09619140625,0.978759765625,-0.232421875,-1.5563963651657104,0.0610351525247097,0.7629393935203552,100.0,178106.0,1.0
15:39:12.376247,197939.640625,181920.046875,230330.359375,210057.953125,199541.453125,177019.203125,686165.4375,200028.984375,0.095458984375,0.977783203125,-0.23193359375,-1.4953612089157104,-0.03051757626235485,0.7324218153953552,100.0,178107.0,1.0
15:39:12.385116,197941.515625,181920.953125,230330.53125,210062.421875,199539.484375,177007.5,686190.875,200030.15625,0.09619140625,0.97802734375,-0.233642578125,-1.4648436307907104,-0.03051757626235485,0.7934569716453552,100.0,178108.0,1.0
15:39:12.389261,197949.734375,181933.734375,230344.65625,210067.515625,199554.78125,177043.078125,686211.1875,200031.21875,0.0986328125,0.97900390625,-0.23486328125,-1.3427733182907104,0.0610351525247097,0.7324218153953552,100.0,178109.0,1.0
15:39:12.389286,197954.484375,181941.78125,230353.421875,210062.421875,199559.421875,177062.484375,686174.6875,200025.59375,0.098876953125,0.9794921875,-0.235595703125,-1.3427733182907104,0.0915527269244194,0.6408690810203552,100.0,178110.0,1.0
15:39:12.396196,197957.875,181940.265625,230350.5625,210066.265625,199556.03125,177040.046875,686164.0625,200032.390625,0.10009765625,0.979736328125,-0.238525390625,-1.2207030057907104,0.0610351525247097,0.7019042372703552,100.0,178111.0,1.0
15:39:12.400074,197955.46875,181933.640625,230344.03125,210068.671875,199547.71875,177014.5625,686152.875,200033.8125,0.09814453125,0.978759765625,-0.23779296875,-1.1901854276657104,0.1525878757238388,0.7934569716453552,100.0,178112.0,1.0
15:39:12.410549,197955.46875,181936.765625,230349.578125,210067.34375,199553.171875,177036.640625,686190.5625,200029.703125,0.099853515625,0.9775390625,-0.23779296875,-1.1291502714157104,0.2441406100988388,0.7324218153953552,100.0,178113.0,1.0
15:39:12.410576,197956.171875,181943.03125,230356.546875,210064.921875,199559.609375,177061.9375,686155.3125,200025.140625,0.10205078125,0.975830078125,-0.236083984375,-1.0070799589157104,0.4272460639476776,0.7629393935203552,100.0,178114.0,1.0
15:39:12.415494,197953.671875,181939.8125,230349.765625,210062.234375,199552.546875,177043.4375,686148.875,200027.015625,0.10302734375,0.97705078125,-0.238037109375,-1.0070799589157104,0.4272460639476776,0.7324218153953552,100.0,178115.0,1.0
15:39:12.415519,197947.59375,181929.53125,230340.734375,210068.953125,199542.703125,177012.953125,686148.875,200035.0625,0.101806640625,0.977294921875,-0.23828125,-1.0070799589157104,0.5798339247703552,0.7629393935203552,100.0,178116.0,1.0
15:39:12.421258,197944.5625,181928.359375,230341.078125,210065.109375,199543.15625,177026.1875,686192.875,200031.046875,0.100341796875,0.978515625,-0.24072265625,-0.9765624403953552,0.6103515028953552,0.7019042372703552,100.0,178117.0,1.0
15:39:12.425574,197949.828125,181937.671875,230350.921875,210069.65625,199555.125,177060.421875,686161.125,200033.28125,0.10107421875,0.981201171875,-0.24072265625,-0.9155272841453552,0.7324218153953552,0.6713866591453552,100.0,178118.0,1.0
15:39:12.425598,197947.953125,181935.15625,230344.390625,210062.59375,199547.71875,177046.828125,686147.875,200029.703125,0.099609375,0.981689453125,-0.238037109375,-0.8850097060203552,0.8544921278953552,0.6408690810203552,100.0,178119.0,1.0
15:39:12.432435,197937.671875,181918.71875,230330.53125,210064.65625,199536.09375,177009.109375,686130.8125,200033.109375,0.098388671875,0.98095703125,-0.23583984375,-0.9155272841453552,0.8239745497703552,0.7019042372703552,100.0,178120.0,1.0
15:39:12.439269,197936.953125,181918.53125,230329.546875,210064.46875,199536.984375,177016.53125,686186.25,200028.359375,0.0986328125,0.97998046875,-0.237548828125,-0.8850097060203552,0.8239745497703552,0.6103515028953552,100.0,178121.0,1.0
15:39:12.439305,197943.125,181928.71875,230342.875,210067.15625,199550.84375,177053.8125,686177.125,200029.25,0.097900390625,0.980224609375,-0.23974609375,-0.8850097060203552,0.8239745497703552,0.5798339247703552,100.0,178122.0,1.0
15:39:12.448693,197946.796875,181931.859375,230342.421875,210059.296875,199548.15625,177050.046875,686165.3125,200025.234375,0.095947265625,0.9814453125,-0.24072265625,-0.8850097060203552,0.8544921278953552,0.6408690810203552,100.0,178123.0,1.0
15:39:12.451993,197941.421875,181920.234375,230333.75,210061.796875,199540.203125,177016.34375,686166.125,200033.015625,0.095458984375,0.97998046875,-0.240234375,-0.8850097060203552,0.8239745497703552,0.6103515028953552,100.0,178124.0,1.0
15:39:12.452014,197938.921875,181918.890625,230330.171875,210056.875,199538.328125,177013.9375,686196.4375,200028.453125,0.09326171875,0.980712890625,-0.239990234375,-0.8850097060203552,0.7934569716453552,0.5187987685203552,100.0,178125.0,1.0
15:39:12.454032,197943.125,181929.265625,230341.078125,210061.34375,199552.8125,177052.921875,686177.375,200030.15625,0.093505859375,0.981689453125,-0.2392578125,-0.8239745497703552,0.7324218153953552,0.4882812201976776,100.0,178126.0,1.0
15:39:12.466820,197946.703125,181933.640625,230341.53125,210058.390625,199551.5625,177056.046875,686162.5625,200025.765625,0.091552734375,0.97900390625,-0.2373046875,-0.8850097060203552,0.7629393935203552,0.4882812201976776,100.0,178127.0,1.0
15:39:12.466859,197944.203125,181925.859375,230334.109375,210061.96875,199544.578125,177023.859375,686150.75,200035.0625,0.095458984375,0.981201171875,-0.23828125,-0.8850097060203552,0.7324218153953552,0.4577636420726776,100.0,178128.0,1.0
15:39:12.469323,197940.171875,181920.671875,230327.671875,210056.25,199537.421875,177010.71875,686169.8125,200029.25,0.09326171875,0.97998046875,-0.236572265625,-0.9155272841453552,0.6408690810203552,0.3967284858226776,100.0,178129.0,1.0
15:39:12.469356,197945.625,181930.0625,230340.109375,210060.90625,199551.375,177045.5,686176.875,200029.703125,0.092041015625,0.98193359375,-0.237060546875,-0.9765624403953552,0.5187987685203552,0.3967284858226776,100.0,178130.0,1.0
15:39:12.476284,197950.09375,181935.703125,230344.390625,210056.25,199551.828125,177057.03125,686156.8125,200023.453125,0.09326171875,0.9775390625,-0.238037109375,-0.9765624403953552,0.5493163466453552,0.3356933295726776,100.0,178131.0,1.0
15:39:12.484329,197948.9375,181929.703125,230337.234375,210058.484375,199544.671875,177026.265625,686160.6875,200031.84375,0.09375,0.97802734375,-0.236572265625,-0.9765624403953552,0.4882812201976776,0.3356933295726776,100.0,178132.0,1.0
15:39:12.484375,197948.578125,181926.578125,230332.59375,210060.28125,199538.40625,177008.921875,686177.375,200032.75,0.092529296875,0.9765625,-0.238525390625,-1.0375975370407104,0.3967284858226776,0.3967284858226776,100.0,178133.0,1.0
15:39:12.486230,197948.046875,181929.0,230335.546875,210057.5,199544.40625,177035.03125,686184.125,200026.75,0.0927734375,0.9775390625,-0.239013671875,-1.0986326932907104,0.3356933295726776,0.4882812201976776,100.0,178134.0,1.0
15:39:12.490078,197947.328125,181929.625,230337.234375,210051.953125,199545.203125,177052.015625,686152.5625,200017.640625,0.0947265625,0.978271484375,-0.243896484375,-1.0986326932907104,0.3662109076976776,0.5493163466453552,100.0,178135.0,1.0
15:39:12.500575,197947.78125,181927.203125,230334.46875,210054.46875,199540.640625,177029.9375,686147.0625,200023.171875,0.09375,0.980712890625,-0.242919921875,-1.0375975370407104,0.3051757514476776,0.5798339247703552,100.0,178136.0,1.0
15:39:12.500632,197945.1875,181922.734375,230330.53125,210058.3125,199536.796875,177009.640625,686147.625,200026.125,0.095703125,0.979736328125,-0.23876953125,-1.0986326932907104,0.2136230319738388,0.7629393935203552,100.0,178137.0,1.0
15:39:12.503146,197946.4375,181927.46875,230337.15625,210058.484375,199544.84375,177033.421875,686182.3125,200022.546875,0.095703125,0.98046875,-0.239501953125,-1.1596678495407104,0.1220703050494194,0.8544921278953552,100.0,178138.0,1.0
15:39:12.503191,197951.890625,181939.09375,230349.3125,210061.171875,199555.578125,177062.84375,686154.5,200021.125,0.09521484375,0.980224609375,-0.240478515625,-1.1596678495407104,0.0915527269244194,0.9155272841453552,100.0,178139.0,1.0
15:39:12.508748,197951.796875,181939.28125,230345.28125,210060.359375,199550.65625,177045.859375,686156.8125,200022.734375,0.09375,0.979248046875,-0.23779296875,-1.2207030057907104,0.0915527269244194,0.9460448622703552,100.0,178140.0,1.0
15:39:12.524913,197950.453125,181934.359375,230341.890625,210068.328125,199546.8125,177019.484375,686167.75,200032.5625,0.090576171875,0.98046875,-0.239501953125,-1.2512205839157104,0.0610351525247097,0.9155272841453552,100.0,178141.0,1.0
15:39:12.524934,197952.78125,181939.453125,230344.84375,210066.4375,199552.0,177035.484375,686196.625,200029.890625,0.0888671875,0.980224609375,-0.2421875,-1.2207030057907104,0.0610351525247097,1.0070799589157104,100.0,178142.0,1.0
15:39:12.524941,197956.890625,181948.125,230355.21875,210071.8125,199563.890625,177066.859375,686155.375,200030.234375,0.089599609375,0.980224609375,-0.244140625,-1.2512205839157104,0.03051757626235485,0.9155272841453552,100.0,178143.0,1.0
15:39:12.527510,197956.453125,181947.234375,230349.84375,210073.59375,199557.453125,177054.078125,686148.625,200028.28125,0.090576171875,0.982421875,-0.2470703125,-1.2512205839157104,-0.0610351525247097,0.9765624403953552,100.0,178144.0,1.0
15:39:12.530107,197950.359375,181934.171875,230340.015625,210078.953125,199548.609375,177019.125,686144.75,200036.40625,0.090576171875,0.982421875,-0.2451171875,-1.2817381620407104,-0.0915527269244194,0.8544921278953552,100.0,178145.0,1.0
15:39:12.533771,197951.4375,181934.09375,230340.640625,210076.1875,199549.765625,177025.640625,686191.375,200033.640625,0.090087890625,0.98193359375,-0.243896484375,-1.4343260526657104,-0.2441406100988388,0.8239745497703552,100.0,178146.0,1.0
15:39:12.541720,197954.84375,181942.40625,230354.40625,210079.5,199564.15625,177061.3125,686175.4375,200036.671875,0.090576171875,0.9814453125,-0.2421875,-1.5563963651657104,-0.3967284858226776,0.7934569716453552,100.0,178147.0,1.0
15:39:12.548659,197953.671875,181941.59375,230351.09375,210079.046875,199557.09375,177054.25,686157.5625,200029.34375,0.089599609375,0.97998046875,-0.24169921875,-1.5563963651657104,-0.4272460639476776,0.7934569716453552,100.0,178148.0,1.0
15:39:12.548739,197953.671875,181936.59375,230346.359375,210093.359375,199552.1875,177024.84375,686147.4375,200041.59375,0.09130859375,0.9814453125,-0.241455078125,-1.6784666776657104,-0.5187987685203552,0.7324218153953552,100.0,178149.0,1.0
15:39:12.558235,197951.078125,181934.0,230341.359375,210089.234375,199547.984375,177021.625,686177.5625,200036.40625,0.09228515625,0.97998046875,-0.241455078125,-1.7395018339157104,-0.5493163466453552,0.7934569716453552,100.0,178150.0,1.0
15:39:12.558319,197947.859375,181936.140625,230345.203125,210086.828125,199554.0625,177052.203125,686169.6875,200031.671875,0.0947265625,0.98095703125,-0.24267578125,-1.7395018339157104,-0.5798339247703552,0.8239745497703552,100.0,178151.0,1.0
15:39:12.560100,197945.09375,181936.328125,230340.28125,210076.28125,199547.890625,177052.828125,686165.5,200021.65625,0.097412109375,0.981201171875,-0.243408203125,-1.7700194120407104,-0.6103515028953552,0.7934569716453552,100.0,178152.0,1.0
15:39:12.563791,197942.046875,181929.171875,230333.75,210080.296875,199541.0,177022.96875,686148.9375,200030.0625,0.09716796875,0.98291015625,-0.243896484375,-1.8615721464157104,-0.5187987685203552,0.7324218153953552,100.0,178153.0,1.0
15:39:12.574337,197942.5,181929.265625,230334.921875,210081.28125,199539.390625,177016.890625,686164.4375,200029.078125,0.099609375,0.98193359375,-0.2431640625,-1.8615721464157104,-0.4882812201976776,0.7934569716453552,100.0,178154.0,1.0
15:39:12.574400,197943.125,181934.984375,230342.875,210081.109375,199551.375,177049.78125,686180.875,200026.578125,0.099853515625,0.983154296875,-0.24267578125,-1.9226073026657104,-0.3967284858226776,0.9155272841453552,100.0,178155.0,1.0
15:39:12.576998,197941.78125,181936.40625,230340.1875,210071.625,199549.59375,177059.0,686148.875,200014.6875,0.099853515625,0.98046875,-0.244140625,-2.014159917831421,-0.3967284858226776,1.0375975370407104,100.0,178156.0,1.0
15:39:12.577058,197932.9375,181922.46875,230324.8125,210069.21875,199537.25,177024.125,686136.375,200015.40625,0.100341796875,0.979248046875,-0.243896484375,-2.014159917831421,-0.2746581733226776,1.0375975370407104,100.0,178157.0,1.0
15:39:12.615129,197925.78125,181913.078125,230314.703125,210065.8125,199527.421875,177001.5,686146.625,200012.0,0.1015625,0.9794921875,-0.24267578125,-1.9531248807907104,-0.2136230319738388,1.1596678495407104,100.0,178158.0,1.0
15:39:12.634950,197927.75,181919.421875,230323.828125,210065.015625,199535.46875,177029.484375,686193.5,200008.15625,0.099609375,0.9794921875,-0.243896484375,-2.014159917831421,-0.1220703050494194,1.1596678495407104,100.0,178159.0,1.0
15:39:12.635030,197931.046875,181926.046875,230330.0,210065.546875,199540.109375,177048.53125,686163.0,200003.234375,0.0986328125,0.978271484375,-0.241943359375,-2.075195074081421,-0.0915527269244194,1.2512205839157104,100.0,178160.0,1.0
15:39:12.635058,197930.515625,181921.75,230323.390625,210071.0,199532.953125,177023.59375,686159.1875,200008.15625,0.10107421875,0.978759765625,-0.239501953125,-2.075195074081421,-0.1220703050494194,1.1596678495407104,100.0,178161.0,1.0
15:39:12.638655,197927.03125,181914.0625,230316.671875,210076.453125,199526.609375,176998.015625,686159.9375,200012.453125,0.1025390625,0.979736328125,-0.24169921875,-2.044677495956421,0.0610351525247097,1.2817381620407104,100.0,178162.0,1.0
15:39:12.638721,197932.578125,181923.0,230324.359375,210080.125,199536.625,177024.296875,686194.0,200012.625,0.10107421875,0.979248046875,-0.24072265625,-2.166747808456421,0.1831054538488388,1.3427733182907104,100.0,178163.0,1.0
15:39:12.638746,197940.171875,181934.984375,230338.046875,210083.515625,199547.984375,177056.484375,686160.75,200012.453125,0.10009765625,0.980712890625,-0.24072265625,-2.044677495956421,0.2441406100988388,1.3732908964157104,100.0,178164.0,1.0
15:39:12.646751,197939.90625,181930.0625,230332.40625,210081.90625,199541.453125,177037.171875,686151.75,200013.96875,0.098876953125,0.98193359375,-0.23974609375,-2.227782964706421,0.3967284858226776,1.2817381620407104,100.0,178165.0,1.0
15:39:12.646812,197939.1875,181926.046875,230327.046875,210090.21875,199538.40625,177012.5,686136.625,200025.953125,0.09765625,0.979736328125,-0.2373046875,-2.197265386581421,0.3662109076976776,1.3122557401657104,100.0,178166.0,1.0
15:39:12.646839,197940.890625,181931.046875,230330.265625,210090.578125,199544.3125,177027.609375,686181.6875,200025.6875,0.0986328125,0.979736328125,-0.2353515625,-2.258300542831421,0.3356933295726776,1.3427733182907104,100.0,178167.0,1.0
15:39:12.646861,197943.296875,181938.296875,230341.359375,210090.140625,199556.203125,177059.078125,686160.4375,200024.609375,0.099853515625,0.980224609375,-0.236328125,-2.288818120956421,0.4577636420726776,1.3427733182907104,100.0,178168.0,1.0
15:39:12.648878,197944.28125,181937.578125,230338.21875,210085.484375,199550.75,177046.921875,686151.75,200024.15625,0.100830078125,0.97998046875,-0.239013671875,-2.227782964706421,0.4882812201976776,1.2512205839157104,100.0,178169.0,1.0
15:39:12.651366,197937.484375,181925.59375,230328.5625,210088.796875,199542.890625,177012.6875,686153.8125,200034.53125,0.1025390625,0.98046875,-0.236572265625,-2.227782964706421,0.5187987685203552,1.2512205839157104,100.0,178170.0,1.0
15:39:12.653699,197934.8125,181926.21875,230326.0625,210084.140625,199542.890625,177018.84375,686182.375,200031.140625,0.10107421875,0.9814453125,-0.237060546875,-2.258300542831421,0.5493163466453552,1.1901854276657104,100.0,178171.0,1.0
15:39:12.656346,197937.140625,181934.53125,230335.546875,210084.328125,199554.6875,177054.34375,686158.6875,200029.796875,0.1005859375,0.980712890625,-0.23388671875,-2.319335699081421,0.5187987685203552,1.2207030057907104,100.0,178172.0,1.0
15:39:12.659199,197933.5625,181933.1875,230329.46875,210072.515625,199546.453125,177049.34375,686145.1875,200019.875,0.100830078125,0.98095703125,-0.235107421875,-2.288818120956421,0.6713866591453552,1.1291502714157104,100.0,178173.0,1.0
15:39:12.661402,197927.203125,181922.46875,230320.34375,210075.109375,199536.625,177015.453125,686139.3125,200026.9375,0.1015625,0.982177734375,-0.236572265625,-2.349853277206421,0.6713866591453552,1.1291502714157104,100.0,178174.0,1.0
15:39:12.664080,197927.203125,181923.984375,230318.5625,210071.625,199533.140625,177013.671875,686175.4375,200022.734375,0.100341796875,0.979736328125,-0.2373046875,-2.197265386581421,0.7019042372703552,1.1596678495407104,100.0,178175.0,1.0
15:39:12.666695,197926.046875,181926.84375,230324.8125,210071.1875,199542.4375,177045.859375,686180.5,200018.171875,0.10009765625,0.978515625,-0.236328125,-2.105712652206421,0.8239745497703552,0.9765624403953552,100.0,178176.0,1.0
15:39:12.669066,197921.21875,181922.5625,230319.53125,210059.296875,199534.84375,177043.796875,686148.4375,200005.5625,0.09912109375,0.978759765625,-0.237548828125,-2.166747808456421,0.7629393935203552,0.8239745497703552,100.0,178177.0,1.0
15:39:12.671942,197912.28125,181907.71875,230306.03125,210058.03125,199523.390625,177006.15625,686134.3125,200009.3125,0.0986328125,0.978515625,-0.236083984375,-2.136230230331421,0.7324218153953552,0.7629393935203552,100.0,178178.0,1.0
15:39:12.672030,197912.28125,181905.296875,230303.265625,210060.453125,199519.375,176995.515625,686153.25,200008.875,0.099853515625,0.9775390625,-0.233642578125,-2.014159917831421,0.7629393935203552,0.7629393935203552,100.0,178179.0,1.0
15:39:12.673828,197915.40625,181911.109375,230312.203125,210061.796875,199531.0,177029.671875,686166.125,200007.703125,0.100341796875,0.977294921875,-0.23388671875,-2.044677495956421,0.8544921278953552,0.7629393935203552,100.0,178180.0,1.0
15:39:12.677792,197917.375,181915.40625,230314.078125,210053.125,199530.8125,177041.734375,686147.0625,199999.9375,0.09912109375,0.9755859375,-0.2353515625,-2.014159917831421,0.7934569716453552,0.7324218153953552,100.0,178181.0,1.0
15:39:12.685123,197908.078125,181901.8125,230299.25,210048.296875,199517.578125,177007.046875,686149.3125,200000.5625,0.10009765625,0.979248046875,-0.231689453125,-2.014159917831421,0.8239745497703552,0.6713866591453552,100.0,178182.0,1.0
15:39:12.685223,197902.265625,181894.390625,230291.015625,210044.984375,199510.34375,176986.578125,686163.625,199999.65625,0.0986328125,0.97705078125,-0.233642578125,-1.9531248807907104,0.7934569716453552,0.7324218153953552,100.0,178183.0,1.0
15:39:12.686597,197903.421875,181899.671875,230299.25,210042.21875,199520.0,177015.90625,686190.8125,199995.1875,0.098388671875,0.97705078125,-0.235595703125,-1.8615721464157104,0.7019042372703552,0.7019042372703552,100.0,178184.0,1.0
15:39:12.696828,197910.9375,181911.5625,230310.859375,210044.625,199530.1875,177042.453125,686153.8125,199993.21875,0.0986328125,0.977783203125,-0.23681640625,-1.8005369901657104,0.7019042372703552,0.6713866591453552,100.0,178185.0,1.0
15:39:12.696869,197913.359375,181910.21875,230308.265625,210048.109375,199525.890625,177020.1875,686143.75,199998.328125,0.09716796875,0.979736328125,-0.235107421875,-1.7089842557907104,0.7324218153953552,0.7019042372703552,100.0,178186.0,1.0
15:39:12.698771,197913.078125,181903.6875,230303.890625,210052.40625,199520.359375,176994.890625,686138.125,200003.953125,0.096435546875,0.980224609375,-0.23486328125,-1.6479490995407104,0.6103515028953552,0.6103515028953552,100.0,178187.0,1.0
15:39:12.702704,197921.84375,181914.515625,230315.25,210057.5,199532.875,177024.390625,686181.0,200006.8125,0.098876953125,0.97900390625,-0.233642578125,-1.6479490995407104,0.6103515028953552,0.6713866591453552,100.0,178188.0,1.0
15:39:12.713195,197928.546875,181925.6875,230328.296875,210061.96875,199545.75,177054.96875,686161.5,200009.234375,0.097412109375,0.980712890625,-0.234375,-1.6784666776657104,0.4882812201976776,0.7019042372703552,100.0,178189.0,1.0
15:39:12.713212,197933.46875,181926.125,230328.125,210065.375,199545.921875,177039.328125,686157.625,200016.46875,0.096923828125,0.979248046875,-0.231689453125,-1.6479490995407104,0.6103515028953552,0.6103515028953552,100.0,178190.0,1.0
15:39:12.715219,197936.6875,181920.328125,230326.328125,210077.4375,199543.234375,177012.59375,686150.5625,200029.4375,0.09521484375,0.97802734375,-0.232177734375,-1.5869139432907104,0.5187987685203552,0.6713866591453552,100.0,178191.0,1.0
15:39:12.718734,197946.515625,181930.953125,230336.25,210085.046875,199554.953125,177033.515625,686185.4375,200034.265625,0.09619140625,0.977783203125,-0.23583984375,-1.6479490995407104,0.4577636420726776,0.6103515028953552,100.0,178192.0,1.0
15:39:12.725680,197954.296875,181942.9375,230350.734375,210091.203125,199570.515625,177069.71875,686154.6875,200036.953125,0.09619140625,0.97802734375,-0.23291015625,-1.5869139432907104,0.4577636420726776,0.6408690810203552,100.0,178193.0,1.0
15:39:12.725708,197960.46875,181947.953125,230351.375,210092.015625,199570.328125,177063.28125,686154.4375,200038.90625,0.095458984375,0.977783203125,-0.233154296875,-1.4953612089157104,0.3356933295726776,0.8239745497703552,100.0,178194.0,1.0
15:39:12.732543,197957.15625,181941.234375,230345.828125,210100.59375,199565.859375,177032.890625,686133.9375,200051.78125,0.096435546875,0.97705078125,-0.233154296875,-1.5258787870407104,0.3051757514476776,0.7629393935203552,100.0,178195.0,1.0
15:39:12.739324,197958.328125,181945.796875,230349.125,210100.5,199570.0625,177043.53125,686189.3125,200051.4375,0.096923828125,0.97900390625,-0.23486328125,-1.4953612089157104,0.1220703050494194,0.9460448622703552,100.0,178196.0,1.0
15:39:12.739343,197961.546875,181955.640625,230361.828125,210103.8125,199584.8125,177081.25,686179.125,200053.84375,0.096435546875,0.97900390625,-0.232421875,-1.4038084745407104,0.0915527269244194,0.7934569716453552,100.0,178197.0,1.0
15:39:12.741240,197957.421875,181951.796875,230353.609375,210094.609375,199575.515625,177072.671875,686151.5625,200043.5625,0.096923828125,0.97998046875,-0.229736328125,-1.4343260526657104,0.0915527269244194,0.7324218153953552,100.0,178198.0,1.0
15:39:12.749350,197945.53125,181934.09375,230337.59375,210092.375,199561.84375,177031.09375,686139.6875,200046.15625,0.096435546875,0.97998046875,-0.232177734375,-1.4343260526657104,0.1220703050494194,0.7324218153953552,100.0,178199.0,1.0
15:39:12.749368,197939.375,181926.671875,230329.28125,210083.875,199554.421875,177022.515625,686180.4375,200038.90625,0.09814453125,0.98095703125,-0.232421875,-1.4343260526657104,0.0915527269244194,0.8239745497703552,100.0,178200.0,1.0
15:39:12.781310,197937.671875,181929.4375,230336.4375,210082.625,199561.65625,177052.734375,686180.625,200035.25,0.0986328125,0.980224609375,-0.234619140625,-1.4953612089157104,0.0,0.8239745497703552,100.0,178201.0,1.0
15:39:12.783697,197935.796875,181928.640625,230334.921875,210072.96875,199556.390625,177054.078125,686162.625,200023.453125,0.097900390625,0.98046875,-0.233154296875,-1.4038084745407104,-0.0915527269244194,0.9155272841453552,100.0,178202.0,1.0
15:39:12.786206,197926.859375,181912.28125,230319.890625,210070.109375,199540.640625,177014.296875,686143.875,200023.625,0.09765625,0.97998046875,-0.23486328125,-1.3732908964157104,-0.1525878757238388,0.8239745497703552,100.0,178203.0,1.0
15:39:12.788755,197922.5625,181904.140625,230310.859375,210065.109375,199531.4375,176997.296875,686166.3125,200018.625,0.0966796875,0.981201171875,-0.23681640625,-1.3427733182907104,-0.1525878757238388,0.9155272841453552,100.0,178204.0,1.0
15:39:12.791288,197923.984375,181909.6875,230318.109375,210065.109375,199539.9375,177027.34375,686196.5,200013.796875,0.099365234375,0.978759765625,-0.239013671875,-1.2817381620407104,-0.2441406100988388,0.9460448622703552,100.0,178205.0,1.0
15:39:12.800091,197923.453125,181913.609375,230318.109375,210054.375,199537.078125,177038.078125,686161.75,200000.5625,0.097412109375,0.979736328125,-0.238037109375,-1.2817381620407104,-0.2441406100988388,1.0681151151657104,100.0,178206.0,1.0
15:39:12.802432,197918.890625,181904.859375,230306.9375,210051.515625,199525.625,177007.859375,686152.1875,200001.359375,0.098388671875,0.978759765625,-0.2353515625,-1.2817381620407104,-0.2136230319738388,1.0070799589157104,100.0,178207.0,1.0
15:39:12.810068,197915.5,181898.140625,230300.5,210052.9375,199518.203125,176989.25,686157.3125,200001.546875,0.09912109375,0.9775390625,-0.23486328125,-1.2817381620407104,-0.1831054538488388,1.0375975370407104,100.0,178208.0,1.0
15:39:12.812483,197920.5,181909.0625,230310.515625,210055.09375,199531.265625,177022.96875,686191.5,200001.71875,0.097900390625,0.9775390625,-0.235107421875,-1.1901854276657104,-0.1220703050494194,0.8850097060203552,100.0,178209.0,1.0
15:39:12.814998,197926.765625,181918.984375,230320.25,210055.09375,199538.859375,177047.734375,686162.625,199999.84375,0.101806640625,0.9775390625,-0.23583984375,-1.1901854276657104,-0.0915527269244194,0.8544921278953552,100.0,178210.0,1.0
15:39:12.817540,197928.8125,181916.03125,230316.953125,210057.59375,199534.65625,177027.078125,686154.125,200006.8125,0.102294921875,0.978271484375,-0.23486328125,-1.2512205839157104,-0.0610351525247097,1.0375975370407104,100.0,178211.0,1.0
15:39:12.820632,197923.28125,181906.90625,230309.96875,210060.71875,199527.6875,177000.34375,686147.25,200011.5625,0.1025390625,0.97607421875,-0.234375,-1.1596678495407104,-0.0915527269244194,1.0070799589157104,100.0,178212.0,1.0
15:39:12.820656,197928.1875,181916.296875,230319.984375,210064.125,199539.9375,177027.609375,686184.625,200014.6875,0.10302734375,0.97705078125,-0.236083984375,-1.1596678495407104,-0.0915527269244194,0.9765624403953552,100.0,178213.0,1.0
15:39:12.822471,197934.09375,181927.03125,230335.09375,210068.859375,199551.90625,177059.265625,686156.8125,200016.828125,0.10302734375,0.978271484375,-0.236083984375,-1.1291502714157104,-0.0915527269244194,1.0070799589157104,100.0,178214.0,1.0
15:39:12.825057,197933.828125,181927.390625,230341.625,210067.875,199546.546875,177043.796875,686149.25,200019.0625,0.10205078125,0.9794921875,-0.2353515625,-1.0681151151657104,-0.0610351525247097,1.0070799589157104,100.0,178215.0,1.0
15:39:12.827481,197929.4375,181918.359375,230339.921875,210075.65625,199540.375,177015.90625,686137.6875,200030.0625,0.102783203125,0.97998046875,-0.236083984375,-1.0986326932907104,0.03051757626235485,0.9765624403953552,100.0,178216.0,1.0
15:39:12.831143,197930.421875,181920.140625,230343.671875,210074.046875,199543.859375,177028.5,686184.8125,200028.625,0.10205078125,0.98095703125,-0.237548828125,-1.0986326932907104,0.0915527269244194,0.9765624403953552,100.0,178217.0,1.0
15:39:12.831161,197937.046875,181931.5,230357.796875,210079.671875,199559.421875,177063.828125,686160.125,200032.296875,0.1025390625,0.9794921875,-0.235107421875,-1.0375975370407104,0.2746581733226776,0.8544921278953552,100.0,178218.0,1.0
15:39:12.831169,197935.4375,181927.65625,230351.546875,210072.96875,199553.34375,177049.421875,686149.3125,200028.28125,0.101318359375,0.978515625,-0.238037109375,-0.9765624403953552,0.2441406100988388,0.8850097060203552,100.0,178219.0,1.0
15:39:12.833735,197931.765625,181917.546875,230345.375,210079.5,199546.8125,177015.453125,686142.625,200038.828125,0.102783203125,0.9814453125,-0.23974609375,-1.0681151151657104,0.2136230319738388,0.9155272841453552,100.0,178220.0,1.0
15:39:12.836772,197931.859375,181917.734375,230349.125,210076.90625,199546.8125,177018.5,686183.6875,200034.359375,0.1025390625,0.97998046875,-0.237060546875,-1.0070799589157104,0.2746581733226776,0.7629393935203552,100.0,178221.0,1.0
15:39:12.836778,197933.640625,181923.984375,230359.59375,210075.65625,199557.8125,177051.21875,686164.6875,200030.59375,0.10302734375,0.98095703125,-0.237548828125,-1.0986326932907104,0.2746581733226776,0.7019042372703552,100.0,178222.0,1.0
15:39:12.838636,197936.234375,181927.828125,230358.703125,210071.0,199554.859375,177048.53125,686148.0,200025.6875,0.103271484375,0.978759765625,-0.239013671875,-1.0986326932907104,0.1831054538488388,0.7324218153953552,100.0,178223.0,1.0
15:39:12.848736,197940.890625,181924.609375,230354.9375,210082.71875,199551.828125,177020.734375,686147.4375,200038.5625,0.10302734375,0.9814453125,-0.23779296875,-1.0375975370407104,0.3662109076976776,0.7629393935203552,100.0,178224.0,1.0
15:39:12.855698,197945.8125,181929.265625,230354.671875,210083.703125,199552.0,177020.109375,686173.4375,200037.484375,0.1025390625,0.9814453125,-0.238037109375,-1.0681151151657104,0.3967284858226776,0.6713866591453552,100.0,178225.0,1.0
15:39:12.855723,197951.078125,181940.796875,230367.015625,210087.28125,199565.234375,177057.5625,686176.3125,200039.0,0.101318359375,0.981689453125,-0.237548828125,-1.0986326932907104,0.4577636420726776,0.7324218153953552,100.0,178226.0,1.0
15:39:12.864448,197952.953125,181943.65625,230367.453125,210080.65625,199561.65625,177060.96875,686157.375,200031.40625,0.104248046875,0.978515625,-0.237548828125,-1.2512205839157104,0.5798339247703552,0.7019042372703552,100.0,178227.0,1.0
15:39:12.864586,197948.046875,181930.0625,230356.90625,210081.734375,199551.109375,177024.578125,686148.4375,200038.5625,0.103271484375,0.979248046875,-0.2392578125,-1.2512205839157104,0.6103515028953552,0.5798339247703552,100.0,178228.0,1.0
15:39:12.866156,197944.734375,181924.34375,230347.609375,210079.9375,199542.171875,177008.03125,686163.0625,200035.6875,0.101318359375,0.97802734375,-0.240478515625,-1.2512205839157104,0.5798339247703552,0.6408690810203552,100.0,178229.0,1.0
15:39:12.875613,197947.59375,181931.578125,230355.125,210087.453125,199551.5625,177041.03125,686182.5625,200034.4375,0.100830078125,0.979248046875,-0.238037109375,-1.1901854276657104,0.6103515028953552,0.5493163466453552,100.0,178230.0,1.0
15:39:12.875644,197944.28125,181932.65625,230351.8125,210078.515625,199547.984375,177051.84375,686157.75,200022.546875,0.10302734375,0.979736328125,-0.237548828125,-1.1901854276657104,0.5798339247703552,0.4882812201976776,100.0,178231.0,1.0
15:39:12.881739,197938.921875,181924.515625,230341.53125,210075.65625,199538.40625,177023.859375,686146.1875,200027.109375,0.1015625,0.980224609375,-0.2392578125,-1.1901854276657104,0.6103515028953552,0.5798339247703552,100.0,178232.0,1.0
15:39:12.881749,197934.1875,181917.375,230336.703125,210073.6875,199531.078125,177004.453125,686153.25,200028.90625,0.101318359375,0.979736328125,-0.23681640625,-1.1596678495407104,0.6103515028953552,0.5798339247703552,100.0,178233.0,1.0
15:39:12.888680,197936.59375,181922.828125,230346.453125,210073.234375,199541.359375,177033.609375,686196.875,200026.3125,0.100830078125,0.980224609375,-0.236328125,-1.2207030057907104,0.6713866591453552,0.5187987685203552,100.0,178234.0,1.0
15:39:12.895595,197941.0625,181931.046875,230353.875,210074.046875,199549.046875,177057.65625,686165.4375,200022.90625,0.10107421875,0.9794921875,-0.239501953125,-1.2817381620407104,0.6408690810203552,0.4882812201976776,100.0,178235.0,1.0
15:39:12.895666,197943.296875,181930.421875,230349.578125,210078.609375,199546.375,177039.421875,686161.0625,200029.25,0.098876953125,0.97998046875,-0.23974609375,-1.2817381620407104,0.7019042372703552,0.5798339247703552,100.0,178236.0,1.0
15:39:12.904365,197938.03125,181923.265625,230340.90625,210082.171875,199540.296875,177015.8125,686170.5,200032.5625,0.098388671875,0.978759765625,-0.236572265625,-1.3122557401657104,0.6408690810203552,0.6713866591453552,100.0,178237.0,1.0
15:39:12.904434,197937.484375,181929.265625,230345.28125,210082.984375,199549.765625,177040.21875,686193.75,200030.859375,0.099365234375,0.97900390625,-0.23583984375,-1.3732908964157104,0.5493163466453552,0.6408690810203552,100.0,178238.0,1.0
15:39:12.906751,197934.0,181933.640625,230349.9375,210077.265625,199555.765625,177066.328125,686153.6875,200023.890625,0.098388671875,0.9814453125,-0.237060546875,-1.4038084745407104,0.5798339247703552,0.6103515028953552,100.0,178239.0,1.0
15:39:12.906767,197930.15625,181928.90625,230341.71875,210071.359375,199547.359375,177048.890625,686152.8125,200023.171875,0.09765625,0.97998046875,-0.238525390625,-1.3122557401657104,0.5187987685203552,0.6408690810203552,100.0,178240.0,1.0
15:39:12.916404,197928.1875,181920.328125,230336.25,210078.6875,199542.53125,177019.921875,686139.875,200035.0625,0.096923828125,0.98046875,-0.23876953125,-1.3122557401657104,0.5187987685203552,0.5493163466453552,100.0,178241.0,1.0
15:39:12.920633,197934.453125,181927.46875,230343.5,210080.84375,199549.671875,177036.828125,686182.9375,200033.1875,0.09765625,0.98095703125,-0.241455078125,-1.3732908964157104,0.4577636420726776,0.5187987685203552,100.0,178242.0,1.0
15:39:12.920659,197940.265625,181937.390625,230354.046875,210082.359375,199561.84375,177071.421875,686151.8125,200031.5,0.09814453125,0.9814453125,-0.23779296875,-1.4648436307907104,0.4882812201976776,0.5187987685203552,100.0,178243.0,1.0
15:39:12.927462,197939.09375,181935.25,230346.890625,210074.578125,199553.078125,177058.09375,686148.9375,200025.59375,0.097900390625,0.979248046875,-0.237548828125,-1.4038084745407104,0.3356933295726776,0.5187987685203552,100.0,178244.0,1.0
15:39:12.931807,197936.6875,181926.484375,230338.84375,210080.125,199546.015625,177025.28125,686145.3125,200035.25,0.0986328125,0.979248046875,-0.23828125,-1.4343260526657104,0.2441406100988388,0.6103515028953552,100.0,178245.0,1.0
15:39:12.931822,197939.453125,181929.96875,230339.921875,210076.546875,199545.5625,177027.96875,686177.875,200029.25,0.096435546875,0.980224609375,-0.241455078125,-1.3732908964157104,0.2441406100988388,0.5493163466453552,100.0,178246.0,1.0
15:39:12.938684,197948.484375,181943.75,230355.125,210081.90625,199560.40625,177064.8125,686158.25,200030.234375,0.097900390625,0.980712890625,-0.24169921875,-1.4038084745407104,0.1525878757238388,0.5187987685203552,100.0,178247.0,1.0
15:39:12.941258,197948.671875,181943.296875,230351.375,210075.734375,199553.703125,177057.828125,686156.75,200021.296875,0.095458984375,0.97998046875,-0.238037109375,-1.3732908964157104,0.0610351525247097,0.5187987685203552,100.0,178248.0,1.0
15:39:12.945037,197941.15625,181928.546875,230340.546875,210078.515625,199543.0625,177019.03125,686147.0625,200027.640625,0.095703125,0.980224609375,-0.2373046875,-1.4343260526657104,0.0915527269244194,0.5798339247703552,100.0,178249.0,1.0
15:39:12.952484,197940.890625,181927.109375,230339.921875,210079.765625,199539.75,177014.109375,686176.0625,200025.234375,0.09814453125,0.977294921875,-0.2373046875,-1.4953612089157104,0.03051757626235485,0.5493163466453552,100.0,178250.0,1.0
15:39:12.978109,197939.734375,181930.421875,230347.796875,210079.9375,199547.890625,177044.15625,686178.625,200021.125,0.098388671875,0.9794921875,-0.240478515625,-1.5258787870407104,0.0,0.4577636420726776,100.0,178251.0,1.0
15:39:12.978130,197936.59375,181929.4375,230343.859375,210073.234375,199541.71875,177045.671875,686167.125,200012.71875,0.099853515625,0.980712890625,-0.23876953125,-1.4953612089157104,-0.0915527269244194,0.5187987685203552,100.0,178252.0,1.0
15:39:13.005358,197930.96875,181917.640625,230332.765625,210076.359375,199530.09375,177011.4375,686155.875,200019.515625,0.099609375,0.981201171875,-0.239013671875,-1.5258787870407104,0.03051757626235485,0.5798339247703552,100.0,178253.0,1.0
15:39:13.005685,197929.984375,181915.84375,230330.890625,210074.9375,199525.984375,176999.8125,686170.0625,200019.59375,0.100341796875,0.978515625,-0.23828125,-1.4953612089157104,-0.1220703050494194,0.5187987685203552,100.0,178254.0,1.0
15:39:13.005749,197930.609375,181926.3125,230337.515625,210073.5,199538.859375,177036.015625,686176.5625,200017.71875,0.099853515625,0.97900390625,-0.2373046875,-1.6174315214157104,-0.1220703050494194,0.5798339247703552,100.0,178255.0,1.0
15:39:13.008846,197937.046875,181935.34375,230344.390625,210074.671875,199546.8125,177057.03125,686154.75,200017.453125,0.099609375,0.97802734375,-0.236572265625,-1.5869139432907104,-0.1525878757238388,0.5493163466453552,100.0,178256.0,1.0
15:39:13.011391,197936.6875,181929.703125,230337.6875,210077.703125,199542.703125,177030.296875,686150.9375,200026.671875,0.10107421875,0.978759765625,-0.240234375,-1.5258787870407104,-0.1525878757238388,0.5493163466453552,100.0,178257.0,1.0
15:39:13.013813,197934.625,181925.59375,230331.875,210081.546875,199538.6875,177012.0625,686152.25,200029.890625,0.099365234375,0.978515625,-0.237548828125,-1.5869139432907104,-0.2746581733226776,0.5187987685203552,100.0,178258.0,1.0
15:39:13.016264,197938.65625,181934.53125,230340.640625,210082.796875,199551.640625,177043.078125,686185.4375,200030.328125,0.10009765625,0.978271484375,-0.2353515625,-1.5258787870407104,-0.1831054538488388,0.5187987685203552,100.0,178259.0,1.0
15:39:13.021196,197937.84375,181937.484375,230344.578125,210074.578125,199554.15625,177062.84375,686149.25,200023.71875,0.099609375,0.979736328125,-0.2353515625,-1.5563963651657104,-0.1525878757238388,0.4882812201976776,100.0,178260.0,1.0
15:39:13.023780,197936.59375,181932.5625,230337.6875,210074.671875,199548.6875,177041.828125,686149.5,200028.09375,0.099853515625,0.98095703125,-0.2373046875,-1.5563963651657104,-0.1525878757238388,0.5493163466453552,100.0,178261.0,1.0
15:39:13.026275,197933.46875,181926.9375,230331.25,210079.5,199545.296875,177018.84375,686160.6875,200036.40625,0.099609375,0.9794921875,-0.23779296875,-1.5563963651657104,-0.0915527269244194,0.5187987685203552,100.0,178262.0,1.0
15:39:13.032561,197930.609375,181929.53125,230333.21875,210075.109375,199549.765625,177039.421875,686182.5,200030.78125,0.100830078125,0.979736328125,-0.23583984375,-1.5563963651657104,-0.1831054538488388,0.3967284858226776,100.0,178263.0,1.0
15:39:13.035047,197932.578125,181937.046875,230341.890625,210074.046875,199558.703125,177068.921875,686151.125,200028.0,0.1015625,0.9775390625,-0.23681640625,-1.5563963651657104,-0.1831054538488388,0.3662109076976776,100.0,178264.0,1.0
15:39:13.037504,197929.890625,181933.015625,230337.515625,210068.5,199550.9375,177052.109375,686150.375,200027.203125,0.1015625,0.977783203125,-0.235107421875,-1.5869139432907104,-0.2136230319738388,0.3662109076976776,100.0,178265.0,1.0
15:39:13.040057,197924.96875,181923.359375,230330.53125,210075.203125,199543.78125,177021.625,686148.625,200035.515625,0.10107421875,0.9775390625,-0.23876953125,-1.5563963651657104,-0.1831054538488388,0.4882812201976776,100.0,178266.0,1.0
15:39:13.042548,197928.375,181928.1875,230332.328125,210076.359375,199548.515625,177036.640625,686182.375,200033.90625,0.102294921875,0.978759765625,-0.239013671875,-1.5258787870407104,-0.1525878757238388,0.4272460639476776,100.0,178267.0,1.0
15:39:13.045650,197931.859375,181935.515625,230341.171875,210079.9375,199558.703125,177069.015625,686163.875,200031.140625,0.1015625,0.9775390625,-0.23681640625,-1.5258787870407104,-0.0915527269244194,0.3662109076976776,100.0,178268.0,1.0
15:39:13.045718,197927.75,181929.703125,230330.53125,210066.53125,199545.75,177052.5625,686158.0,200019.25,0.100341796875,0.97998046875,-0.23583984375,-1.5563963651657104,-0.1525878757238388,0.4272460639476776,100.0,178269.0,1.0
15:39:13.047533,197925.421875,181922.109375,230324.28125,210070.828125,199539.3125,177021.265625,686151.3125,200028.984375,0.099853515625,0.98046875,-0.23779296875,-1.5563963651657104,-0.0915527269244194,0.3356933295726776,100.0,178270.0,1.0
15:39:13.050053,197928.546875,181926.75,230326.15625,210069.9375,199541.0,177028.15625,686185.4375,200025.953125,0.1005859375,0.9814453125,-0.2392578125,-1.6174315214157104,-0.1831054538488388,0.3356933295726776,100.0,178271.0,1.0
15:39:13.053172,197926.140625,181929.96875,230330.625,210067.421875,199548.15625,177057.109375,686167.625,200018.4375,0.09912109375,0.981689453125,-0.238037109375,-1.7089842557907104,-0.03051757626235485,0.3662109076976776,100.0,178272.0,1.0
15:39:13.053250,197926.765625,181931.859375,230326.6875,210058.578125,199541.546875,177054.796875,686155.75,200009.59375,0.099609375,0.97998046875,-0.23876953125,-1.7089842557907104,-0.0610351525247097,0.3967284858226776,100.0,178273.0,1.0
15:39:13.055116,197921.21875,181922.734375,230316.234375,210060.8125,199531.96875,177022.0625,686136.25,200015.84375,0.10009765625,0.981201171875,-0.239013671875,-1.7700194120407104,-0.1220703050494194,0.3356933295726776,100.0,178274.0,1.0
15:39:13.057705,197915.234375,181916.390625,230308.265625,210052.671875,199523.21875,177012.59375,686161.9375,200008.25,0.099853515625,0.98095703125,-0.239013671875,-1.8005369901657104,-0.03051757626235485,0.3356933295726776,100.0,178275.0,1.0
15:39:13.060661,197910.9375,181918.359375,230312.203125,210049.984375,199530.1875,177042.640625,686173.125,200001.984375,0.10107421875,0.97998046875,-0.23974609375,-1.7395018339157104,-0.0610351525247097,0.4272460639476776,100.0,178276.0,1.0
15:39:13.060716,197915.9375,181926.9375,230317.390625,210046.859375,199533.046875,177054.796875,686159.0625,199999.9375,0.1005859375,0.9794921875,-0.2392578125,-1.7089842557907104,-0.1220703050494194,0.4272460639476776,100.0,178277.0,1.0
15:39:13.068073,197921.046875,181927.203125,230318.734375,210057.5,199536.171875,177035.5625,686167.8125,200018.0,0.100830078125,0.979248046875,-0.23828125,-1.7395018339157104,-0.0610351525247097,0.4272460639476776,100.0,178278.0,1.0
15:39:13.068106,197928.109375,181929.96875,230321.421875,210066.890625,199541.359375,177031.28125,686188.8125,200028.359375,0.10107421875,0.97998046875,-0.2373046875,-1.7700194120407104,-0.0915527269244194,0.3356933295726776,100.0,178279.0,1.0
15:39:13.074416,197937.140625,181943.5625,230337.78125,210075.203125,199560.5,177070.796875,686192.0,200035.0625,0.099365234375,0.980712890625,-0.2373046875,-1.8920897245407104,-0.0915527269244194,0.4272460639476776,100.0,178280.0,1.0
15:39:13.074437,197944.015625,181953.125,230347.515625,210077.34375,199568.8125,177091.71875,686172.9375,200034.53125,0.099853515625,0.98046875,-0.234619140625,-1.8615721464157104,-0.0610351525247097,0.3967284858226776,100.0,178281.0,1.0
15:39:13.080021,197948.484375,181951.96875,230346.8125,210088.078125,199569.078125,177070.625,686174.5625,200048.390625,0.099365234375,0.982666015625,-0.235107421875,-1.7700194120407104,-0.03051757626235485,0.4577636420726776,100.0,178282.0,1.0
15:39:13.089417,197948.484375,181950.0,230344.03125,210094.421875,199566.84375,177051.3125,686174.25,200053.75,0.098388671875,0.981689453125,-0.236328125,-1.6784666776657104,-0.1220703050494194,0.4882812201976776,100.0,178283.0,1.0
15:39:13.089464,197946.875,181953.578125,230348.15625,210092.015625,199574.09375,177074.1875,686211.625,200050.0,0.0986328125,0.97998046875,-0.236572265625,-1.8005369901657104,-0.1525878757238388,0.5187987685203552,100.0,178284.0,1.0
15:39:13.095106,197942.3125,181951.171875,230354.140625,210089.234375,199574.0,177087.875,686161.1875,200040.34375,0.09765625,0.97998046875,-0.23828125,-1.7089842557907104,-0.1220703050494194,0.4272460639476776,100.0,178285.0,1.0
15:39:13.103733,197936.234375,181940.34375,230346.453125,210088.4375,199561.484375,177058.640625,686138.9375,200037.84375,0.09716796875,0.98046875,-0.235595703125,-1.7395018339157104,-0.1525878757238388,0.4577636420726776,100.0,178286.0,1.0
15:39:13.103762,197931.953125,181931.5,230336.34375,210093.71875,199554.5,177030.828125,686152.625,200043.109375,0.09716796875,0.978515625,-0.235107421875,-1.7395018339157104,-0.1831054538488388,0.5187987685203552,100.0,178287.0,1.0
15:39:13.103771,197935.796875,181938.828125,230344.390625,210095.859375,199564.34375,177053.453125,686180.0625,200043.296875,0.095947265625,0.97900390625,-0.2314453125,-1.6174315214157104,-0.3356933295726776,0.5187987685203552,100.0,178288.0,1.0
15:39:13.106792,197940.703125,181947.328125,230355.21875,210097.828125,199573.109375,177081.53125,686147.625,200039.984375,0.09765625,0.981689453125,-0.23486328125,-1.6784666776657104,-0.3356933295726776,0.5493163466453552,100.0,178289.0,1.0
15:39:13.106811,197941.0625,181944.8125,230350.03125,210093.09375,199563.359375,177062.125,686145.1875,200034.359375,0.09765625,0.981689453125,-0.236328125,-1.6479490995407104,-0.3051757514476776,0.5493163466453552,100.0,178290.0,1.0
15:39:13.116351,197939.453125,181937.3125,230340.1875,210097.109375,199555.21875,177031.453125,686148.5,200040.4375,0.096923828125,0.979248046875,-0.237548828125,-1.5869139432907104,-0.3356933295726776,0.5493163466453552,100.0,178291.0,1.0
15:39:13.118804,197943.578125,181943.5625,230343.046875,210095.765625,199559.609375,177044.6875,686188.75,200038.640625,0.096435546875,0.9794921875,-0.23681640625,-1.5869139432907104,-0.3356933295726776,0.6713866591453552,100.0,178292.0,1.0
15:39:13.122561,197949.828125,181954.203125,230355.5625,210100.0625,199573.375,177080.0,686162.625,200041.328125,0.09765625,0.978515625,-0.235595703125,-1.6174315214157104,-0.4272460639476776,0.7934569716453552,100.0,178293.0,1.0
15:39:13.138095,197947.953125,181950.8125,230346.71875,210090.671875,199563.453125,177067.75,686152.4375,200035.609375,0.09716796875,0.98046875,-0.235595703125,-1.5258787870407104,-0.4577636420726776,0.6713866591453552,100.0,178294.0,1.0
15:39:13.138113,197938.921875,181936.40625,230334.015625,210090.046875,199550.484375,177029.765625,686149.9375,200041.78125,0.098388671875,0.978271484375,-0.23388671875,-1.4953612089157104,-0.3356933295726776,0.7019042372703552,100.0,178295.0,1.0
15:39:13.151812,197937.046875,181935.703125,230331.703125,210083.515625,199548.78125,177032.0,686180.1875,200034.984375,0.099853515625,0.98095703125,-0.2333984375,-1.3732908964157104,-0.3662109076976776,0.7324218153953552,100.0,178296.0,1.0
15:39:13.151832,197936.328125,181937.578125,230339.125,210081.734375,199557.1875,177064.453125,686158.0625,200031.21875,0.098388671875,0.981201171875,-0.23681640625,-1.4343260526657104,-0.3051757514476776,0.7934569716453552,100.0,178297.0,1.0
15:39:13.153890,197936.421875,181937.046875,230335.453125,210074.125,199552.625,177063.015625,686155.9375,200024.15625,0.097900390625,0.9814453125,-0.23583984375,-1.4648436307907104,-0.2746581733226776,0.7934569716453552,100.0,178298.0,1.0
15:39:13.156344,197933.5625,181928.359375,230328.5625,210080.390625,199546.453125,177031.015625,686151.9375,200033.28125,0.098876953125,0.982421875,-0.232666015625,-1.5258787870407104,-0.3662109076976776,0.6713866591453552,100.0,178299.0,1.0
15:39:13.158847,197933.015625,181927.46875,230328.484375,210076.546875,199542.4375,177024.578125,686175.9375,200029.34375,0.100341796875,0.9814453125,-0.234619140625,-1.5563963651657104,-0.3662109076976776,0.7324218153953552,100.0,178300.0,1.0
15:39:13.161233,197934.359375,181932.484375,230339.5625,210076.640625,199554.0625,177058.546875,686178.5625,200027.015625,0.099609375,0.9794921875,-0.235595703125,-1.4648436307907104,-0.3356933295726776,0.7629393935203552,100.0,178301.0,1.0
15:39:13.163839,197935.796875,181936.59375,230340.546875,210071.984375,199553.171875,177066.0625,686162.4375,200020.671875,0.098876953125,0.97802734375,-0.235595703125,-1.4343260526657104,-0.3662109076976776,0.7324218153953552,100.0,178302.0,1.0
15:39:13.166849,197930.875,181926.046875,230331.703125,210074.125,199545.03125,177033.25,686149.875,200028.359375,0.101806640625,0.97802734375,-0.237548828125,-1.4648436307907104,-0.3051757514476776,0.7934569716453552,100.0,178303.0,1.0
15:39:13.166880,197929.4375,181922.828125,230327.859375,210074.578125,199540.109375,177020.734375,686174.0,200030.0625,0.103271484375,0.9765625,-0.23681640625,-1.4953612089157104,-0.2136230319738388,0.7324218153953552,100.0,178304.0,1.0
15:39:13.176446,197935.078125,181932.5625,230339.5625,210079.140625,199554.421875,177056.140625,686192.625,200033.734375,0.104736328125,0.9775390625,-0.238037109375,-1.4648436307907104,-0.0610351525247097,0.7629393935203552,100.0,178305.0,1.0
15:39:13.180574,197935.703125,181935.96875,230343.046875,210072.25,199555.671875,177070.96875,686156.75,200025.6875,0.103271484375,0.976318359375,-0.238037109375,-1.3732908964157104,-0.03051757626235485,0.7934569716453552,100.0,178306.0,1.0
15:39:13.180621,197930.703125,181926.046875,230335.71875,210072.078125,199545.203125,177041.46875,686147.25,200028.625,0.10205078125,0.974609375,-0.24169921875,-1.4038084745407104,0.0915527269244194,0.6408690810203552,100.0,178307.0,1.0
15:39:13.182500,197927.5625,181918.0,230327.046875,210075.921875,199536.796875,177017.6875,686156.0,200031.671875,0.101318359375,0.974609375,-0.23828125,-1.3122557401657104,0.0610351525247097,0.7019042372703552,100.0,178308.0,1.0
15:39:13.191868,197934.09375,181928.359375,230335.8125,210079.234375,199548.78125,177048.171875,686199.1875,200034.0,0.10107421875,0.97509765625,-0.23779296875,-1.3732908964157104,0.1220703050494194,0.6103515028953552,100.0,178309.0,1.0
15:39:13.191888,197942.046875,181939.453125,230346.546875,210081.640625,199560.5,177074.90625,686162.0,200035.15625,0.101318359375,0.97607421875,-0.23828125,-1.1901854276657104,0.0915527269244194,0.5798339247703552,100.0,178310.0,1.0
15:39:13.201799,197941.875,181935.96875,230339.03125,210079.578125,199554.15625,177052.5625,686157.625,200036.328125,0.10107421875,0.9775390625,-0.236083984375,-1.1901854276657104,0.0915527269244194,0.5493163466453552,100.0,178311.0,1.0
15:39:13.201827,197934.984375,181925.234375,230328.390625,210079.765625,199543.78125,177023.40625,686159.5,200037.484375,0.099365234375,0.97900390625,-0.236572265625,-1.2817381620407104,0.1220703050494194,0.4577636420726776,100.0,178312.0,1.0
15:39:13.204341,197936.78125,181932.84375,230333.671875,210078.421875,199550.390625,177044.953125,686198.5625,200033.8125,0.10009765625,0.98046875,-0.23876953125,-1.2512205839157104,0.1220703050494194,0.5493163466453552,100.0,178313.0,1.0
15:39:13.204364,197937.3125,181939.09375,230340.375,210073.421875,199558.078125,177073.484375,686169.875,200026.484375,0.10009765625,0.981689453125,-0.239501953125,-1.2207030057907104,0.1220703050494194,0.5798339247703552,100.0,178314.0,1.0
15:39:13.216248,197939.546875,181938.65625,230336.171875,210070.90625,199553.171875,177060.515625,686165.0625,200025.140625,0.1015625,0.98095703125,-0.240234375,-1.1901854276657104,0.0915527269244194,0.5798339247703552,100.0,178315.0,1.0
15:39:13.219777,197934.359375,181928.359375,230329.28125,210077.0,199546.015625,177030.65625,686149.75,200033.109375,0.10400390625,0.979736328125,-0.239501953125,-1.2817381620407104,0.1525878757238388,0.4882812201976776,100.0,178316.0,1.0
15:39:13.219797,197934.0,181929.703125,230331.421875,210077.078125,199547.984375,177040.484375,686200.375,200029.34375,0.103515625,0.9794921875,-0.240966796875,-1.2512205839157104,0.2441406100988388,0.4577636420726776,100.0,178317.0,1.0
15:39:13.221207,197935.796875,181935.4375,230342.6875,210079.046875,199560.671875,177072.859375,686175.4375,200028.71875,0.101318359375,0.980712890625,-0.238037109375,-1.2512205839157104,0.2136230319738388,0.3356933295726776,100.0,178318.0,1.0
15:39:13.228820,197934.8125,181934.984375,230351.1875,210071.453125,199555.3125,177065.875,686160.875,200024.96875,0.099365234375,0.9814453125,-0.2373046875,-1.2207030057907104,0.2136230319738388,0.1831054538488388,100.0,178319.0,1.0
15:39:13.233063,197932.03125,181926.75,230350.203125,210078.953125,199550.65625,177036.203125,686148.4375,200037.125,0.0986328125,0.984375,-0.236328125,-1.3122557401657104,0.1831054538488388,0.0610351525247097,100.0,178320.0,1.0
15:39:13.233074,197935.875,181933.1875,230352.984375,210082.0,199555.40625,177043.265625,686184.75,200038.5625,0.096435546875,0.982421875,-0.236083984375,-1.3427733182907104,0.2441406100988388,-0.0610351525247097,100.0,178321.0,1.0
15:39:13.242558,197939.375,181945.09375,230364.515625,210085.671875,199571.046875,177083.578125,686171.0625,200040.609375,0.093017578125,0.982421875,-0.234619140625,-1.3122557401657104,0.2136230319738388,-0.0915527269244194,100.0,178322.0,1.0
15:39:13.246769,197938.203125,181944.375,230360.484375,210076.09375,199566.3125,177081.96875,686157.8125,200034.0,0.09326171875,0.98095703125,-0.2353515625,-1.4343260526657104,0.1525878757238388,-0.2136230319738388,100.0,178323.0,1.0
15:39:13.246788,197928.90625,181929.890625,230346.890625,210078.78125,199556.296875,177044.328125,686159.5,200041.953125,0.09375,0.980224609375,-0.236083984375,-1.4038084745407104,0.0610351525247097,-0.3356933295726776,100.0,178324.0,1.0
15:39:13.252496,197928.1875,181927.734375,230342.421875,210078.15625,199553.96875,177038.15625,686185.5625,200041.78125,0.095458984375,0.982177734375,-0.236572265625,-1.4038084745407104,-0.03051757626235485,-0.3051757514476776,100.0,178325.0,1.0
15:39:13.259280,197932.9375,181937.84375,230350.46875,210081.1875,199567.5625,177076.34375,686182.5,200043.203125,0.095947265625,0.980224609375,-0.23681640625,-1.4953612089157104,-0.0915527269244194,-0.3356933295726776,100.0,178326.0,1.0
15:39:13.259291,197934.90625,181942.3125,230350.46875,210074.125,199566.671875,177086.625,686162.625,200036.59375,0.0947265625,0.979736328125,-0.2353515625,-1.5869139432907104,-0.1525878757238388,-0.3051757514476776,100.0,178327.0,1.0
15:39:13.269259,197930.875,181932.296875,230341.71875,210075.46875,199557.8125,177054.703125,686160.875,200041.859375,0.09619140625,0.980224609375,-0.2353515625,-1.4953612089157104,-0.1525878757238388,-0.2136230319738388,100.0,178328.0,1.0
15:39:13.269277,197925.953125,181924.796875,230332.59375,210070.375,199549.59375,177036.015625,686174.375,200037.21875,0.095947265625,0.980224609375,-0.235107421875,-1.5563963651657104,-0.1525878757238388,-0.2136230319738388,100.0,178329.0,1.0
15:39:13.271806,197927.921875,181931.859375,230339.828125,210069.484375,199559.421875,177066.953125,686196.4375,200034.0,0.09765625,0.978759765625,-0.237548828125,-1.5258787870407104,-0.1220703050494194,-0.1220703050494194,100.0,178330.0,1.0
15:39:13.271816,197927.203125,181933.734375,230339.65625,210063.140625,199556.5625,177078.75,686167.125,200023.890625,0.097412109375,0.977783203125,-0.239501953125,-1.5563963651657104,-0.0610351525247097,0.0610351525247097,100.0,178331.0,1.0
15:39:13.281277,197920.140625,181921.21875,230325.078125,210058.671875,199542.34375,177044.0625,686157.1875,200022.28125,0.098388671875,0.9794921875,-0.23828125,-1.5563963651657104,-0.1220703050494194,0.0610351525247097,100.0,178332.0,1.0
15:39:13.283696,197914.15625,181909.765625,230314.078125,210058.03125,199531.4375,177015.546875,686157.8125,200021.484375,0.098388671875,0.9794921875,-0.23681640625,-1.6479490995407104,-0.1220703050494194,0.1831054538488388,100.0,178333.0,1.0
15:39:13.286176,197916.84375,181915.765625,230320.796875,210058.03125,199539.9375,177040.21875,686190.1875,200017.8125,0.099609375,0.97900390625,-0.233642578125,-1.5869139432907104,-0.1220703050494194,0.3662109076976776,100.0,178334.0,1.0
15:39:13.296200,197920.140625,181924.078125,230328.75,210054.8125,199546.015625,177064.8125,686155.5,200012.265625,0.099365234375,0.980712890625,-0.23193359375,-1.6174315214157104,-0.0915527269244194,0.3967284858226776,100.0,178335.0,1.0
15:39:13.299313,197920.421875,181922.734375,230322.9375,210054.375,199538.859375,177046.203125,686160.875,200013.609375,0.099365234375,0.98046875,-0.23291015625,-1.6174315214157104,-0.03051757626235485,0.5798339247703552,100.0,178336.0,1.0
15:39:13.299334,197916.921875,181915.40625,230314.984375,210059.015625,199531.4375,177018.21875,686154.75,200019.59375,0.095947265625,0.97998046875,-0.234375,-1.7089842557907104,0.0610351525247097,0.7934569716453552,100.0,178337.0,1.0
15:39:13.306186,197918.265625,181919.6875,230318.90625,210058.125,199537.875,177036.109375,686191.375,200016.828125,0.09521484375,0.98046875,-0.234130859375,-1.6479490995407104,0.0915527269244194,0.9155272841453552,100.0,178338.0,1.0
15:39:13.317483,197927.5625,181934.625,230336.703125,210064.46875,199553.796875,177075.53125,686164.0,200020.5,0.09765625,0.98193359375,-0.234130859375,-1.6479490995407104,-0.03051757626235485,1.0070799589157104,100.0,178339.0,1.0
15:39:13.317492,197935.171875,181940.796875,230340.1875,210067.34375,199552.546875,177067.484375,686159.8125,200024.703125,0.096435546875,0.981689453125,-0.23486328125,-1.7089842557907104,0.0,0.9460448622703552,100.0,178340.0,1.0
15:39:13.317493,197935.171875,181933.640625,230338.21875,210077.53125,199548.609375,177038.515625,686147.875,200037.65625,0.095703125,0.982177734375,-0.235595703125,-1.7089842557907104,0.0,1.0375975370407104,100.0,178341.0,1.0
15:39:13.322676,197933.640625,181933.828125,230336.890625,210073.328125,199549.140625,177047.375,686186.0,200032.46875,0.09375,0.981201171875,-0.23681640625,-1.7395018339157104,-0.03051757626235485,1.1291502714157104,100.0,178342.0,1.0
15:39:13.366229,197937.578125,181943.921875,230346.625,210076.359375,199562.734375,177083.84375,686159.5,200033.375,0.093994140625,0.981201171875,-0.23876953125,-1.6784666776657104,-0.0610351525247097,1.0986326932907104,100.0,178343.0,1.0
15:39:13.369320,197941.515625,181946.421875,230344.84375,210072.34375,199559.6875,177078.9375,686152.5625,200030.859375,0.093994140625,0.9814453125,-0.2353515625,-1.7700194120407104,-0.0915527269244194,1.0986326932907104,100.0,178344.0,1.0
15:39:13.369347,197935.703125,181935.078125,230334.5625,210076.09375,199549.59375,177044.25,686151.3125,200037.21875,0.0966796875,0.97998046875,-0.23291015625,-1.7089842557907104,-0.1525878757238388,1.0070799589157104,100.0,178345.0,1.0
15:39:13.371814,197936.953125,181937.125,230335.09375,210072.875,199549.40625,177047.1875,686189.0,200033.109375,0.0947265625,0.9814453125,-0.23193359375,-1.6784666776657104,-0.1525878757238388,0.9155272841453552,100.0,178346.0,1.0
15:39:13.371837,197940.265625,181944.90625,230347.078125,210076.1875,199561.65625,177082.59375,686169.5,200032.46875,0.097900390625,0.980224609375,-0.233154296875,-1.6479490995407104,-0.1525878757238388,0.9460448622703552,100.0,178347.0,1.0
15:39:13.374848,197941.0625,181945.265625,230346.359375,210071.359375,199558.265625,177081.171875,686159.625,200027.015625,0.098388671875,0.979248046875,-0.235595703125,-1.7089842557907104,-0.2746581733226776,0.8239745497703552,100.0,178348.0,1.0
15:39:13.374869,197936.421875,181932.5625,230336.890625,210075.203125,199550.9375,177045.859375,686153.25,200037.75,0.098388671875,0.97998046875,-0.23583984375,-1.6479490995407104,-0.2441406100988388,0.7934569716453552,100.0,178349.0,1.0
15:39:13.374880,197933.46875,181928.09375,230335.1875,210071.453125,199545.296875,177036.375,686185.1875,200034.625,0.0986328125,0.978515625,-0.234619140625,-1.6174315214157104,-0.1831054538488388,0.8850097060203552,100.0,178350.0,1.0
15:39:13.378642,197938.03125,181937.578125,230346.71875,210073.859375,199558.265625,177071.78125,686195.5625,200033.734375,0.1025390625,0.97705078125,-0.233642578125,-1.5563963651657104,-0.1220703050494194,0.9155272841453552,100.0,178351.0,1.0
15:39:13.378663,197936.59375,181937.484375,230342.6875,210065.109375,199554.421875,177078.03125,686159.1875,200023.71875,0.103515625,0.978759765625,-0.232666015625,-1.4648436307907104,-0.03051757626235485,0.9460448622703552,100.0,178352.0,1.0
15:39:13.378669,197932.21875,181927.921875,230333.84375,210067.515625,199544.578125,177045.046875,686159.3125,200029.703125,0.104248046875,0.9765625,-0.238037109375,-1.4038084745407104,0.0610351525247097,0.8850097060203552,100.0,178353.0,1.0
15:39:13.381212,197929.265625,181921.921875,230326.421875,210066.890625,199538.328125,177027.96875,686183.8125,200029.171875,0.10400390625,0.976318359375,-0.23828125,-1.3427733182907104,0.03051757626235485,0.7934569716453552,100.0,178354.0,1.0
15:39:13.386246,197934.453125,181930.25,230336.34375,210071.8125,199550.390625,177059.4375,686203.9375,200029.078125,0.10400390625,0.97705078125,-0.239013671875,-1.3122557401657104,0.1831054538488388,0.8239745497703552,100.0,178355.0,1.0
15:39:13.388712,197936.6875,181934.71875,230340.546875,210069.578125,199551.90625,177074.8125,686164.6875,200021.390625,0.104736328125,0.9775390625,-0.238037109375,-1.2207030057907104,0.3051757514476776,0.8239745497703552,100.0,178356.0,1.0
15:39:13.416235,197933.828125,181927.828125,230331.078125,210067.0625,199543.515625,177048.265625,686157.1875,200024.34375,0.10498046875,0.978271484375,-0.2373046875,-1.1596678495407104,0.3356933295726776,0.8239745497703552,100.0,178357.0,1.0
15:39:13.418758,197931.046875,181921.484375,230324.71875,210066.4375,199538.140625,177026.453125,686161.375,200027.640625,0.103759765625,0.97998046875,-0.23583984375,-1.1291502714157104,0.3662109076976776,0.8239745497703552,100.0,178358.0,1.0
15:39:13.421182,197929.359375,181922.5625,230326.953125,210059.46875,199541.359375,177046.828125,686193.75,200020.046875,0.105224609375,0.979736328125,-0.234375,-1.0375975370407104,0.5493163466453552,0.7934569716453552,100.0,178359.0,1.0
15:39:13.423768,197927.65625,181923.09375,230329.8125,210054.46875,199544.21875,177065.078125,686161.375,200011.5625,0.10400390625,0.978271484375,-0.23583984375,-1.0070799589157104,0.5187987685203552,0.7324218153953552,100.0,178360.0,1.0
15:39:13.426317,197925.0625,181918.4375,230324.8125,210050.890625,199537.96875,177043.4375,686151.375,200012.453125,0.100830078125,0.98095703125,-0.23779296875,-1.0681151151657104,0.6103515028953552,0.6713866591453552,100.0,178361.0,1.0
15:39:13.433990,197918.8125,181909.0625,230317.390625,210053.75,199530.359375,177014.921875,686143.875,200015.578125,0.100830078125,0.980224609375,-0.239990234375,-1.0070799589157104,0.6713866591453552,0.6713866591453552,100.0,178362.0,1.0
15:39:13.434995,197915.859375,181910.390625,230318.375,210050.4375,199531.4375,177029.9375,686184.625,200005.46875,0.099365234375,0.97998046875,-0.239990234375,-0.9460448622703552,0.6713866591453552,0.6408690810203552,100.0,178363.0,1.0
15:39:13.437840,197918.359375,181920.40625,230330.359375,210049.90625,199543.59375,177063.203125,686161.5625,200004.40625,0.098876953125,0.980224609375,-0.237548828125,-0.9155272841453552,0.6408690810203552,0.5187987685203552,100.0,178364.0,1.0
15:39:13.440003,197918.8125,181919.515625,230327.578125,210048.5625,199538.59375,177050.140625,686153.25,200005.46875,0.097900390625,0.97998046875,-0.238037109375,-0.9460448622703552,0.6713866591453552,0.4882812201976776,100.0,178365.0,1.0
15:39:13.442521,197913.4375,181910.125,230319.0,210051.328125,199531.171875,177018.046875,686141.4375,200014.328125,0.098388671875,0.980712890625,-0.241455078125,-0.9155272841453552,0.7629393935203552,0.4882812201976776,100.0,178366.0,1.0
15:39:13.445014,197916.921875,181916.46875,230321.6875,210051.59375,199536.09375,177032.265625,686181.25,200013.171875,0.097900390625,0.9794921875,-0.240234375,-0.9460448622703552,0.6408690810203552,0.3967284858226776,100.0,178367.0,1.0
15:39:13.447497,197918.0,181923.265625,230331.515625,210051.15625,199546.015625,177066.0625,686165.4375,200010.84375,0.09814453125,0.97900390625,-0.239013671875,-0.9765624403953552,0.6408690810203552,0.3051757514476776,100.0,178368.0,1.0
15:39:13.450042,197917.546875,181921.84375,230329.46875,210044.1875,199539.484375,177056.578125,686158.0,200005.03125,0.09619140625,0.97900390625,-0.24072265625,-0.9765624403953552,0.5798339247703552,0.3051757514476776,100.0,178369.0,1.0
15:39:13.453032,197911.65625,181910.390625,230319.984375,210049.015625,199531.171875,177021.359375,686170.25,200015.40625,0.095947265625,0.979736328125,-0.24072265625,-0.9765624403953552,0.5493163466453552,0.1831054538488388,100.0,178370.0,1.0
15:39:13.453057,197909.78125,181907.796875,230317.296875,210045.515625,199528.125,177018.140625,686189.75,200011.203125,0.097412109375,0.98046875,-0.240234375,-0.9765624403953552,0.5187987685203552,0.2746581733226776,100.0,178371.0,1.0
15:39:13.455001,197913.0,181916.125,230329.1875,210050.625,199540.640625,177053.453125,686177.0625,200011.734375,0.094970703125,0.981201171875,-0.240234375,-0.9765624403953552,0.3356933295726776,0.3356933295726776,100.0,178372.0,1.0
15:39:13.458037,197917.015625,181919.78125,230331.15625,210049.453125,199538.6875,177056.578125,686160.9375,200007.0,0.09521484375,0.97998046875,-0.23681640625,-1.0681151151657104,0.3051757514476776,0.3051757514476776,100.0,178373.0,1.0
15:39:13.458060,197919.15625,181915.40625,230326.328125,210060.28125,199535.734375,177028.0625,686144.6875,200019.328125,0.096435546875,0.981201171875,-0.236572265625,-1.0375975370407104,0.3967284858226776,0.1831054538488388,100.0,178374.0,1.0
15:39:13.462516,197921.84375,181916.65625,230325.265625,210061.53125,199533.859375,177023.046875,686171.875,200019.875,0.09423828125,0.980224609375,-0.23876953125,-1.0986326932907104,0.2441406100988388,0.2746581733226776,100.0,178375.0,1.0
15:39:13.465021,197925.421875,181925.140625,230336.25,210063.765625,199545.921875,177057.921875,686195.8125,200018.796875,0.094970703125,0.97900390625,-0.2373046875,-1.0681151151657104,0.1220703050494194,0.3662109076976776,100.0,178376.0,1.0
15:39:13.467500,197928.46875,181930.78125,230339.203125,210060.0,199547.171875,177067.484375,686161.8125,200013.609375,0.09521484375,0.976806640625,-0.2392578125,-1.0986326932907104,0.0610351525247097,0.3967284858226776,100.0,178377.0,1.0
15:39:13.470522,197923.984375,181920.765625,230329.1875,210061.25,199536.71875,177034.234375,686147.4375,200020.671875,0.098388671875,0.97705078125,-0.238525390625,-1.1291502714157104,0.0915527269244194,0.4577636420726776,100.0,178378.0,1.0
15:39:13.470531,197920.59375,181914.515625,230323.109375,210060.90625,199529.03125,177015.8125,686154.0,200018.96875,0.09716796875,0.977294921875,-0.240478515625,-1.1596678495407104,0.03051757626235485,0.5493163466453552,100.0,178379.0,1.0
15:39:13.480656,197923.71875,181923.09375,230331.96875,210063.046875,199541.625,177049.34375,686181.6875,200019.15625,0.096923828125,0.9765625,-0.240966796875,-1.0681151151657104,-0.03051757626235485,0.6408690810203552,100.0,178380.0,1.0
15:39:13.480716,197925.0625,181928.8125,230335.546875,210059.828125,199546.640625,177069.015625,686155.5,200015.3125,0.0966796875,0.978515625,-0.240478515625,-1.0681151151657104,-0.1220703050494194,0.7934569716453552,100.0,178381.0,1.0
15:39:13.482493,197923.640625,181923.890625,230330.53125,210061.609375,199542.171875,177045.578125,686147.0,200023.984375,0.096923828125,0.9775390625,-0.23974609375,-1.0986326932907104,-0.0610351525247097,0.7629393935203552,100.0,178382.0,1.0
15:39:13.487022,197918.53125,181916.46875,230322.84375,210063.046875,199535.28125,177022.78125,686145.5,200027.46875,0.096923828125,0.9775390625,-0.239990234375,-1.1291502714157104,-0.0915527269244194,0.8544921278953552,100.0,178383.0,1.0
15:39:13.487098,197919.875,181922.640625,230326.328125,210061.703125,199542.609375,177047.8125,686196.0,200023.09375,0.09521484375,0.977783203125,-0.243896484375,-1.0986326932907104,-0.1525878757238388,0.8850097060203552,100.0,178384.0,1.0
15:39:13.497193,197923.8125,181930.78125,230334.828125,210060.453125,199550.84375,177074.640625,686166.9375,200019.875,0.093994140625,0.9775390625,-0.241455078125,-1.1291502714157104,-0.1831054538488388,0.8544921278953552,100.0,178385.0,1.0
15:39:13.497259,197924.53125,181929.265625,230330.890625,210059.734375,199544.9375,177055.234375,686162.5625,200023.453125,0.09228515625,0.977294921875,-0.240478515625,-1.1596678495407104,-0.2441406100988388,0.9155272841453552,100.0,178386.0,1.0
15:39:13.499380,197921.578125,181922.28125,230324.546875,210066.4375,199539.671875,177028.234375,686161.125,200032.5625,0.0927734375,0.979248046875,-0.238037109375,-1.2512205839157104,-0.2136230319738388,0.8239745497703552,100.0,178387.0,1.0
15:39:13.499431,197920.953125,181923.625,230324.453125,210061.609375,199539.390625,177041.734375,686187.75,200024.609375,0.091796875,0.97998046875,-0.23779296875,-1.2817381620407104,-0.2746581733226776,0.8544921278953552,100.0,178388.0,1.0
15:39:13.508749,197921.21875,181929.171875,230330.71875,210056.609375,199543.78125,177067.9375,686149.3125,200016.109375,0.09423828125,0.9814453125,-0.2392578125,-1.3122557401657104,-0.3051757514476776,0.8544921278953552,100.0,178389.0,1.0
15:39:13.513040,197918.625,181923.8125,230322.125,210046.421875,199532.953125,177048.984375,686143.25,200008.515625,0.0947265625,0.9833984375,-0.23876953125,-1.3732908964157104,-0.3967284858226776,0.9460448622703552,100.0,178390.0,1.0
15:39:13.513071,197913.359375,181911.734375,230312.296875,210050.796875,199524.46875,177016.078125,686135.9375,200016.203125,0.095703125,0.984619140625,-0.241943359375,-1.4648436307907104,-0.5798339247703552,0.8850097060203552,100.0,178391.0,1.0
15:39:13.515001,197920.234375,181920.5,230318.90625,210054.8125,199533.234375,177030.390625,686187.3125,200018.703125,0.096923828125,0.983642578125,-0.242431640625,-1.5869139432907104,-0.4882812201976776,0.9460448622703552,100.0,178392.0,1.0
15:39:13.521234,197927.296875,181931.40625,230332.5,210059.46875,199548.34375,177066.953125,686172.1875,200019.953125,0.096435546875,0.9814453125,-0.242919921875,-1.7395018339157104,-0.5493163466453552,1.0070799589157104,100.0,178393.0,1.0
15:39:13.527441,197927.75,181932.296875,230329.734375,210052.234375,199541.71875,177061.234375,686156.8125,200013.796875,0.09814453125,0.980712890625,-0.24169921875,-1.7700194120407104,-0.4272460639476776,0.8850097060203552,100.0,178394.0,1.0
15:39:13.538277,197922.828125,181921.125,230321.953125,210060.453125,199535.46875,177027.4375,686131.4375,200022.734375,0.099853515625,0.979248046875,-0.242431640625,-1.7700194120407104,-0.4577636420726776,0.9155272841453552,100.0,178395.0,1.0
15:39:13.538297,197924.171875,181922.46875,230322.484375,210059.921875,199535.1875,177028.78125,686168.0,200020.765625,0.10009765625,0.978515625,-0.24365234375,-1.7700194120407104,-0.5187987685203552,0.9155272841453552,100.0,178396.0,1.0
15:39:13.540287,197924.078125,181928.453125,230334.828125,210059.734375,199546.375,177062.03125,686169.625,200017.546875,0.101806640625,0.97900390625,-0.244140625,-1.8005369901657104,-0.3967284858226776,0.9155272841453552,100.0,178397.0,1.0
15:39:13.542468,197925.0625,181931.40625,230334.828125,210052.9375,199543.6875,177063.90625,686162.375,200009.953125,0.10302734375,0.97998046875,-0.24169921875,-1.8615721464157104,-0.3662109076976776,0.9155272841453552,100.0,178398.0,1.0
15:39:13.546216,197925.515625,181926.484375,230327.671875,210060.28125,199539.484375,177035.65625,686142.8125,200022.28125,0.10400390625,0.9794921875,-0.240478515625,-1.9226073026657104,-0.3356933295726776,0.9765624403953552,100.0,178399.0,1.0
15:39:13.557266,197926.9375,181926.125,230325.890625,210062.953125,199537.875,177029.3125,686165.125,200022.546875,0.105712890625,0.980224609375,-0.2412109375,-1.9226073026657104,-0.2136230319738388,0.9460448622703552,100.0,178400.0,1.0
15:39:13.557322,197936.859375,181940.53125,230341.171875,210072.34375,199556.921875,177070.34375,686179.4375,200026.9375,0.105712890625,0.979736328125,-0.2431640625,-1.9531248807907104,-0.1220703050494194,0.8850097060203552,100.0,178401.0,1.0
15:39:13.559346,197935.53125,181942.9375,230340.109375,210063.671875,199554.78125,177078.84375,686155.875,200017.359375,0.10595703125,0.979736328125,-0.2431640625,-1.9836424589157104,0.0610351525247097,0.7934569716453552,100.0,178402.0,1.0
15:39:13.559408,197931.953125,181934.53125,230330.796875,210063.9375,199546.28125,177047.546875,686142.6875,200022.90625,0.105224609375,0.980224609375,-0.24267578125,-1.9836424589157104,0.0915527269244194,0.7629393935203552,100.0,178403.0,1.0
15:39:13.573786,197932.65625,181931.3125,230328.296875,210068.234375,199543.0625,177031.640625,686152.4375,200026.3125,0.1044921875,0.980712890625,-0.240234375,-2.044677495956421,0.1831054538488388,0.7934569716453552,100.0,178404.0,1.0
15:39:13.576879,197940.4375,181941.328125,230342.15625,210073.5,199557.015625,177066.0625,686179.625,200029.25,0.103271484375,0.981689453125,-0.23974609375,-2.044677495956421,0.2441406100988388,0.8544921278953552,100.0,178405.0,1.0
15:39:13.576896,197942.40625,181945.171875,230347.875,210068.765625,199560.3125,177083.84375,686156.9375,200023.453125,0.10205078125,0.98046875,-0.237548828125,-2.075195074081421,0.3662109076976776,0.8850097060203552,100.0,178406.0,1.0
15:39:13.578884,197937.21875,181935.703125,230336.34375,210065.375,199549.765625,177054.25,686156.1875,200025.765625,0.100341796875,0.977783203125,-0.23779296875,-2.044677495956421,0.4577636420726776,0.8239745497703552,100.0,178407.0,1.0
15:39:13.585035,197934.09375,181929.265625,230329.90625,210069.125,199544.84375,177029.765625,686165.0,200032.65625,0.101806640625,0.97705078125,-0.2373046875,-2.044677495956421,0.5493163466453552,0.7629393935203552,100.0,178408.0,1.0
15:39:13.587496,197935.34375,181934.359375,230337.6875,210069.65625,199554.859375,177053.265625,686181.875,200033.109375,0.10205078125,0.979736328125,-0.237060546875,-2.075195074081421,0.6103515028953552,0.7019042372703552,100.0,178409.0,1.0
15:39:13.591211,197934.90625,181939.09375,230345.015625,210068.140625,199560.9375,177078.03125,686146.3125,200029.609375,0.1015625,0.9814453125,-0.239013671875,-2.105712652206421,0.6408690810203552,0.7629393935203552,100.0,178410.0,1.0
15:39:13.597544,197925.953125,181928.359375,230331.34375,210061.078125,199548.15625,177050.765625,686141.375,200025.859375,0.10009765625,0.983154296875,-0.2392578125,-2.105712652206421,0.7019042372703552,0.7019042372703552,100.0,178411.0,1.0
15:39:13.604586,197918.359375,181915.578125,230319.09375,210062.859375,199537.25,177019.203125,686140.5,200028.09375,0.102294921875,0.98095703125,-0.237060546875,-2.014159917831421,0.6713866591453552,0.7629393935203552,100.0,178412.0,1.0
15:39:13.604666,197919.4375,181920.234375,230322.40625,210061.4375,199542.34375,177037.984375,686184.1875,200023.984375,0.099609375,0.98095703125,-0.236572265625,-2.136230230331421,0.7324218153953552,0.8239745497703552,100.0,178413.0,1.0
15:39:13.607076,197917.28125,181923.453125,230329.640625,210060.0,199549.40625,177065.875,686151.9375,200017.546875,0.101806640625,0.981689453125,-0.236572265625,-2.105712652206421,0.7019042372703552,0.8850097060203552,100.0,178414.0,1.0
15:39:13.607128,197909.15625,181913.796875,230314.984375,210047.484375,199535.1875,177045.40625,686146.75,200005.65625,0.1015625,0.982177734375,-0.237548828125,-2.105712652206421,0.7019042372703552,0.9155272841453552,100.0,178415.0,1.0
15:39:13.614008,197904.859375,181905.484375,230307.109375,210052.765625,199529.203125,177016.34375,686146.1875,200014.59375,0.100341796875,0.980712890625,-0.236572265625,-2.075195074081421,0.7629393935203552,0.8850097060203552,100.0,178416.0,1.0
15:39:13.617670,197904.046875,181907.71875,230307.828125,210049.640625,199530.90625,177023.5,686189.375,200011.828125,0.101318359375,0.9814453125,-0.236572265625,-2.166747808456421,0.7629393935203552,0.9460448622703552,100.0,178417.0,1.0
15:39:13.624437,197901.1875,181910.390625,230317.578125,210048.109375,199537.421875,177052.828125,686184.375,200006.90625,0.101806640625,0.98193359375,-0.23291015625,-2.227782964706421,0.7934569716453552,0.9765624403953552,100.0,178418.0,1.0
15:39:13.624508,197897.53125,181910.390625,230312.75,210038.375,199528.125,177043.796875,686160.9375,199999.21875,0.1005859375,0.981201171875,-0.232666015625,-2.197265386581421,0.8239745497703552,0.8850097060203552,100.0,178419.0,1.0
15:39:13.626239,197894.390625,181901.71875,230303.359375,210047.21875,199519.28125,177010.265625,686163.0625,200009.5,0.101318359375,0.9794921875,-0.234130859375,-2.136230230331421,0.7324218153953552,0.8850097060203552,100.0,178420.0,1.0
15:39:13.636351,197899.5,181904.234375,230304.421875,210055.53125,199520.078125,177012.40625,686176.6875,200010.296875,0.1005859375,0.97998046875,-0.2333984375,-2.166747808456421,0.7019042372703552,0.9155272841453552,100.0,178421.0,1.0
15:39:13.643056,197901.734375,181909.0625,230311.40625,210054.28125,199529.734375,177044.515625,686158.5625,200007.078125,0.09814453125,0.979248046875,-0.234619140625,-2.197265386581421,0.6408690810203552,0.8239745497703552,100.0,178422.0,1.0
15:39:13.643066,197906.28125,181912.28125,230311.84375,210046.59375,199528.125,177046.203125,686147.5625,200001.8125,0.096923828125,0.978515625,-0.23583984375,-2.166747808456421,0.6713866591453552,0.8544921278953552,100.0,178423.0,1.0
15:39:13.650273,197906.921875,181906.90625,230307.46875,210056.25,199524.90625,177018.3125,686135.375,200014.859375,0.098388671875,0.97802734375,-0.2353515625,-2.105712652206421,0.6103515028953552,0.7629393935203552,100.0,178424.0,1.0
15:39:13.650350,197910.484375,181909.59375,230308.90625,210060.90625,199525.1875,177013.125,686161.3125,200017.453125,0.097412109375,0.97802734375,-0.232421875,-2.044677495956421,0.6103515028953552,0.8239745497703552,100.0,178425.0,1.0
15:39:13.653950,197918.09375,181920.765625,230322.3125,210066.171875,199539.9375,177050.046875,686166.75,200019.15625,0.09716796875,0.97705078125,-0.234619140625,-1.9531248807907104,0.3967284858226776,0.8239745497703552,100.0,178426.0,1.0
15:39:13.657643,197920.953125,181925.234375,230323.65625,210059.5625,199540.015625,177061.859375,686149.3125,200011.109375,0.097900390625,0.976806640625,-0.234130859375,-1.9836424589157104,0.4882812201976776,0.7934569716453552,100.0,178427.0,1.0
15:39:13.665241,197928.90625,181929.625,230325.890625,210070.5625,199542.34375,177042.90625,686156.9375,200026.03125,0.097900390625,0.9775390625,-0.231201171875,-1.9531248807907104,0.3967284858226776,0.7324218153953552,100.0,178428.0,1.0
15:39:13.672128,197924.796875,181924.4375,230319.8125,210071.09375,199536.171875,177022.96875,686162.125,200026.125,0.0986328125,0.977294921875,-0.233154296875,-1.7700194120407104,0.3051757514476776,0.7934569716453552,100.0,178429.0,1.0
15:39:13.672210,197928.734375,181932.125,230328.390625,210072.703125,199547.53125,177052.5625,686183.6875,200024.515625,0.0986328125,0.976318359375,-0.2294921875,-1.7089842557907104,0.3967284858226776,0.7629393935203552,100.0,178430.0,1.0
15:39:13.678203,197932.390625,181937.484375,230333.125,210069.03125,199550.03125,177071.0625,686155.3125,200018.078125,0.09765625,0.976318359375,-0.23046875,-1.7395018339157104,0.2136230319738388,0.7019042372703552,100.0,178431.0,1.0
15:39:13.678293,197928.109375,181927.828125,230323.390625,210064.828125,199537.609375,177041.734375,686144.6875,200018.96875,0.09814453125,0.9775390625,-0.232666015625,-1.7700194120407104,0.2441406100988388,0.6713866591453552,100.0,178432.0,1.0
15:39:13.685122,197924.703125,181921.65625,230315.421875,210067.25,199529.65625,177016.703125,686151.0,200021.65625,0.09912109375,0.9775390625,-0.233154296875,-1.7089842557907104,0.1220703050494194,0.7324218153953552,100.0,178433.0,1.0
15:39:13.733130,197925.875,181926.046875,230319.359375,210064.75,199534.84375,177038.4375,686187.75,200016.921875,0.099365234375,0.978271484375,-0.232177734375,-1.6479490995407104,0.0915527269244194,0.6713866591453552,100.0,178434.0,1.0
15:39:13.733171,197928.28125,181932.296875,230326.6875,210063.21875,199540.640625,177062.921875,686147.875,200011.734375,0.099853515625,0.978271484375,-0.23291015625,-1.6479490995407104,-0.0610351525247097,0.7019042372703552,100.0,178435.0,1.0
15:39:13.739320,197932.578125,181936.0625,230326.953125,210066.984375,199539.84375,177047.90625,686147.0,200017.453125,0.099365234375,0.979736328125,-0.234619140625,-1.5869139432907104,-0.1525878757238388,0.6408690810203552,100.0,178436.0,1.0
15:39:13.739338,197932.125,181930.15625,230324.8125,210074.125,199537.15625,177021.171875,686137.25,200027.921875,0.0986328125,0.978271484375,-0.234130859375,-1.4648436307907104,-0.1220703050494194,0.6713866591453552,100.0,178437.0,1.0
15:39:13.741256,197934.359375,181935.4375,230329.1875,210072.703125,199542.4375,177039.328125,686188.6875,200024.703125,0.098876953125,0.977783203125,-0.231201171875,-1.4343260526657104,-0.1831054538488388,0.6713866591453552,100.0,178438.0,1.0
15:39:13.743747,197937.484375,181946.0625,230339.46875,210075.921875,199554.59375,177076.609375,686175.4375,200023.890625,0.1005859375,0.979248046875,-0.231689453125,-1.4648436307907104,-0.2136230319738388,0.7629393935203552,100.0,178439.0,1.0
15:39:13.746237,197940.890625,181949.5625,230338.40625,210076.640625,199554.859375,177070.890625,686160.5,200026.03125,0.099365234375,0.98095703125,-0.230224609375,-1.4953612089157104,-0.3967284858226776,0.7019042372703552,100.0,178440.0,1.0
15:39:13.748762,197935.078125,181939.28125,230330.0,210083.34375,199548.6875,177040.390625,686144.875,200034.265625,0.098876953125,0.981689453125,-0.233642578125,-1.4038084745407104,-0.2441406100988388,0.7934569716453552,100.0,178441.0,1.0
15:39:13.755536,197933.921875,181941.6875,230328.84375,210082.453125,199549.5,177047.90625,686183.9375,200027.828125,0.097900390625,0.980712890625,-0.2333984375,-1.3732908964157104,-0.3051757514476776,0.7324218153953552,100.0,178442.0,1.0
15:39:13.760052,197931.953125,181946.96875,230335.71875,210080.03125,199557.90625,177080.09375,686161.375,200022.1875,0.099365234375,0.97900390625,-0.236328125,-1.3732908964157104,-0.2136230319738388,0.7629393935203552,100.0,178443.0,1.0
15:39:13.763579,197928.46875,181944.015625,230331.609375,210078.25,199549.40625,177073.125,686151.5625,200014.234375,0.100830078125,0.979248046875,-0.233642578125,-1.2817381620407104,-0.1525878757238388,0.6713866591453552,100.0,178444.0,1.0
15:39:13.765074,197920.5,181931.671875,230319.625,210086.203125,199538.5,177037.984375,686132.9375,200021.5625,0.097412109375,0.9794921875,-0.23583984375,-1.3427733182907104,-0.1831054538488388,0.7019042372703552,100.0,178445.0,1.0
15:39:13.768252,197920.140625,181932.21875,230317.03125,210085.21875,199537.25,177036.90625,686171.5625,200020.5,0.099365234375,0.97998046875,-0.235107421875,-1.4038084745407104,-0.2746581733226776,0.6103515028953552,100.0,178446.0,1.0
15:39:13.770040,197923.640625,181939.8125,230327.5,210087.625,199551.5625,177073.03125,686160.9375,200023.0,0.09912109375,0.98046875,-0.236328125,-1.3122557401657104,-0.2746581733226776,0.7019042372703552,100.0,178447.0,1.0
15:39:13.772486,197923.359375,181942.765625,230326.15625,210078.78125,199548.609375,177076.15625,686143.9375,200014.421875,0.10009765625,0.97900390625,-0.234130859375,-1.3427733182907104,-0.3051757514476776,0.7324218153953552,100.0,178448.0,1.0
15:39:13.775068,197920.0625,181934.796875,230318.90625,210082.890625,199540.640625,177043.53125,686139.375,200022.734375,0.102783203125,0.9794921875,-0.234130859375,-1.3122557401657104,-0.3662109076976776,0.7324218153953552,100.0,178449.0,1.0
15:39:13.777524,197920.953125,181932.296875,230318.109375,210083.4375,199537.421875,177032.53125,686163.375,200022.28125,0.103515625,0.98095703125,-0.2353515625,-1.3732908964157104,-0.1525878757238388,0.6713866591453552,100.0,178450.0,1.0
15:39:13.780612,197924.078125,181940.890625,230329.46875,210082.359375,199550.296875,177066.140625,686177.5,200022.015625,0.10400390625,0.98193359375,-0.235595703125,-1.3427733182907104,-0.2136230319738388,0.6103515028953552,100.0,178451.0,1.0
15:39:13.780655,197930.34375,181950.265625,230336.25,210078.78125,199555.3125,177082.421875,686152.875,200019.0625,0.103271484375,0.979248046875,-0.234619140625,-1.3122557401657104,-0.2136230319738388,0.7019042372703552,100.0,178452.0,1.0
15:39:13.784097,197929.171875,181943.921875,230328.84375,210081.46875,199550.65625,177054.25,686150.375,200027.296875,0.10107421875,0.97998046875,-0.23779296875,-1.3732908964157104,-0.0610351525247097,0.7934569716453552,100.0,178453.0,1.0
15:39:13.784147,197927.5625,181938.5625,230325.53125,210080.84375,199546.546875,177037.453125,686163.4375,200029.703125,0.099365234375,0.979248046875,-0.23828125,-1.3427733182907104,-0.0610351525247097,0.8239745497703552,100.0,178454.0,1.0
15:39:13.784169,197930.25,181946.421875,230333.671875,210079.234375,199558.4375,177068.5625,686197.9375,200028.453125,0.1005859375,0.97705078125,-0.235595703125,-1.2817381620407104,0.0915527269244194,0.8544921278953552,100.0,178455.0,1.0
15:39:13.786171,197936.234375,181956.171875,230343.5,210080.5625,199566.390625,177092.96875,686161.3125,200027.921875,0.10107421875,0.978271484375,-0.236572265625,-1.3427733182907104,0.0915527269244194,0.8239745497703552,100.0,178456.0,1.0
15:39:13.789335,197933.640625,181949.828125,230336.4375,210081.1875,199558.265625,177066.421875,686147.375,200030.953125,0.1015625,0.97998046875,-0.23388671875,-1.4038084745407104,-0.03051757626235485,0.8239745497703552,100.0,178457.0,1.0
15:39:13.789389,197929.4375,181941.515625,230329.1875,210085.484375,199550.65625,177039.6875,686137.6875,200033.640625,0.10107421875,0.9794921875,-0.235107421875,-1.3732908964157104,0.0,0.8544921278953552,100.0,178458.0,1.0
15:39:13.791254,197930.34375,181944.453125,230334.46875,210081.1875,199554.6875,177061.140625,686171.875,200028.71875,0.1025390625,0.98046875,-0.23828125,-1.3122557401657104,0.0610351525247097,0.7934569716453552,100.0,178459.0,1.0
15:39:13.793763,197933.5625,181950.890625,230342.0625,210079.40625,199561.5625,177086.703125,686147.6875,200023.09375,0.10107421875,0.978515625,-0.235595703125,-1.2817381620407104,0.0915527269244194,0.7934569716453552,100.0,178460.0,1.0
15:39:13.796237,197934.71875,181948.84375,230336.609375,210082.625,199556.296875,177069.8125,686149.5,200025.765625,0.10107421875,0.978271484375,-0.23388671875,-1.2207030057907104,0.1525878757238388,0.7629393935203552,100.0,178461.0,1.0
15:39:13.803150,197930.875,181938.828125,230327.578125,210087.1875,199547.359375,177038.4375,686152.625,200031.84375,0.1005859375,0.978515625,-0.234619140625,-1.2512205839157104,0.2441406100988388,0.7934569716453552,100.0,178462.0,1.0
15:39:13.803203,197930.421875,181940.4375,230328.296875,210083.15625,199547.078125,177050.671875,686190.375,200023.359375,0.100341796875,0.97802734375,-0.23486328125,-1.2512205839157104,0.2441406100988388,0.8850097060203552,100.0,178463.0,1.0
15:39:13.807521,197933.734375,181948.390625,230339.296875,210086.109375,199558.265625,177083.40625,686165.0,200023.890625,0.10107421875,0.978515625,-0.2373046875,-1.2817381620407104,0.2136230319738388,0.8239745497703552,100.0,178464.0,1.0
15:39:13.814321,197932.578125,181945.53125,230333.21875,210077.171875,199551.109375,177071.25,686157.125,200020.765625,0.10205078125,0.9794921875,-0.23583984375,-1.2512205839157104,0.3051757514476776,0.8239745497703552,100.0,178465.0,1.0
15:39:13.814351,197931.40625,181938.109375,230326.953125,210083.34375,199546.015625,177042.0,686142.8125,200031.140625,0.100830078125,0.9794921875,-0.23876953125,-1.2817381620407104,0.3967284858226776,0.8850097060203552,100.0,178466.0,1.0
15:39:13.820693,197935.96875,181941.515625,230329.546875,210082.0,199549.765625,177050.328125,686196.625,200029.4375,0.100830078125,0.9794921875,-0.237060546875,-1.2512205839157104,0.3662109076976776,0.8239745497703552,100.0,178467.0,1.0
15:39:13.820739,197939.375,181949.015625,230340.1875,210082.984375,199562.109375,177084.296875,686182.3125,200027.46875,0.1025390625,0.979736328125,-0.239013671875,-1.2512205839157104,0.4272460639476776,0.9155272841453552,100.0,178468.0,1.0
15:39:13.827510,197938.5625,181948.03125,230336.34375,210075.734375,199556.921875,177079.640625,686161.375,200020.5,0.101318359375,0.981201171875,-0.2392578125,-1.2512205839157104,0.4272460639476776,0.9155272841453552,100.0,178469.0,1.0
15:39:13.836883,197934.625,181939.71875,230327.671875,210081.90625,199550.390625,177047.640625,686146.125,200030.328125,0.101318359375,0.97900390625,-0.23779296875,-1.3427733182907104,0.3662109076976776,0.8544921278953552,100.0,178470.0,1.0
15:39:13.836954,197932.84375,181939.8125,230323.921875,210078.6875,199546.640625,177044.421875,686176.5,200027.46875,0.103515625,0.978515625,-0.24072265625,-1.2817381620407104,0.4272460639476776,0.8239745497703552,100.0,178471.0,1.0
15:39:13.844395,197935.4375,181947.953125,230334.203125,210079.859375,199559.328125,177080.453125,686169.8125,200026.9375,0.10205078125,0.979248046875,-0.242919921875,-1.3427733182907104,0.4882812201976776,0.7324218153953552,100.0,178472.0,1.0
15:39:13.844462,197937.3125,181952.0625,230335.28125,210073.15625,199557.546875,177085.90625,686146.8125,200020.3125,0.099853515625,0.97802734375,-0.23876953125,-1.3122557401657104,0.4882812201976776,0.6408690810203552,100.0,178473.0,1.0
15:39:13.846959,197935.53125,181944.453125,230327.671875,210079.046875,199550.75,177055.0625,686148.0625,200029.609375,0.100830078125,0.9794921875,-0.237060546875,-1.3427733182907104,0.4272460639476776,0.6713866591453552,100.0,178474.0,1.0
15:39:13.847024,197935.25,181942.40625,230326.0625,210083.515625,199547.796875,177043.796875,686168.875,200031.578125,0.103271484375,0.97900390625,-0.239013671875,-1.4038084745407104,0.3967284858226776,0.6103515028953552,100.0,178475.0,1.0
15:39:13.855114,197936.234375,181946.609375,230335.984375,210085.3125,199558.265625,177073.484375,686169.625,200032.65625,0.1015625,0.97998046875,-0.2353515625,-1.4038084745407104,0.4272460639476776,0.7019042372703552,100.0,178476.0,1.0
15:39:13.865570,197933.734375,181946.609375,230335.1875,210074.3125,199553.171875,177081.171875,686151.9375,200020.046875,0.10205078125,0.979736328125,-0.23828125,-1.3732908964157104,0.4272460639476776,0.7629393935203552,100.0,178477.0,1.0
15:39:13.865615,197926.140625,181934.984375,230322.3125,210070.640625,199539.390625,177046.203125,686142.8125,200019.25,0.102783203125,0.97998046875,-0.239013671875,-1.4038084745407104,0.4577636420726776,0.7019042372703552,100.0,178478.0,1.0
15:39:13.875793,197926.5,181932.21875,230318.734375,210073.234375,199534.5625,177027.515625,686160.9375,200022.90625,0.1005859375,0.9794921875,-0.23779296875,-1.4343260526657104,0.4577636420726776,0.5798339247703552,100.0,178479.0,1.0
15:39:13.875866,197930.703125,181940.53125,230327.9375,210075.203125,199545.5625,177059.0,686193.75,200023.171875,0.100830078125,0.978759765625,-0.239990234375,-1.4648436307907104,0.4272460639476776,0.6408690810203552,100.0,178480.0,1.0
15:39:13.878192,197933.203125,181946.78125,230333.484375,210075.921875,199550.9375,177080.265625,686167.125,200018.078125,0.100341796875,0.977783203125,-0.236328125,-1.3732908964157104,0.4882812201976776,0.6103515028953552,100.0,178481.0,1.0
15:39:13.878206,197930.15625,181940.171875,230324.453125,210077.625,199543.328125,177053.625,686156.1875,200022.109375,0.1005859375,0.97998046875,-0.233642578125,-1.4038084745407104,0.4577636420726776,0.7019042372703552,100.0,178482.0,1.0
15:39:13.888255,197928.8125,181934.171875,230319.453125,210083.96875,199539.9375,177030.46875,686137.1875,200030.234375,0.100830078125,0.980224609375,-0.236083984375,-1.4343260526657104,0.4577636420726776,0.7019042372703552,100.0,178483.0,1.0
15:39:13.888334,197932.390625,181939.546875,230326.953125,210085.84375,199549.5,177055.0625,686186.4375,200030.78125,0.099853515625,0.979248046875,-0.2392578125,-1.4648436307907104,0.3051757514476776,0.6408690810203552,100.0,178484.0,1.0
15:39:13.890209,197934.1875,181944.015625,230335.453125,210082.625,199557.640625,177082.15625,686150.1875,200027.921875,0.097900390625,0.97900390625,-0.239501953125,-1.4038084745407104,0.3662109076976776,0.6713866591453552,100.0,178485.0,1.0
15:39:13.902049,197932.65625,181940.96875,230329.28125,210077.4375,199551.46875,177063.546875,686142.6875,200027.734375,0.09912109375,0.979248046875,-0.23583984375,-1.4648436307907104,0.3051757514476776,0.7019042372703552,100.0,178486.0,1.0
15:39:13.902118,197928.015625,181931.9375,230321.859375,210079.9375,199545.296875,177033.953125,686144.9375,200036.140625,0.10009765625,0.97900390625,-0.23876953125,-1.5563963651657104,0.3051757514476776,0.6408690810203552,100.0,178487.0,1.0
15:39:13.904403,197928.015625,181934.09375,230322.75,210076.453125,199547.890625,177046.828125,686176.5625,200031.40625,0.099365234375,0.98046875,-0.23828125,-1.5258787870407104,0.2441406100988388,0.6408690810203552,100.0,178488.0,1.0
15:39:13.904468,197930.515625,181943.75,230333.75,210077.703125,199559.515625,177081.34375,686140.8125,200029.609375,0.1005859375,0.98095703125,-0.239990234375,-1.4648436307907104,0.1831054538488388,0.7019042372703552,100.0,178489.0,1.0
15:39:13.913890,197929.4375,181941.515625,230326.515625,210069.65625,199551.109375,177067.3125,686145.3125,200023.796875,0.097900390625,0.979736328125,-0.2392578125,-1.4648436307907104,0.1831054538488388,0.6103515028953552,100.0,178490.0,1.0
15:39:13.920606,197923.09375,181929.4375,230316.59375,210074.046875,199541.71875,177033.328125,686156.1875,200031.5,0.097412109375,0.98046875,-0.240234375,-1.5258787870407104,0.0610351525247097,0.7324218153953552,100.0,178491.0,1.0
15:39:13.920675,197924.078125,181931.3125,230317.03125,210073.15625,199542.34375,177039.328125,686190.1875,200026.9375,0.097412109375,0.981201171875,-0.237060546875,-1.5563963651657104,0.0,0.7934569716453552,100.0,178492.0,1.0
15:39:13.928182,197927.75,181941.421875,230329.1875,210074.84375,199554.0625,177076.25,686174.375,200025.40625,0.097412109375,0.978759765625,-0.236083984375,-1.5258787870407104,-0.0610351525247097,0.6408690810203552,100.0,178493.0,1.0
15:39:13.928252,197926.40625,181940.96875,230324.1875,210062.515625,199545.46875,177071.0625,686158.375,200015.21875,0.09765625,0.97900390625,-0.23681640625,-1.6174315214157104,-0.03051757626235485,0.7019042372703552,100.0,178494.0,1.0
15:39:13.930604,197917.109375,181926.046875,230310.859375,210061.703125,199533.5,177033.328125,686138.0625,200019.25,0.0986328125,0.979736328125,-0.238037109375,-1.6784666776657104,-0.03051757626235485,0.6713866591453552,100.0,178495.0,1.0
15:39:13.930665,197918.984375,181926.9375,230309.53125,210061.703125,199533.234375,177032.34375,686179.0,200018.265625,0.10009765625,0.979248046875,-0.239501953125,-1.6479490995407104,-0.1220703050494194,0.6713866591453552,100.0,178496.0,1.0
15:39:13.945082,197921.9375,181935.78125,230321.234375,210064.296875,199547.53125,177069.546875,686191.0625,200018.4375,0.099609375,0.978515625,-0.239990234375,-1.5563963651657104,-0.1220703050494194,0.6408690810203552,100.0,178497.0,1.0
15:39:13.948083,197918.53125,181936.765625,230317.21875,210052.671875,199542.609375,177072.578125,686163.5625,200006.1875,0.099365234375,0.97998046875,-0.23779296875,-1.5869139432907104,-0.1831054538488388,0.7019042372703552,100.0,178498.0,1.0
15:39:13.948136,197913.890625,181927.734375,230307.734375,210054.015625,199536.171875,177040.046875,686156.125,200013.078125,0.100341796875,0.98193359375,-0.23876953125,-1.6479490995407104,-0.0915527269244194,0.6713866591453552,100.0,178499.0,1.0
15:39:13.966980,197910.3125,181923.1875,230301.828125,210053.390625,199531.078125,177027.34375,686177.375,200011.5625,0.099853515625,0.9814453125,-0.237548828125,-1.7089842557907104,-0.0915527269244194,0.6713866591453552,100.0,178500.0,1.0
15:39:13.967046,197912.09375,181930.15625,230310.328125,210055.625,199541.546875,177059.890625,686197.625,200010.390625,0.100830078125,0.978515625,-0.237060546875,-1.5869139432907104,-0.0915527269244194,0.7324218153953552,100.0,178501.0,1.0
15:39:13.976975,197914.6875,181935.34375,230313.640625,210051.875,199542.25,177073.5625,686162.0,200004.765625,0.102783203125,0.978759765625,-0.23583984375,-1.6174315214157104,-0.1831054538488388,0.6713866591453552,100.0,178502.0,1.0
15:39:13.977049,197915.859375,181930.25,230308.625,210056.703125,199536.984375,177046.921875,686157.4375,200013.609375,0.101318359375,0.980712890625,-0.23486328125,-1.7089842557907104,-0.1525878757238388,0.6408690810203552,100.0,178503.0,1.0
15:39:13.979991,197912.71875,181924.96875,230303.265625,210057.5,199530.546875,177027.078125,686167.375,200013.96875,0.10205078125,0.980224609375,-0.23583984375,-1.6784666776657104,-0.2441406100988388,0.5798339247703552,100.0,178504.0,1.0
15:39:13.980068,197913.890625,181929.0,230309.796875,210056.421875,199538.234375,177053.8125,686186.6875,200011.375,0.10205078125,0.9794921875,-0.235595703125,-1.5869139432907104,-0.2136230319738388,0.5493163466453552,100.0,178505.0,1.0
15:39:13.980095,197915.140625,181933.28125,230315.421875,210053.921875,199543.0625,177074.015625,686154.0625,200007.796875,0.101318359375,0.97705078125,-0.238037109375,-1.5563963651657104,-0.1525878757238388,0.6408690810203552,100.0,178506.0,1.0
15:39:13.982478,197912.546875,181926.484375,230307.109375,210052.578125,199532.953125,177047.640625,686148.3125,200009.140625,0.1025390625,0.979248046875,-0.2373046875,-1.6479490995407104,-0.0915527269244194,0.5798339247703552,100.0,178507.0,1.0
15:39:13.985168,197908.796875,181918.0,230299.78125,210057.59375,199525.8125,177021.265625,686140.125,200012.890625,0.102294921875,0.978759765625,-0.236328125,-1.6174315214157104,-0.1525878757238388,0.6713866591453552,100.0,178508.0,1.0
15:39:13.991416,197913.171875,181926.578125,230307.828125,210057.140625,199534.75,177046.03125,686181.5,200012.453125,0.1005859375,0.977783203125,-0.23486328125,-1.6174315214157104,-0.1220703050494194,0.6408690810203552,100.0,178509.0,1.0
15:39:13.996432,197914.6875,181932.5625,230315.875,210053.203125,199541.546875,177072.671875,686148.25,200007.078125,0.100830078125,0.97607421875,-0.23486328125,-1.6479490995407104,-0.0610351525247097,0.7019042372703552,100.0,178510.0,1.0
15:39:13.997048,197910.046875,181926.046875,230306.84375,210046.859375,199532.421875,177051.9375,686138.75,200003.59375,0.103515625,0.976806640625,-0.233642578125,-1.6479490995407104,0.0,0.6103515028953552,100.0,178511.0,1.0
15:39:13.997118,197905.3125,181917.015625,230299.25,210053.5625,199526.34375,177021.0,686132.6875,200012.625,0.103515625,0.977783203125,-0.232177734375,-1.6784666776657104,0.0,0.6408690810203552,100.0,178512.0,1.0
15:39:14.001289,197906.828125,181920.671875,230303.625,210054.734375,199529.921875,177035.03125,686180.25,200011.828125,0.102783203125,0.978271484375,-0.232177734375,-1.5869139432907104,-0.0610351525247097,0.5798339247703552,100.0,178513.0,1.0
15:39:14.010101,197909.421875,181929.171875,230313.90625,210055.796875,199540.015625,177067.578125,686160.5,200010.21875,0.1015625,0.97998046875,-0.2333984375,-1.5258787870407104,-0.0915527269244194,0.6103515028953552,100.0,178514.0,1.0
15:39:14.012494,197912.640625,181930.609375,230312.390625,210053.5625,199536.53125,177058.28125,686154.75,200007.984375,0.1015625,0.98095703125,-0.237060546875,-1.5563963651657104,0.0610351525247097,0.5798339247703552,100.0,178515.0,1.0
15:39:14.015062,197912.09375,181925.234375,230307.734375,210063.046875,199532.15625,177028.0625,686154.0,200019.328125,0.101806640625,0.97900390625,-0.233642578125,-1.5563963651657104,0.0,0.5187987685203552,100.0,178516.0,1.0
15:39:14.018768,197913.4375,181927.46875,230308.0,210061.796875,199533.578125,177033.609375,686189.9375,200017.359375,0.102783203125,0.97900390625,-0.237548828125,-1.6174315214157104,0.1220703050494194,0.5493163466453552,100.0,178517.0,1.0
15:39:14.029389,197916.484375,181936.328125,230319.0,210063.3125,199546.28125,177069.015625,686178.3125,200017.90625,0.1025390625,0.978271484375,-0.236083984375,-1.5869139432907104,0.1525878757238388,0.5493163466453552,100.0,178518.0,1.0
15:39:14.029412,197913.078125,181934.171875,230312.828125,210051.421875,199537.15625,177062.84375,686155.875,200007.359375,0.101318359375,0.978759765625,-0.236083984375,-1.5869139432907104,0.1831054538488388,0.6103515028953552,100.0,178519.0,1.0
15:39:14.057327,197909.234375,181925.6875,230306.03125,210059.375,199531.625,177032.265625,686136.8125,200017.640625,0.101806640625,0.980712890625,-0.235595703125,-1.5869139432907104,0.2441406100988388,0.5187987685203552,100.0,178520.0,1.0
15:39:14.057352,197914.6875,181930.609375,230310.421875,210066.53125,199535.90625,177034.40625,686162.4375,200020.9375,0.10009765625,0.979248046875,-0.23583984375,-1.5258787870407104,0.0915527269244194,0.4577636420726776,100.0,178521.0,1.0
15:39:14.059538,197918.8125,181937.75,230323.203125,210065.453125,199549.140625,177070.34375,686178.3125,200018.96875,0.100830078125,0.97900390625,-0.23779296875,-1.5563963651657104,0.0610351525247097,0.4577636420726776,100.0,178522.0,1.0
15:39:14.059557,197923.453125,181945.53125,230326.953125,210060.90625,199552.09375,177081.078125,686159.1875,200014.953125,0.10302734375,0.979736328125,-0.235107421875,-1.5563963651657104,-0.03051757626235485,0.4272460639476776,100.0,178523.0,1.0
15:39:14.083771,197920.59375,181939.09375,230318.90625,210063.671875,199546.546875,177051.03125,686143.9375,200022.46875,0.10107421875,0.978271484375,-0.233642578125,-1.5258787870407104,0.1220703050494194,0.4272460639476776,100.0,178524.0,1.0
15:39:14.106282,197920.328125,181937.046875,230316.671875,210067.609375,199544.5,177040.75,686161.5625,200022.546875,0.10107421875,0.97998046875,-0.23583984375,-1.5563963651657104,0.03051757626235485,0.4577636420726776,100.0,178525.0,1.0
15:39:14.108754,197925.953125,181946.78125,230329.546875,210071.546875,199559.609375,177077.59375,686174.1875,200026.390625,0.1015625,0.979736328125,-0.234619140625,-1.6479490995407104,0.0915527269244194,0.4882812201976776,100.0,178526.0,1.0
15:39:14.111258,197930.078125,181954.65625,230335.28125,210067.609375,199563.453125,177094.84375,686158.25,200023.625,0.10205078125,0.978759765625,-0.23681640625,-1.6479490995407104,0.1525878757238388,0.5187987685203552,100.0,178527.0,1.0
15:39:14.113755,197928.734375,181947.765625,230327.9375,210070.015625,199555.84375,177065.96875,686160.0625,200031.046875,0.10302734375,0.98046875,-0.235595703125,-1.7089842557907104,0.1220703050494194,0.4577636420726776,100.0,178528.0,1.0
15:39:14.116201,197930.703125,181947.046875,230326.328125,210076.546875,199554.5,177050.328125,686174.5625,200038.375,0.100830078125,0.98046875,-0.234375,-1.5869139432907104,0.1220703050494194,0.4882812201976776,100.0,178529.0,1.0
15:39:14.122485,197936.234375,181956.34375,230335.90625,210078.609375,199566.484375,177081.796875,686209.5625,200039.984375,0.09912109375,0.98046875,-0.236328125,-1.6174315214157104,0.1220703050494194,0.4272460639476776,100.0,178530.0,1.0
15:39:14.125042,197941.875,181965.921875,230344.578125,210078.609375,199574.4375,177106.109375,686178.75,200037.9375,0.100830078125,0.979248046875,-0.236572265625,-1.6784666776657104,0.1220703050494194,0.4882812201976776,100.0,178531.0,1.0
