Timestamp,Fz,FC3,FCz,FC4,Cz,C3,C4
15:33:49.331679,198934.921875,178850.265625,234144.640625,207922.109375,200762.75,172747.796875,686628.875,201965.453125,0.098388671875,0.9833984375,-0.23291015625,-0.9460448622703552,0.5187987685203552,0.3662109076976776,100.0,97284.0,1.0
15:33:49.337858,198927.765625,178839.53125,234130.6875,207922.734375,200748.984375,172715.78125,686594.8125,201966.34375,0.099609375,0.98193359375,-0.233154296875,-0.9460448622703552,0.4577636420726776,0.2746581733226776,100.0,97285.0,1.0
15:33:49.337870,198928.75,178844.359375,234133.90625,207917.90625,200752.828125,172735.265625,686643.1875,201960.625,0.09814453125,0.981689453125,-0.230712890625,-1.0070799589157104,0.4577636420726776,0.3356933295726776,100.0,97286.0,1.0
15:33:49.339763,198933.3125,178854.5625,234148.03125,207921.390625,200766.5,172769.0625,686622.125,201962.234375,0.095703125,0.980712890625,-0.231201171875,-1.0375975370407104,0.3356933295726776,0.4272460639476776,100.0,97287.0,1.0
15:33:49.356144,198934.375,178851.609375,234144.1875,207921.390625,200760.703125,172753.6875,686637.1875,201964.109375,0.095703125,0.9794921875,-0.230224609375,-1.0986326932907104,0.3356933295726776,0.3662109076976776,100.0,97288.0,1.0
15:33:49.359057,198931.25,178842.484375,234135.703125,207926.9375,200753.90625,172724.359375,686619.4375,201971.796875,0.095703125,0.978271484375,-0.231201171875,-1.0986326932907104,0.3662109076976776,0.2746581733226776,100.0,97289.0,1.0
15:33:49.359081,198934.5625,178848.828125,234137.9375,207927.375,200758.375,172736.25,686655.125,201969.296875,0.0947265625,0.97802734375,-0.228515625,-1.0375975370407104,0.3662109076976776,0.3662109076976776,100.0,97290.0,1.0
15:33:49.359084,198943.140625,178863.234375,234153.75,207937.03125,200778.125,172776.671875,686639.875,201973.6875,0.0947265625,0.98046875,-0.229736328125,-1.0986326932907104,0.3051757514476776,0.3356933295726776,100.0,97291.0,1.0
15:33:49.363730,198950.46875,178871.90625,234156.34375,207941.859375,200778.484375,172778.015625,686665.375,201973.765625,0.09423828125,0.979736328125,-0.23095703125,-1.0986326932907104,0.2441406100988388,0.4577636420726776,100.0,97292.0,1.0
15:33:49.365982,198954.046875,178872.609375,234155.71875,207955.1875,200779.375,172755.5625,686637.6875,201990.40625,0.095458984375,0.982421875,-0.22998046875,-1.0681151151657104,0.2136230319738388,0.3051757514476776,100.0,97293.0,1.0
15:33:49.368543,198956.375,178878.0625,234158.140625,207955.1875,200781.34375,172762.8125,686657.5,201989.234375,0.094970703125,0.980712890625,-0.231689453125,-1.0681151151657104,0.2441406100988388,0.2441406100988388,100.0,97294.0,1.0
15:33:49.378476,198956.375,178883.515625,234167.53125,207959.203125,200793.0625,172795.625,686662.25,201987.625,0.09375,0.979736328125,-0.2314453125,-1.1596678495407104,0.2136230319738388,0.2746581733226776,100.0,97295.0,1.0
15:33:49.381536,198950.203125,178877.625,234160.28125,207945.171875,200784.5625,172791.15625,686647.25,201977.171875,0.09423828125,0.98193359375,-0.231201171875,-1.0986326932907104,0.03051757626235485,0.3662109076976776,100.0,97296.0,1.0
15:33:49.381561,198935.984375,178856.078125,234141.234375,207937.3125,200764.71875,172746.71875,686628.125,201977.25,0.094970703125,0.982421875,-0.235107421875,-1.1596678495407104,0.0,0.3356933295726776,100.0,97297.0,1.0
15:33:49.383442,198929.375,178846.421875,234132.203125,207927.828125,200754.53125,172728.65625,686618.5625,201970.015625,0.09619140625,0.982177734375,-0.23388671875,-1.1291502714157104,0.0610351525247097,0.3051757514476776,100.0,97298.0,1.0
15:33:49.395593,198932.140625,178852.234375,234144.09375,207931.40625,200767.9375,172759.6875,686617.8125,201971.53125,0.093505859375,0.982666015625,-0.2294921875,-1.0681151151657104,0.03051757626235485,0.3662109076976776,100.0,97299.0,1.0
15:33:49.397860,198933.75,178855.71875,234145.796875,207928.625,200770.078125,172770.40625,686614.25,201966.171875,0.095458984375,0.982177734375,-0.231689453125,-1.2207030057907104,-0.0610351525247097,0.4272460639476776,100.0,97300.0,1.0
15:33:49.397873,198936.25,178852.5,234142.484375,207936.40625,200767.84375,172747.25,686618.0,201979.3125,0.09521484375,0.982177734375,-0.231689453125,-1.1291502714157104,-0.03051757626235485,0.3356933295726776,100.0,97301.0,1.0
15:33:49.399741,198934.640625,178850.078125,234138.5625,207934.71875,200763.640625,172734.203125,686605.75,201978.6875,0.095703125,0.982421875,-0.232666015625,-1.1291502714157104,0.03051757626235485,0.4272460639476776,100.0,97302.0,1.0
15:33:49.424876,198937.328125,178857.140625,234149.734375,207935.15625,200776.4375,172764.234375,686634.875,201977.875,0.098388671875,0.98193359375,-0.232177734375,-1.0986326932907104,0.0,0.4577636420726776,100.0,97303.0,1.0
15:33:49.445530,198940.734375,178863.234375,234155.1875,207930.59375,200781.96875,172781.765625,686620.3125,201972.609375,0.09814453125,0.981201171875,-0.230224609375,-1.1596678495407104,-0.1220703050494194,0.4272460639476776,100.0,97304.0,1.0
15:33:49.445610,198933.484375,178852.140625,234142.21875,207924.78125,200767.671875,172748.328125,686625.0,201971.453125,0.097412109375,0.98193359375,-0.230224609375,-1.1291502714157104,-0.1525878757238388,0.5798339247703552,100.0,97305.0,1.0
15:33:49.447388,198928.296875,178843.203125,234133.015625,207927.375,200758.109375,172722.9375,686594.5625,201973.234375,0.09716796875,0.983154296875,-0.231689453125,-1.1291502714157104,-0.0610351525247097,0.7629393935203552,100.0,97306.0,1.0
15:33:49.449849,198927.5,178844.90625,234137.03125,207924.703125,200765.4375,172746.265625,686642.375,201969.390625,0.096435546875,0.982421875,-0.23193359375,-1.1291502714157104,-0.1220703050494194,0.7019042372703552,100.0,97307.0,1.0
15:33:49.452297,198929.1875,178846.953125,234144.09375,207919.609375,200770.796875,172767.453125,686635.0625,201963.3125,0.096923828125,0.982421875,-0.233642578125,-1.1901854276657104,-0.1220703050494194,0.6713866591453552,100.0,97308.0,1.0
15:33:49.454859,198923.375,178838.015625,234132.5625,207912.0,200759.265625,172741.53125,686645.8125,201960.0,0.096435546875,0.984375,-0.23388671875,-1.1901854276657104,-0.1220703050494194,0.5798339247703552,100.0,97309.0,1.0
15:33:49.457980,198918.109375,178829.515625,234124.078125,207914.328125,200752.5625,172716.765625,686614.3125,201967.515625,0.0986328125,0.984619140625,-0.23583984375,-1.1596678495407104,-0.3356933295726776,0.5493163466453552,100.0,97310.0,1.0
15:33:49.458048,198923.828125,178838.90625,234132.5625,207918.703125,200761.5,172740.015625,686658.6875,201969.921875,0.09619140625,0.984619140625,-0.23291015625,-1.3122557401657104,-0.3356933295726776,0.6103515028953552,100.0,97311.0,1.0
15:33:49.461058,198929.109375,178846.234375,234143.390625,207922.109375,200772.140625,172769.515625,686630.125,201968.046875,0.09619140625,0.984130859375,-0.234619140625,-1.2817381620407104,-0.3051757514476776,0.6103515028953552,100.0,97312.0,1.0
15:33:49.461124,198929.46875,178844.90625,234137.484375,207918.984375,200764.8125,172757.0,686634.8125,201965.09375,0.09814453125,0.983642578125,-0.233642578125,-1.3427733182907104,-0.3051757514476776,0.6713866591453552,100.0,97313.0,1.0
15:33:49.461159,198925.96875,178835.328125,234128.546875,207923.0,200757.03125,172724.71875,686599.875,201973.765625,0.100830078125,0.982177734375,-0.2333984375,-1.3122557401657104,-0.3662109076976776,0.6408690810203552,100.0,97314.0,1.0
15:33:49.467913,198927.046875,178838.28125,234130.78125,207917.375,200758.375,172732.953125,686639.4375,201969.5625,0.1005859375,0.982666015625,-0.230712890625,-1.3427733182907104,-0.3356933295726776,0.6408690810203552,100.0,97315.0,1.0
15:33:49.467976,198930.359375,178847.765625,234142.671875,207918.625,200770.796875,172766.828125,686625.6875,201966.625,0.100830078125,0.979248046875,-0.2353515625,-1.3427733182907104,-0.2441406100988388,0.6713866591453552,100.0,97316.0,1.0
15:33:49.470660,198934.015625,178852.046875,234141.6875,207915.578125,200767.84375,172764.59375,686641.0,201961.96875,0.101318359375,0.97802734375,-0.237060546875,-1.3427733182907104,-0.2136230319738388,0.7324218153953552,100.0,97317.0,1.0
15:33:49.470722,198931.15625,178845.078125,234135.703125,207924.703125,200760.875,172733.390625,686606.375,201972.875,0.100830078125,0.977294921875,-0.236572265625,-1.4038084745407104,-0.1220703050494194,0.7324218153953552,100.0,97318.0,1.0
15:33:49.472329,198932.40625,178847.40625,234136.59375,207928.0,200761.046875,172736.609375,686618.875,201972.421875,0.10107421875,0.978271484375,-0.236572265625,-1.4038084745407104,-0.0915527269244194,0.7324218153953552,100.0,97319.0,1.0
15:33:49.476593,198934.203125,178853.03125,234145.890625,207930.6875,200773.65625,172769.78125,686624.4375,201970.734375,0.0986328125,0.97705078125,-0.236572265625,-1.3732908964157104,-0.03051757626235485,0.5187987685203552,100.0,97320.0,1.0
15:33:49.476655,198934.734375,178854.734375,234142.9375,207922.375,200770.984375,172769.96875,686628.25,201963.3125,0.098388671875,0.97607421875,-0.236328125,-1.3122557401657104,0.0,0.5798339247703552,100.0,97321.0,1.0
15:33:49.482258,198931.34375,178847.671875,234136.40625,207924.703125,200762.75,172740.28125,686623.8125,201972.421875,0.102294921875,0.975341796875,-0.236328125,-1.3427733182907104,0.1220703050494194,0.4882812201976776,100.0,97322.0,1.0
15:33:49.493264,198931.78125,178845.96875,234135.96875,207922.015625,200758.90625,172732.859375,686618.1875,201970.46875,0.099853515625,0.97705078125,-0.23681640625,-1.2817381620407104,0.0915527269244194,0.4272460639476776,100.0,97323.0,1.0
15:33:49.493312,198940.1875,178857.59375,234151.875,207929.078125,200775.890625,172769.15625,686635.4375,201973.859375,0.09912109375,0.978515625,-0.23681640625,-1.2512205839157104,0.1525878757238388,0.4577636420726776,100.0,97324.0,1.0
15:33:49.495310,198948.5,178869.3125,234161.53125,207931.046875,200782.875,172788.734375,686627.375,201972.703125,0.099609375,0.9794921875,-0.236572265625,-1.2512205839157104,0.1831054538488388,0.4577636420726776,100.0,97325.0,1.0
15:33:49.495363,198942.609375,178858.125,234148.390625,207928.90625,200770.171875,172757.171875,686624.0625,201976.8125,0.10107421875,0.98193359375,-0.2353515625,-1.1901854276657104,0.2746581733226776,0.4577636420726776,100.0,97326.0,1.0
15:33:49.504761,198933.84375,178846.15625,234134.625,207924.078125,200755.15625,172733.484375,686616.5,201969.75,0.101806640625,0.983154296875,-0.2333984375,-1.2817381620407104,0.1831054538488388,0.4272460639476776,100.0,97327.0,1.0
15:33:49.509110,198936.53125,178851.421875,234141.6875,207926.484375,200765.4375,172761.109375,686632.0625,201968.765625,0.09912109375,0.982666015625,-0.232666015625,-1.2512205839157104,0.3356933295726776,0.4577636420726776,100.0,97328.0,1.0
15:33:49.509138,198942.0625,178860.09375,234150.453125,207926.484375,200774.109375,172782.484375,686623.375,201968.046875,0.099365234375,0.98486328125,-0.23193359375,-1.2512205839157104,0.3356933295726776,0.3356933295726776,100.0,97329.0,1.0
15:33:49.518466,198937.515625,178853.21875,234141.328125,207924.96875,200765.4375,172757.71875,686630.5,201972.78125,0.099609375,0.98291015625,-0.233154296875,-1.3122557401657104,0.3356933295726776,0.1525878757238388,100.0,97330.0,1.0
15:33:49.527221,198925.703125,178838.46875,234125.859375,207923.0,200749.96875,172728.921875,686613.8125,201969.125,0.09716796875,0.982177734375,-0.23388671875,-1.3122557401657104,0.3662109076976776,0.0915527269244194,100.0,97331.0,1.0
15:33:49.527258,198922.3125,178836.859375,234127.109375,207919.15625,200752.109375,172745.109375,686648.5625,201961.25,0.09521484375,0.984375,-0.234375,-1.4343260526657104,0.3967284858226776,-0.1220703050494194,100.0,97332.0,1.0
15:33:49.527268,198926.6875,178845.34375,234136.59375,207917.453125,200761.953125,172770.59375,686626.3125,201959.015625,0.09423828125,0.985107421875,-0.234130859375,-1.5258787870407104,0.3967284858226776,-0.2136230319738388,100.0,97333.0,1.0
15:33:49.529711,198926.59375,178841.5,234129.4375,207913.171875,200752.03125,172750.5625,686642.25,201958.21875,0.09228515625,0.984619140625,-0.232421875,-1.6784666776657104,0.3662109076976776,-0.3051757514476776,100.0,97334.0,1.0
15:33:49.532473,198918.828125,178828.53125,234122.375,207911.375,200739.859375,172719.453125,686610.9375,201958.484375,0.0927734375,0.984375,-0.233154296875,-1.6174315214157104,0.3967284858226776,-0.3967284858226776,100.0,97335.0,1.0
15:33:49.536027,198913.015625,178825.765625,234119.6875,207901.984375,200738.078125,172730.359375,686640.1875,201948.5625,0.09326171875,0.985107421875,-0.229248046875,-1.7089842557907104,0.2746581733226776,-0.4577636420726776,100.0,97336.0,1.0
15:33:49.575418,198910.328125,178828.8125,234121.125,207897.078125,200743.171875,172754.765625,686615.0625,201942.75,0.092529296875,0.984619140625,-0.22607421875,-1.7395018339157104,0.1220703050494194,-0.4882812201976776,100.0,97337.0,1.0
15:33:49.575437,198906.75,178825.671875,234112.546875,207888.75,200733.0625,172739.5625,686640.0625,201936.84375,0.0927734375,0.983642578125,-0.22900390625,-1.8615721464157104,-0.03051757626235485,-0.3967284858226776,100.0,97338.0,1.0
15:33:49.577920,198900.765625,178813.78125,234100.921875,207889.65625,200721.71875,172706.484375,686614.4375,201941.5,0.092041015625,0.983154296875,-0.22998046875,-1.8615721464157104,-0.0610351525247097,-0.3356933295726776,100.0,97339.0,1.0
15:33:49.577969,198902.28125,178816.109375,234101.1875,207888.9375,200721.796875,172713.71875,686644.375,201937.296875,0.093505859375,0.98193359375,-0.232666015625,-1.9226073026657104,-0.0610351525247097,-0.4272460639476776,100.0,97340.0,1.0
15:33:49.580478,198903.984375,178820.484375,234109.859375,207889.46875,200732.171875,172744.390625,686621.375,201933.8125,0.094482421875,0.980712890625,-0.2294921875,-1.9226073026657104,-0.2136230319738388,-0.3356933295726776,100.0,97341.0,1.0
15:33:49.580528,198897.984375,178816.015625,234099.3125,207876.0625,200720.375,172734.296875,686627.125,201920.21875,0.09423828125,0.98193359375,-0.2294921875,-1.9531248807907104,-0.2136230319738388,-0.2441406100988388,100.0,97342.0,1.0
15:33:49.582387,198894.953125,178807.796875,234091.890625,207879.28125,200712.0625,172702.640625,686608.0625,201929.0625,0.094482421875,0.982421875,-0.232177734375,-1.9226073026657104,-0.1831054538488388,-0.1220703050494194,100.0,97343.0,1.0
15:33:49.584744,198897.71875,178809.140625,234094.390625,207880.796875,200713.125,172702.8125,686621.8125,201928.625,0.097412109375,0.9814453125,-0.23193359375,-1.8615721464157104,-0.2136230319738388,-0.03051757626235485,100.0,97344.0,1.0
15:33:49.587477,198901.296875,178819.15625,234107.796875,207885.890625,200729.84375,172741.703125,686630.25,201929.15625,0.099609375,0.9814453125,-0.23095703125,-1.8310545682907104,-0.1525878757238388,0.0610351525247097,100.0,97345.0,1.0
15:33:49.589777,198898.4375,178819.15625,234102.890625,207875.703125,200724.390625,172742.6875,686637.1875,201917.4375,0.0986328125,0.9814453125,-0.2275390625,-1.9531248807907104,-0.1525878757238388,0.2136230319738388,100.0,97346.0,1.0
15:33:49.592250,198893.078125,178807.796875,234091.078125,207880.171875,200713.671875,172708.453125,686610.5625,201922.984375,0.096923828125,0.97998046875,-0.22705078125,-1.9836424589157104,-0.1220703050494194,0.3967284858226776,100.0,97347.0,1.0
15:33:49.594765,198892.09375,178806.1875,234088.40625,207881.421875,200711.171875,172701.203125,686613.6875,201923.25,0.096923828125,0.979736328125,-0.2275390625,-1.9836424589157104,-0.0610351525247097,0.5798339247703552,100.0,97348.0,1.0
15:33:49.597824,198897.90625,178821.390625,234103.328125,207887.328125,200728.78125,172741.796875,686632.3125,201927.28125,0.095458984375,0.98095703125,-0.227294921875,-1.9836424589157104,0.0610351525247097,0.6713866591453552,100.0,97349.0,1.0
15:33:49.597853,198898.609375,178828.53125,234104.046875,207881.34375,200728.0625,172751.09375,686615.125,201922.09375,0.095947265625,0.9833984375,-0.2294921875,-2.075195074081421,0.0,0.6408690810203552,100.0,97350.0,1.0
15:33:49.599744,198886.453125,178811.015625,234085.453125,207873.828125,200710.453125,172709.4375,686618.875,201921.90625,0.09521484375,0.983642578125,-0.228759765625,-2.136230230331421,-0.03051757626235485,0.8544921278953552,100.0,97351.0,1.0
15:33:49.604082,198882.53125,178803.421875,234078.75,207871.59375,200701.421875,172689.9375,686609.6875,201922.625,0.094970703125,0.983154296875,-0.22900390625,-2.197265386581421,-0.03051757626235485,0.7934569716453552,100.0,97352.0,1.0
15:33:49.604091,198886.640625,178811.109375,234088.84375,207873.296875,200713.9375,172722.578125,686652.875,201922.359375,0.09375,0.9833984375,-0.2275390625,-2.197265386581421,-0.03051757626235485,0.7934569716453552,100.0,97353.0,1.0
15:33:49.613553,198878.046875,178805.296875,234082.671875,207861.21875,200708.21875,172729.015625,686627.3125,201908.6875,0.09375,0.9833984375,-0.22705078125,-2.136230230331421,-0.0610351525247097,1.0070799589157104,100.0,97354.0,1.0
15:33:49.617890,198873.140625,178796.53125,234070.25,207857.546875,200697.3125,172701.125,686628.75,201909.84375,0.091796875,0.98193359375,-0.23046875,-2.197265386581421,-0.0915527269244194,0.8850097060203552,100.0,97355.0,1.0
15:33:49.617939,198870.90625,178792.234375,234064.078125,207859.078125,200692.484375,172685.65625,686611.3125,201913.59375,0.09228515625,0.98193359375,-0.22705078125,-2.258300542831421,-0.0915527269244194,1.0375975370407104,100.0,97356.0,1.0
15:33:49.626638,198871.4375,178796.625,234068.109375,207856.296875,200699.984375,172709.4375,686636.0625,201910.296875,0.093994140625,0.9833984375,-0.2265625,-2.288818120956421,-0.2136230319738388,1.0375975370407104,100.0,97357.0,1.0
15:33:49.626652,198873.671875,178799.75,234077.578125,207854.96875,200707.234375,172728.484375,686616.1875,201906.984375,0.09619140625,0.982177734375,-0.227783203125,-2.197265386581421,-0.1525878757238388,0.9765624403953552,100.0,97358.0,1.0
15:33:49.629063,198870.984375,178793.21875,234072.75,207849.859375,200696.140625,172702.640625,686636.9375,201904.484375,0.094482421875,0.97998046875,-0.226806640625,-2.227782964706421,-0.1525878757238388,1.0070799589157104,100.0,97359.0,1.0
15:33:49.629097,198869.5625,178790.359375,234066.40625,207856.578125,200691.234375,172682.703125,686615.5,201915.125,0.096923828125,0.978271484375,-0.22900390625,-2.166747808456421,-0.1525878757238388,0.8544921278953552,100.0,97360.0,1.0
15:33:49.638810,198878.140625,178804.046875,234076.953125,207859.15625,200702.9375,172713.09375,686638.375,201916.546875,0.099365234375,0.97900390625,-0.22705078125,-2.136230230331421,-0.1831054538488388,0.7934569716453552,100.0,97361.0,1.0
15:33:49.642363,198870.0,178793.046875,234077.3125,207846.640625,200701.515625,172721.421875,686612.8125,201900.28125,0.101318359375,0.975830078125,-0.224609375,-2.044677495956421,-0.0915527269244194,0.8544921278953552,100.0,97362.0,1.0
15:33:49.651592,198863.484375,178780.703125,234065.6875,207832.875,200687.203125,172693.875,686630.875,201888.296875,0.102294921875,0.97607421875,-0.2275390625,-1.8920897245407104,0.0,0.7629393935203552,100.0,97363.0,1.0
15:33:49.651611,198865.359375,178778.296875,234062.65625,207844.671875,200685.0625,172670.90625,686611.375,201902.25,0.10498046875,0.97509765625,-0.23046875,-1.8005369901657104,0.03051757626235485,0.7019042372703552,100.0,97364.0,1.0
15:33:49.653518,198871.609375,178785.171875,234068.734375,207849.6875,200692.65625,172686.015625,686641.25,201905.28125,0.106689453125,0.97412109375,-0.22900390625,-1.6479490995407104,0.1831054538488388,0.5798339247703552,100.0,97365.0,1.0
15:33:49.664198,198870.0,178783.296875,234074.984375,207847.546875,200700.171875,172711.3125,686628.25,201898.21875,0.104736328125,0.97412109375,-0.23193359375,-1.5258787870407104,0.2136230319738388,0.6408690810203552,100.0,97366.0,1.0
15:33:49.664209,198870.984375,178785.171875,234071.59375,207844.140625,200695.078125,172710.421875,686629.4375,201893.390625,0.104736328125,0.975341796875,-0.22900390625,-1.4648436307907104,0.4272460639476776,0.6408690810203552,100.0,97367.0,1.0
15:33:49.666538,198867.5,178777.84375,234063.71875,207847.625,200687.46875,172681.625,686627.375,201902.0625,0.104248046875,0.9765625,-0.22998046875,-1.3732908964157104,0.6103515028953552,0.5493163466453552,100.0,97368.0,1.0
15:33:49.666544,198864.109375,178768.90625,234055.234375,207840.921875,200680.59375,172670.0,686632.0625,201893.578125,0.105224609375,0.9775390625,-0.2294921875,-1.3122557401657104,0.7019042372703552,0.4882812201976776,100.0,97369.0,1.0
15:33:49.674715,198867.234375,178773.46875,234064.4375,207846.734375,200693.734375,172701.03125,686628.875,201893.75,0.10400390625,0.97998046875,-0.22607421875,-1.2207030057907104,0.8239745497703552,0.3967284858226776,100.0,97370.0,1.0
15:33:49.679047,198870.0,178775.4375,234064.625,207844.234375,200692.84375,172704.96875,686622.125,201890.265625,0.102294921875,0.980712890625,-0.22998046875,-1.2207030057907104,0.9460448622703552,0.3662109076976776,100.0,97371.0,1.0
15:33:49.679054,198866.96875,178766.9375,234058.0,207851.828125,200683.890625,172673.9375,686612.875,201900.015625,0.100830078125,0.9833984375,-0.22998046875,-1.1596678495407104,1.0375975370407104,0.3051757514476776,100.0,97372.0,1.0
15:33:49.684803,198869.375,178771.3125,234058.359375,207855.140625,200683.453125,172670.8125,686618.0,201900.09375,0.10107421875,0.982421875,-0.2314453125,-1.0375975370407104,1.0681151151657104,0.2441406100988388,100.0,97373.0,1.0
15:33:49.692355,198875.375,178780.609375,234070.96875,207859.25,200699.265625,172706.21875,686647.0625,201903.234375,0.101318359375,0.98486328125,-0.232666015625,-1.0070799589157104,1.2512205839157104,0.1220703050494194,100.0,97374.0,1.0
15:33:49.696545,198881.0,178788.578125,234077.765625,207860.140625,200705.0,172725.171875,686627.0,201902.953125,0.1005859375,0.984130859375,-0.232666015625,-1.0375975370407104,1.1901854276657104,0.1220703050494194,100.0,97375.0,1.0
15:33:49.696558,198878.140625,178781.859375,234069.171875,207862.5625,200698.375,172694.59375,686631.0625,201911.625,0.1015625,0.983154296875,-0.23046875,-1.0070799589157104,1.2817381620407104,0.0,100.0,97376.0,1.0
15:33:49.706060,198878.328125,178780.4375,234064.703125,207863.90625,200695.703125,172678.234375,686621.5625,201914.765625,0.096923828125,0.98291015625,-0.233642578125,-1.0375975370407104,1.3122557401657104,0.0915527269244194,100.0,97377.0,1.0
15:33:49.713389,198880.640625,178788.75,234074.359375,207862.734375,200705.078125,172708.265625,686654.5625,201911.28125,0.095458984375,0.981689453125,-0.23046875,-0.9460448622703552,1.1596678495407104,0.03051757626235485,100.0,97378.0,1.0
15:33:49.713400,198879.65625,178790.265625,234076.328125,207855.5,200704.640625,172718.546875,686628.5625,201901.34375,0.094970703125,0.982666015625,-0.2294921875,-1.0070799589157104,1.1901854276657104,0.0915527269244194,100.0,97379.0,1.0
15:33:49.713402,198874.921875,178779.984375,234064.703125,207851.75,200693.015625,172687.703125,686629.5,201903.140625,0.096435546875,0.98486328125,-0.2314453125,-1.0681151151657104,1.1901854276657104,0.0,100.0,97380.0,1.0
15:33:49.716037,198874.03125,178775.78125,234058.53125,207855.859375,200687.375,172666.703125,686613.4375,201909.390625,0.095947265625,0.983642578125,-0.229736328125,-1.1291502714157104,1.1901854276657104,-0.03051757626235485,100.0,97381.0,1.0
15:33:49.723438,198877.421875,178783.828125,234067.203125,207854.609375,200695.96875,172692.625,686656.0625,201906.171875,0.095947265625,0.9833984375,-0.23046875,-1.1596678495407104,1.0986326932907104,-0.0610351525247097,100.0,97382.0,1.0
15:33:49.734124,198879.21875,178789.109375,234077.046875,207853.890625,200703.125,172715.875,686625.625,201902.25,0.097900390625,0.980712890625,-0.231689453125,-1.1596678495407104,1.1291502714157104,-0.2136230319738388,100.0,97383.0,1.0
15:33:49.734199,198878.765625,178784.734375,234071.765625,207851.921875,200694.171875,172696.828125,686636.4375,201903.40625,0.097412109375,0.97802734375,-0.229736328125,-1.0375975370407104,1.1291502714157104,-0.1525878757238388,100.0,97384.0,1.0
15:33:49.740334,198875.453125,178777.3125,234068.015625,207855.765625,200685.234375,172670.0,686613.375,201909.484375,0.0986328125,0.9736328125,-0.230712890625,-0.9155272841453552,1.2207030057907104,-0.3051757514476776,100.0,97385.0,1.0
15:33:49.740363,198879.84375,178785.359375,234074.28125,207857.546875,200691.9375,172690.125,686645.5625,201910.296875,0.0986328125,0.97216796875,-0.232666015625,-0.8239745497703552,1.2512205839157104,-0.3356933295726776,100.0,97386.0,1.0
15:33:49.740370,198879.84375,178792.421875,234082.40625,207853.890625,200701.6875,172723.109375,686614.125,201904.21875,0.098876953125,0.97119140625,-0.232666015625,-0.7934569716453552,1.2512205839157104,-0.2441406100988388,100.0,97387.0,1.0
15:33:49.742331,198876.53125,178788.03125,234073.734375,207846.921875,200692.203125,172708.453125,686632.375,201896.875,0.0966796875,0.969970703125,-0.23486328125,-0.7629393935203552,1.2512205839157104,-0.3051757514476776,100.0,97388.0,1.0
15:33:49.750980,198870.90625,178775.15625,234061.484375,207858.1875,200681.390625,172672.328125,686603.875,201902.6875,0.095947265625,0.972900390625,-0.237548828125,-0.6713866591453552,1.2207030057907104,-0.2746581733226776,100.0,97389.0,1.0
15:33:49.761610,198875.109375,178779.71875,234062.828125,207861.046875,200683.71875,172679.84375,686642.125,201899.65625,0.094970703125,0.977294921875,-0.2353515625,-0.5187987685203552,1.2817381620407104,-0.2746581733226776,100.0,97390.0,1.0
15:33:49.761645,198874.921875,178783.828125,234071.328125,207858.71875,200695.25,172711.671875,686629.1875,201897.78125,0.093505859375,0.978759765625,-0.234619140625,-0.4882812201976776,1.2817381620407104,-0.1525878757238388,100.0,97391.0,1.0
15:33:49.764039,198865.171875,178773.28125,234058.0,207843.875,200680.859375,172698.703125,686629.4375,201884.546875,0.09130859375,0.980224609375,-0.234619140625,-0.5187987685203552,1.0375975370407104,-0.0915527269244194,100.0,97392.0,1.0
15:33:49.764057,198861.609375,178762.828125,234048.96875,207848.703125,200671.640625,172666.703125,686604.5625,201894.015625,0.08837890625,0.98193359375,-0.23486328125,-0.5493163466453552,0.9765624403953552,0.1220703050494194,100.0,97393.0,1.0
15:33:49.797224,198867.140625,178771.046875,234054.875,207849.5,200674.953125,172673.84375,686628.5625,201893.03125,0.087890625,0.9814453125,-0.2333984375,-0.5493163466453552,0.8544921278953552,0.1525878757238388,100.0,97394.0,1.0
15:33:49.817938,198874.828125,178784.734375,234072.75,207857.109375,200693.546875,172716.234375,686626.25,201897.328125,0.086669921875,0.98291015625,-0.2333984375,-0.5798339247703552,0.6103515028953552,0.2136230319738388,100.0,97395.0,1.0
15:33:49.817991,198874.390625,178785.359375,234070.875,207849.15625,200690.328125,172717.125,686629.25,201890.0,0.08837890625,0.98681640625,-0.231201171875,-0.6408690810203552,0.6408690810203552,0.3051757514476776,100.0,97396.0,1.0
15:33:49.820593,198863.03125,178768.09375,234054.421875,207844.328125,200673.609375,172677.34375,686626.0625,201891.25,0.087158203125,0.987548828125,-0.2314453125,-0.7629393935203552,0.5187987685203552,0.3051757514476776,100.0,97397.0,1.0
15:33:49.820599,198862.5,178763.984375,234050.9375,207846.28125,200670.21875,172668.21875,686634.8125,201890.265625,0.085693359375,0.987548828125,-0.231689453125,-0.8544921278953552,0.4272460639476776,0.3967284858226776,100.0,97398.0,1.0
15:33:49.820601,198863.84375,178769.796875,234060.953125,207847.0,200681.65625,172699.78125,686634.0625,201886.421875,0.086669921875,0.989501953125,-0.2314453125,-1.0681151151657104,0.3051757514476776,0.4577636420726776,100.0,97399.0,1.0
15:33:49.824164,198867.765625,178775.78125,234066.671875,207845.578125,200684.96875,172711.84375,686633.1875,201882.75,0.088134765625,0.99169921875,-0.229736328125,-1.1901854276657104,0.1525878757238388,0.4882812201976776,100.0,97400.0,1.0
15:33:49.824213,198861.875,178764.25,234055.046875,207846.46875,200672.1875,172676.796875,686632.8125,201887.40625,0.086669921875,0.990478515625,-0.229248046875,-1.2817381620407104,-0.03051757626235485,0.5493163466453552,100.0,97401.0,1.0
15:33:49.824224,198864.1875,178764.078125,234053.703125,207853.625,200670.484375,172663.03125,686619.8125,201893.21875,0.088134765625,0.990478515625,-0.228759765625,-1.4343260526657104,-0.1831054538488388,0.5798339247703552,100.0,97402.0,1.0
15:33:49.824236,198867.859375,178772.03125,234063.28125,207856.03125,200680.5,172690.75,686642.3125,201890.703125,0.088623046875,0.988525390625,-0.231201171875,-1.6479490995407104,-0.3051757514476776,0.6408690810203552,100.0,97403.0,1.0
15:33:49.826075,198866.78125,178773.640625,234065.0625,207852.28125,200679.25,172702.375,686619.6875,201880.78125,0.089111328125,0.986572265625,-0.234375,-1.8005369901657104,-0.3967284858226776,0.7019042372703552,100.0,97404.0,1.0
15:33:49.828470,198866.25,178768.71875,234056.390625,207849.421875,200670.65625,172679.03125,686630.3125,201884.8125,0.092529296875,0.98583984375,-0.232177734375,-2.014159917831421,-0.5493163466453552,0.7629393935203552,100.0,97405.0,1.0
15:33:49.831009,198867.140625,178765.421875,234053.171875,207854.328125,200668.421875,172660.34375,686610.5625,201893.84375,0.0927734375,0.98291015625,-0.23291015625,-2.105712652206421,-0.5493163466453552,0.6713866591453552,100.0,97406.0,1.0
15:33:49.833503,198865.53125,178766.125,234054.421875,207847.8125,200672.265625,172679.75,686641.5,201886.421875,0.092041015625,0.9833984375,-0.233642578125,-2.105712652206421,-0.6103515028953552,0.7934569716453552,100.0,97407.0,1.0
15:33:49.836127,198868.390625,178772.21875,234062.296875,207846.28125,200678.078125,172704.703125,686622.0,201880.515625,0.09423828125,0.98291015625,-0.23193359375,-2.258300542831421,-0.6713866591453552,0.9765624403953552,100.0,97408.0,1.0
15:33:49.838638,198867.328125,178768.1875,234055.234375,207842.53125,200669.953125,172684.765625,686636.875,201880.703125,0.094482421875,0.98095703125,-0.23486328125,-2.227782964706421,-0.7324218153953552,0.9460448622703552,100.0,97409.0,1.0
15:33:49.841016,198861.78125,178756.390625,234044.953125,207845.3125,200662.265625,172652.390625,686602.1875,201886.515625,0.095703125,0.9814453125,-0.233154296875,-2.288818120956421,-0.8239745497703552,0.9765624403953552,100.0,97410.0,1.0
15:33:49.843531,198860.625,178757.28125,234046.46875,207847.265625,200666.734375,172666.15625,686635.9375,201882.671875,0.0966796875,0.98291015625,-0.232177734375,-2.288818120956421,-0.8544921278953552,1.0986326932907104,100.0,97411.0,1.0
15:33:49.846633,198863.84375,178764.96875,234059.515625,207847.625,200679.6875,172700.140625,686605.9375,201881.765625,0.096923828125,0.983642578125,-0.23095703125,-2.258300542831421,-0.7629393935203552,1.0986326932907104,100.0,97412.0,1.0
15:33:49.846642,198863.5625,178764.875,234053.171875,207838.0625,200671.828125,172688.609375,686629.0,201877.75,0.09765625,0.9814453125,-0.2294921875,-2.349853277206421,-0.8239745497703552,1.1901854276657104,100.0,97413.0,1.0
15:33:49.848613,198860.34375,178755.21875,234043.421875,207843.875,200662.703125,172657.046875,686628.625,201887.046875,0.097900390625,0.982177734375,-0.232177734375,-2.349853277206421,-0.8239745497703552,1.1901854276657104,100.0,97414.0,1.0
15:33:49.860395,198865.796875,178760.59375,234047.90625,207845.75,200667.09375,172664.90625,686641.5,201887.3125,0.099365234375,0.9833984375,-0.229248046875,-2.410888433456421,-0.7934569716453552,1.1901854276657104,100.0,97415.0,1.0
15:33:49.860463,198873.40625,178774.171875,234065.0625,207851.46875,200686.484375,172705.40625,686625.875,201891.609375,0.099365234375,0.98486328125,-0.23291015625,-2.532958745956421,-0.6408690810203552,1.3732908964157104,100.0,97416.0,1.0
15:33:49.862848,198869.5625,178769.171875,234057.734375,207843.25,200675.671875,172694.953125,686631.75,201880.78125,0.0986328125,0.985107421875,-0.22998046875,-2.593993902206421,-0.7019042372703552,1.4038084745407104,100.0,97417.0,1.0
15:33:49.862911,198859.09375,178753.171875,234042.984375,207842.984375,200661.359375,172655.515625,686600.1875,201884.453125,0.10107421875,0.983642578125,-0.2333984375,-2.655029058456421,-0.7934569716453552,1.3732908964157104,100.0,97418.0,1.0
15:33:49.872404,198865.09375,178763.09375,234047.1875,207846.46875,200667.265625,172665.984375,686627.625,201887.40625,0.099365234375,0.9833984375,-0.234375,-2.655029058456421,-0.7324218153953552,1.2817381620407104,100.0,97419.0,1.0
15:33:49.876681,198870.09375,178774.265625,234062.203125,207852.90625,200685.953125,172704.515625,686623.6875,201892.40625,0.1005859375,0.9853515625,-0.23291015625,-2.624511480331421,-0.5798339247703552,1.2207030057907104,100.0,97420.0,1.0
15:33:49.876753,198868.671875,178773.546875,234058.359375,207844.5,200680.765625,172705.40625,686623.625,201884.546875,0.10009765625,0.9833984375,-0.230712890625,-2.685546636581421,-0.6103515028953552,1.2207030057907104,100.0,97421.0,1.0
15:33:49.885976,198866.703125,178768.71875,234051.03125,207850.765625,200674.234375,172679.296875,686637.75,201894.640625,0.099609375,0.98193359375,-0.227294921875,-2.716064214706421,-0.4882812201976776,1.0986326932907104,100.0,97422.0,1.0
15:33:49.892857,198866.515625,178764.796875,234048.078125,207860.328125,200669.765625,172667.0625,686639.4375,201893.296875,0.09814453125,0.980712890625,-0.227783203125,-2.746581792831421,-0.3356933295726776,1.1291502714157104,100.0,97423.0,1.0
15:33:49.892998,198867.859375,178768.28125,234056.21875,207866.40625,200681.75,172697.0,686632.125,201890.890625,0.097412109375,0.982666015625,-0.226318359375,-2.746581792831421,-0.3051757514476776,1.0986326932907104,100.0,97424.0,1.0
15:33:49.894786,198865.71875,178767.921875,234054.15625,207853.265625,200677.640625,172705.234375,686627.1875,201878.90625,0.095947265625,0.98291015625,-0.22705078125,-2.838134527206421,-0.3051757514476776,1.0681151151657104,100.0,97425.0,1.0
15:33:49.899468,198862.3125,178760.953125,234044.40625,207849.0625,200666.90625,172676.0,686626.6875,201885.96875,0.10009765625,0.982666015625,-0.2294921875,-2.868652105331421,-0.2441406100988388,0.9460448622703552,100.0,97426.0,1.0
15:33:49.899524,198862.671875,178758.53125,234041.8125,207849.859375,200663.25,172660.625,686610.375,201890.53125,0.101806640625,0.980224609375,-0.22998046875,-2.868652105331421,-0.2441406100988388,0.8544921278953552,100.0,97427.0,1.0
15:33:49.908498,198864.90625,178763.8125,234048.4375,207845.75,200671.375,172686.90625,686637.3125,201885.796875,0.101806640625,0.980224609375,-0.226318359375,-2.807616949081421,-0.1525878757238388,0.7324218153953552,100.0,97428.0,1.0
15:33:49.912848,198861.953125,178764.171875,234048.796875,207835.46875,200670.125,172699.0625,686613.8125,201874.796875,0.099853515625,0.980224609375,-0.225341796875,-2.746581792831421,-0.1220703050494194,0.6408690810203552,100.0,97429.0,1.0
15:33:49.912912,198855.96875,178753.96875,234036.28125,207832.703125,200657.25,172670.8125,686625.125,201876.5,0.099365234375,0.97998046875,-0.22607421875,-2.624511480331421,-0.0610351525247097,0.5493163466453552,100.0,97430.0,1.0
15:33:49.919762,198856.15625,178749.953125,234032.515625,207840.390625,200653.5,172652.390625,686607.8125,201884.71875,0.10009765625,0.97900390625,-0.227294921875,-2.563476324081421,0.1220703050494194,0.3662109076976776,100.0,97431.0,1.0
15:33:49.924139,198857.578125,178753.25,234036.71875,207838.953125,200660.828125,172672.953125,686654.5,201881.234375,0.1005859375,0.977783203125,-0.2275390625,-2.441406011581421,0.2136230319738388,0.2746581733226776,100.0,97432.0,1.0
15:33:49.924155,198856.421875,178755.046875,234039.21875,207834.390625,200661.71875,172695.390625,686624.1875,201874.078125,0.1005859375,0.975830078125,-0.2275390625,-2.288818120956421,0.2746581733226776,0.2441406100988388,100.0,97433.0,1.0
15:33:49.933654,198858.109375,178754.328125,234033.59375,207835.46875,200655.828125,172680.90625,686634.25,201875.515625,0.1015625,0.975830078125,-0.226318359375,-2.258300542831421,0.3356933295726776,0.2746581733226776,100.0,97434.0,1.0
15:33:49.937911,198853.203125,178744.671875,234024.828125,207843.875,200649.65625,172653.203125,686603.75,201883.46875,0.100830078125,0.97607421875,-0.2275390625,-2.227782964706421,0.3356933295726776,0.2441406100988388,100.0,97435.0,1.0
15:33:49.937980,198852.03125,178746.734375,234024.296875,207840.65625,200650.546875,172663.921875,686644.125,201878.640625,0.10009765625,0.978515625,-0.224853515625,-2.044677495956421,0.4577636420726776,0.3051757514476776,100.0,97436.0,1.0
15:33:49.944382,198860.265625,178759.15625,234040.203125,207848.796875,200666.546875,172699.0625,686619.5,201881.234375,0.0986328125,0.9775390625,-0.225341796875,-1.8920897245407104,0.4272460639476776,0.2136230319738388,100.0,97437.0,1.0
15:33:49.944456,198857.125,178754.59375,234032.078125,207844.046875,200656.0,172685.828125,686629.875,201873.90625,0.09765625,0.978271484375,-0.2275390625,-1.8920897245407104,0.5187987685203552,0.1831054538488388,100.0,97438.0,1.0
15:33:49.946500,198849.0,178740.109375,234020.890625,207845.390625,200642.046875,172649.796875,686605.75,201877.484375,0.098388671875,0.979248046875,-0.224365234375,-1.8310545682907104,0.5187987685203552,0.2746581733226776,100.0,97439.0,1.0
15:33:49.957352,198848.28125,178743.78125,234020.09375,207846.015625,200642.953125,172658.203125,686631.6875,201872.734375,0.09619140625,0.9794921875,-0.223388671875,-1.7395018339157104,0.5493163466453552,0.2136230319738388,100.0,97440.0,1.0
15:33:49.961677,198854.265625,178756.46875,234036.09375,207853.625,200661.09375,172699.6875,686615.0625,201876.3125,0.097412109375,0.980224609375,-0.22265625,-1.6174315214157104,0.4577636420726776,0.2136230319738388,100.0,97441.0,1.0
15:33:49.961744,198851.5,178755.140625,234030.46875,207840.75,200652.25,172693.703125,686620.75,201865.140625,0.0966796875,0.980712890625,-0.225341796875,-1.6479490995407104,0.5493163466453552,0.3356933295726776,100.0,97442.0,1.0
15:33:49.968133,198850.78125,178748.515625,234027.328125,207845.84375,200645.625,172659.90625,686607.0625,201876.140625,0.095703125,0.979736328125,-0.2255859375,-1.6479490995407104,0.5187987685203552,0.2746581733226776,100.0,97443.0,1.0
15:33:49.968188,198857.9375,178755.484375,234031.71875,207845.390625,200649.46875,172663.296875,686627.9375,201877.84375,0.09423828125,0.981689453125,-0.22607421875,-1.5869139432907104,0.5187987685203552,0.2746581733226776,100.0,97444.0,1.0
15:33:49.969948,198858.390625,178759.96875,234039.859375,207843.25,200661.28125,172696.203125,686638.3125,201874.34375,0.09326171875,0.981689453125,-0.22607421875,-1.6479490995407104,0.4577636420726776,0.3356933295726776,100.0,97445.0,1.0
15:33:49.980995,198857.9375,178756.5625,234035.5625,207834.75,200656.359375,172694.953125,686632.3125,201865.859375,0.0927734375,0.98486328125,-0.2255859375,-1.6174315214157104,0.4577636420726776,0.3051757514476776,100.0,97446.0,1.0
15:33:49.984125,198860.0,178751.46875,234031.0,207843.78125,200652.6875,172668.21875,686620.25,201880.875,0.09375,0.9833984375,-0.227783203125,-1.4648436307907104,0.4272460639476776,0.3967284858226776,100.0,97447.0,1.0
15:33:49.984178,198862.578125,178750.84375,234030.90625,207847.09375,200652.25,172658.65625,686624.3125,201883.921875,0.09375,0.9814453125,-0.228271484375,-1.4343260526657104,0.3967284858226776,0.4272460639476776,100.0,97448.0,1.0
15:33:49.989791,198866.78125,178759.78125,234042.53125,207851.921875,200665.5625,172692.171875,686660.3125,201885.890625,0.09375,0.981201171875,-0.228759765625,-1.5563963651657104,0.3662109076976776,0.4882812201976776,100.0,97449.0,1.0
15:33:49.995654,198869.828125,178764.875,234045.484375,207850.046875,200666.46875,172705.765625,686630.75,201880.078125,0.09423828125,0.982177734375,-0.224853515625,-1.5869139432907104,0.3967284858226776,0.4577636420726776,100.0,97450.0,1.0
15:33:49.995690,198868.75,178760.40625,234041.734375,207853.171875,200661.0,172680.828125,686632.125,201888.390625,0.09375,0.982177734375,-0.2275390625,-1.6174315214157104,0.3356933295726776,0.5798339247703552,100.0,97451.0,1.0
15:33:50.004827,198868.3125,178760.3125,234037.703125,207855.140625,200657.78125,172667.953125,686624.5,201892.046875,0.093505859375,0.980712890625,-0.227294921875,-1.5563963651657104,0.2136230319738388,0.7324218153953552,100.0,97452.0,1.0
15:33:50.009081,198873.21875,178768.28125,234046.109375,207856.125,200670.390625,172698.171875,686646.625,201889.90625,0.09423828125,0.980712890625,-0.2255859375,-1.5563963651657104,0.1831054538488388,0.6408690810203552,100.0,97453.0,1.0
15:33:50.009118,198877.703125,178774.890625,234055.5,207855.046875,200677.1875,172719.890625,686620.5625,201886.859375,0.0927734375,0.982177734375,-0.22705078125,-1.4648436307907104,0.2136230319738388,0.7629393935203552,100.0,97454.0,1.0
15:33:50.019822,198875.1875,178769.078125,234046.828125,207855.5,200667.984375,172697.28125,686625.75,201891.515625,0.093505859375,0.981689453125,-0.22802734375,-1.4953612089157104,0.1525878757238388,0.8850097060203552,100.0,97455.0,1.0
15:33:50.019852,198866.875,178759.78125,234035.734375,207853.890625,200657.515625,172672.15625,686594.5,201891.421875,0.094970703125,0.98291015625,-0.228759765625,-1.5258787870407104,0.1525878757238388,0.9460448622703552,100.0,97456.0,1.0
15:33:50.021648,198864.015625,178762.734375,234037.171875,207847.625,200662.34375,172692.984375,686648.6875,201884.625,0.09619140625,0.9814453125,-0.2265625,-1.5258787870407104,0.1220703050494194,0.8850097060203552,100.0,97457.0,1.0
15:33:50.021676,198864.640625,178767.828125,234044.953125,207847.625,200671.5625,172717.84375,686636.5,201881.328125,0.095703125,0.982666015625,-0.2275390625,-1.4953612089157104,0.0915527269244194,0.8850097060203552,100.0,97458.0,1.0
15:33:50.028672,198863.84375,178763.625,234037.4375,207846.015625,200662.609375,172698.609375,686645.0625,201879.890625,0.096435546875,0.984130859375,-0.22802734375,-1.5258787870407104,0.1220703050494194,1.0375975370407104,100.0,97459.0,1.0
15:33:50.040920,198861.78125,178756.65625,234030.734375,207853.171875,200656.09375,172671.609375,686608.8125,201889.453125,0.096923828125,0.98388671875,-0.2265625,-1.5869139432907104,0.1220703050494194,1.0681151151657104,100.0,97460.0,1.0
15:33:50.040962,198867.140625,178763.0,234037.34375,207853.625,200662.890625,172687.53125,686643.625,201890.0,0.096923828125,0.9833984375,-0.232666015625,-1.6174315214157104,0.0610351525247097,1.0070799589157104,100.0,97461.0,1.0
15:33:50.054067,198865.359375,178765.6875,234042.4375,207848.96875,200670.125,172713.453125,686616.125,201883.015625,0.096923828125,0.982177734375,-0.2294921875,-1.6174315214157104,0.03051757626235485,1.0070799589157104,100.0,97462.0,1.0
15:33:50.054088,198865.53125,178765.5,234036.71875,207844.5,200663.515625,172702.8125,686631.6875,201877.484375,0.095458984375,0.982666015625,-0.22900390625,-1.6174315214157104,0.0915527269244194,0.9765624403953552,100.0,97463.0,1.0
15:33:50.054091,198863.484375,178756.203125,234030.46875,207853.4375,200656.71875,172671.890625,686613.5,201887.5,0.09619140625,0.982177734375,-0.229248046875,-1.6479490995407104,0.0915527269244194,0.9460448622703552,100.0,97464.0,1.0
15:33:50.057291,198857.484375,178752.1875,234025.546875,207847.625,200651.625,172672.15625,686647.4375,201879.359375,0.095458984375,0.98046875,-0.228271484375,-1.6479490995407104,0.0915527269244194,0.9460448622703552,100.0,97465.0,1.0
15:33:50.067945,198856.328125,178755.765625,234032.96875,207846.015625,200660.734375,172703.984375,686637.5,201875.328125,0.0966796875,0.982177734375,-0.2294921875,-1.5563963651657104,0.1525878757238388,0.8850097060203552,100.0,97466.0,1.0
15:33:50.067980,198855.25,178755.9375,234028.046875,207836.28125,200653.9375,172700.578125,686634.6875,201866.03125,0.098388671875,0.98046875,-0.227783203125,-1.5869139432907104,0.0610351525247097,0.9765624403953552,100.0,97467.0,1.0
15:33:50.070337,198852.84375,178747.171875,234018.65625,207839.5,200643.9375,172666.515625,686610.5,201874.078125,0.09912109375,0.97998046875,-0.228271484375,-1.6174315214157104,0.0915527269244194,1.0070799589157104,100.0,97468.0,1.0
15:33:50.070362,198854.359375,178748.78125,234016.78125,207837.34375,200640.984375,172665.453125,686623.1875,201870.234375,0.097900390625,0.982666015625,-0.225830078125,-1.5563963651657104,0.1831054538488388,0.9460448622703552,100.0,97469.0,1.0
15:33:50.070373,198858.828125,178755.578125,234029.03125,207841.375,200656.890625,172700.765625,686627.1875,201872.109375,0.09814453125,0.981689453125,-0.228759765625,-1.5869139432907104,0.1831054538488388,1.0375975370407104,100.0,97470.0,1.0
15:33:50.077300,198860.4375,178759.421875,234027.96875,207835.734375,200653.140625,172706.484375,686630.125,201862.90625,0.100341796875,0.98291015625,-0.227294921875,-1.5258787870407104,0.2136230319738388,1.0375975370407104,100.0,97471.0,1.0
15:33:50.086843,198854.1875,178748.875,234016.875,207840.296875,200640.71875,172673.578125,686630.0625,201871.3125,0.1005859375,0.98193359375,-0.228271484375,-1.5258787870407104,0.1220703050494194,0.9765624403953552,100.0,97472.0,1.0
15:33:50.086873,198853.734375,178747.0,234013.828125,207843.875,200637.40625,172661.0625,686631.0625,201876.578125,0.099609375,0.980712890625,-0.229736328125,-1.5563963651657104,0.2136230319738388,0.9460448622703552,100.0,97473.0,1.0
15:33:50.104268,198849.53125,178746.734375,234015.53125,207839.9375,200643.65625,172687.4375,686636.125,201867.90625,0.097900390625,0.98193359375,-0.227783203125,-1.4953612089157104,0.2136230319738388,0.9155272841453552,100.0,97474.0,1.0
15:33:50.104312,198852.65625,178752.984375,234017.671875,207832.875,200644.734375,172700.578125,686625.75,201859.515625,0.101318359375,0.982177734375,-0.22802734375,-1.6174315214157104,0.2136230319738388,0.8850097060203552,100.0,97475.0,1.0
15:33:50.104316,198848.546875,178743.25,234009.09375,207833.140625,200634.625,172669.734375,686638.3125,201864.609375,0.10009765625,0.981201171875,-0.22607421875,-1.5563963651657104,0.2746581733226776,0.8239745497703552,100.0,97476.0,1.0
15:33:50.110370,198842.5625,178735.015625,233998.28125,207829.84375,200623.8125,172647.390625,686616.375,201863.4375,0.099609375,0.9814453125,-0.22802734375,-1.5869139432907104,0.3051757514476776,0.8239745497703552,100.0,97477.0,1.0
15:33:50.110391,198845.15625,178742.703125,234004.984375,207829.921875,200634.546875,172674.03125,686637.9375,201861.109375,0.09912109375,0.9814453125,-0.22900390625,-1.5258787870407104,0.4272460639476776,0.7934569716453552,100.0,97478.0,1.0
15:33:50.112994,198851.953125,178751.375,234015.171875,207830.546875,200644.109375,172697.71875,686619.6875,201858.703125,0.09814453125,0.98291015625,-0.229248046875,-1.4648436307907104,0.4882812201976776,0.7019042372703552,100.0,97479.0,1.0
15:33:50.113012,198849.71875,178742.171875,234006.6875,207827.6875,200632.484375,172670.546875,686623.0625,201859.859375,0.096435546875,0.97998046875,-0.22607421875,-1.5258787870407104,0.5798339247703552,0.5798339247703552,100.0,97480.0,1.0
15:33:50.113016,198848.109375,178736.265625,234003.015625,207831.359375,200627.296875,172647.03125,686598.6875,201866.484375,0.096923828125,0.9814453125,-0.224853515625,-1.4648436307907104,0.4577636420726776,0.7934569716453552,100.0,97481.0,1.0
15:33:50.122287,198850.609375,178743.328125,234011.0625,207830.46875,200637.21875,172671.96875,686639.375,201864.25,0.096435546875,0.9814453125,-0.230224609375,-1.4648436307907104,0.5493163466453552,0.7019042372703552,100.0,97482.0,1.0
15:33:50.129064,198855.078125,178753.171875,234024.203125,207830.546875,200648.765625,172702.015625,686616.8125,201862.71875,0.097412109375,0.981201171875,-0.22900390625,-1.5258787870407104,0.5187987685203552,0.5493163466453552,100.0,97483.0,1.0
15:33:50.129079,198853.015625,178749.140625,234016.15625,207825.015625,200639.1875,172683.59375,686632.375,201860.3125,0.097412109375,0.980712890625,-0.22802734375,-1.4343260526657104,0.4882812201976776,0.6408690810203552,100.0,97484.0,1.0
15:33:50.135450,198849.71875,178743.15625,234007.046875,207829.75,200632.3125,172655.25,686615.6875,201867.015625,0.0986328125,0.982421875,-0.22802734375,-1.5258787870407104,0.4577636420726776,0.6713866591453552,100.0,97485.0,1.0
15:33:50.135460,198851.953125,178747.09375,234009.453125,207827.328125,200636.234375,172669.375,686651.5,201864.0625,0.09716796875,0.98095703125,-0.2255859375,-1.4343260526657104,0.4577636420726776,0.5187987685203552,100.0,97486.0,1.0
15:33:50.159939,198856.0625,178754.234375,234021.4375,207830.828125,200650.375,172702.90625,686632.9375,201866.21875,0.09716796875,0.98193359375,-0.22607421875,-1.4648436307907104,0.5493163466453552,0.6408690810203552,100.0,97487.0,1.0
15:33:50.182277,198854.984375,178751.109375,234015.359375,207823.9375,200642.140625,172691.015625,686639.5625,201861.828125,0.0986328125,0.98193359375,-0.22705078125,-1.5258787870407104,0.5798339247703552,0.5187987685203552,100.0,97488.0,1.0
15:33:50.185406,198850.609375,178741.09375,234004.8125,207827.609375,200628.90625,172657.484375,686608.25,201865.9375,0.09814453125,0.98291015625,-0.2265625,-1.4953612089157104,0.5187987685203552,0.5493163466453552,100.0,97489.0,1.0
15:33:50.185416,198850.875,178740.828125,234003.828125,207826.890625,200627.125,172661.15625,686634.0625,201860.40625,0.095703125,0.982177734375,-0.228759765625,-1.5258787870407104,0.4577636420726776,0.7324218153953552,100.0,97490.0,1.0
15:33:50.185419,198851.765625,178744.5,234012.671875,207828.671875,200638.390625,172689.9375,686620.6875,201857.265625,0.0966796875,0.981201171875,-0.226806640625,-1.4648436307907104,0.4577636420726776,0.5798339247703552,100.0,97491.0,1.0
15:33:50.214870,198852.125,178747.0,234008.921875,207821.609375,200635.078125,172688.875,686633.375,201851.734375,0.096923828125,0.98095703125,-0.22509765625,-1.4953612089157104,0.3967284858226776,0.6408690810203552,100.0,97492.0,1.0
15:33:50.217388,198845.515625,178734.03125,233996.84375,207824.46875,200624.890625,172653.203125,686626.375,201861.03125,0.095947265625,0.9794921875,-0.225341796875,-1.4343260526657104,0.2746581733226776,0.5493163466453552,100.0,97493.0,1.0
15:33:50.219887,198850.34375,178738.765625,234001.234375,207827.953125,200627.21875,172655.796875,686638.0,201862.28125,0.09716796875,0.979736328125,-0.23046875,-1.3732908964157104,0.2746581733226776,0.6408690810203552,100.0,97494.0,1.0
15:33:50.222260,198860.0,178753.875,234021.703125,207835.296875,200647.5,172698.796875,686632.5,201866.65625,0.095947265625,0.97900390625,-0.22900390625,-1.4038084745407104,0.2441406100988388,0.6713866591453552,100.0,97495.0,1.0
15:33:50.224780,198856.78125,178752.0,234016.421875,207825.1875,200641.875,172700.21875,686635.0,201855.75,0.095947265625,0.979248046875,-0.22998046875,-1.5563963651657104,0.3662109076976776,0.6103515028953552,100.0,97496.0,1.0
15:33:50.227297,198854.265625,178743.421875,234007.21875,207831.359375,200633.109375,172667.5,686633.75,201865.5,0.097900390625,0.981201171875,-0.228759765625,-1.4953612089157104,0.3051757514476776,0.5798339247703552,100.0,97497.0,1.0
15:33:50.229773,198858.203125,178743.328125,234007.21875,207836.453125,200632.3125,172659.28125,686623.5625,201868.71875,0.097412109375,0.98193359375,-0.228759765625,-1.5258787870407104,0.3051757514476776,0.6408690810203552,100.0,97498.0,1.0
15:33:50.232217,198862.5,178752.546875,234019.921875,207840.75,200647.15625,172694.328125,686638.75,201869.4375,0.09765625,0.984375,-0.2275390625,-1.4038084745407104,0.2136230319738388,0.7019042372703552,100.0,97499.0,1.0
15:33:50.234710,198866.078125,178760.234375,234024.828125,207837.34375,200649.390625,172709.53125,686627.9375,201862.546875,0.096435546875,0.983154296875,-0.22900390625,-1.4648436307907104,0.0610351525247097,0.7934569716453552,100.0,97500.0,1.0
15:33:50.237214,198862.234375,178751.640625,234013.203125,207836.09375,200639.109375,172681.625,686635.625,201865.859375,0.09765625,0.9833984375,-0.229248046875,-1.4648436307907104,0.1220703050494194,0.7629393935203552,100.0,97501.0,1.0
15:33:50.239727,198856.0625,178739.484375,234002.125,207832.96875,200628.015625,172656.859375,686619.625,201863.796875,0.09814453125,0.984375,-0.227294921875,-1.4648436307907104,0.0610351525247097,0.8239745497703552,100.0,97502.0,1.0
15:33:50.242201,198856.421875,178742.703125,234008.375,207834.046875,200636.15625,172681.1875,686639.875,201863.0,0.095947265625,0.98291015625,-0.228759765625,-1.5258787870407104,0.0610351525247097,0.7019042372703552,100.0,97503.0,1.0
15:33:50.244858,198858.828125,178747.71875,234013.65625,207831.09375,200639.546875,172699.515625,686610.3125,201857.1875,0.0966796875,0.981689453125,-0.2275390625,-1.5258787870407104,0.0610351525247097,0.6408690810203552,100.0,97504.0,1.0
15:33:50.247275,198854.890625,178740.921875,234002.921875,207825.71875,200627.125,172674.203125,686621.9375,201854.859375,0.096923828125,0.97998046875,-0.227294921875,-1.5563963651657104,0.0,0.7324218153953552,100.0,97505.0,1.0
15:33:50.249850,198853.5625,178735.546875,233997.65625,207829.5625,200620.5,172650.609375,686605.3125,201859.78125,0.09765625,0.97998046875,-0.2275390625,-1.5258787870407104,-0.0915527269244194,0.7324218153953552,100.0,97506.0,1.0
15:33:50.252308,198854.71875,178739.75,234003.375,207829.5625,200627.296875,172670.0,686651.0,201856.203125,0.097412109375,0.98095703125,-0.227783203125,-1.5258787870407104,-0.03051757626235485,0.7934569716453552,100.0,97507.0,1.0
15:33:50.254700,198856.234375,178747.265625,234012.5,207828.765625,200635.34375,172696.296875,686627.5625,201850.921875,0.09765625,0.980712890625,-0.228515625,-1.5869139432907104,-0.0915527269244194,0.6713866591453552,100.0,97508.0,1.0
15:33:50.257867,198861.0625,178748.96875,234009.1875,207828.046875,200632.125,172684.125,686639.0,201853.15625,0.09765625,0.9794921875,-0.228515625,-1.5258787870407104,-0.1525878757238388,0.7324218153953552,100.0,97509.0,1.0
15:33:50.257886,198861.515625,178743.953125,234003.015625,207837.34375,200627.296875,172657.3125,686615.25,201864.609375,0.098388671875,0.9814453125,-0.229248046875,-1.5563963651657104,-0.1525878757238388,0.7019042372703552,100.0,97510.0,1.0
15:33:50.257890,198860.796875,178743.421875,234002.296875,207832.96875,200628.375,172666.15625,686653.9375,201860.484375,0.098876953125,0.982421875,-0.22998046875,-1.4648436307907104,-0.0610351525247097,0.7019042372703552,100.0,97511.0,1.0
15:33:50.260302,198864.640625,178750.84375,234013.75,207833.0625,200641.15625,172698.609375,686628.4375,201860.765625,0.0986328125,0.982421875,-0.22802734375,-1.5563963651657104,-0.0915527269244194,0.5798339247703552,100.0,97512.0,1.0
15:33:50.260310,198863.296875,178749.6875,234007.046875,207826.34375,200634.0,172689.40625,686630.6875,201855.84375,0.09814453125,0.982421875,-0.22900390625,-1.5869139432907104,0.0,0.5798339247703552,100.0,97513.0,1.0
15:33:50.262755,198861.6875,178743.6875,234001.234375,207837.703125,200628.015625,172660.171875,686609.3125,201866.921875,0.098388671875,0.9814453125,-0.2275390625,-1.6174315214157104,-0.0915527269244194,0.4882812201976776,100.0,97514.0,1.0
15:33:50.262760,198862.765625,178746.28125,234001.234375,207837.609375,200628.640625,172666.421875,686635.6875,201864.25,0.100830078125,0.983642578125,-0.227294921875,-1.5869139432907104,-0.0610351525247097,0.5187987685203552,100.0,97515.0,1.0
15:33:50.264817,198866.703125,178755.9375,234014.109375,207838.59375,200643.9375,172703.53125,686631.125,201864.96875,0.099853515625,0.982666015625,-0.228271484375,-1.7089842557907104,-0.1525878757238388,0.3356933295726776,100.0,97516.0,1.0
15:33:50.267980,198874.390625,178763.09375,234018.84375,207838.0625,200645.453125,172708.1875,686641.625,201863.4375,0.099853515625,0.98291015625,-0.22705078125,-1.7700194120407104,-0.0915527269244194,0.4272460639476776,100.0,97517.0,1.0
15:33:50.267996,198874.03125,178756.75,234014.734375,207850.046875,200640.09375,172678.765625,686632.3125,201875.953125,0.099365234375,0.982177734375,-0.22900390625,-1.8920897245407104,-0.1220703050494194,0.4577636420726776,100.0,97518.0,1.0
15:33:50.269825,198877.0625,178761.484375,234019.203125,207852.640625,200643.65625,172682.96875,686651.8125,201877.203125,0.09912109375,0.984130859375,-0.22509765625,-1.7700194120407104,-0.1220703050494194,0.4882812201976776,100.0,97519.0,1.0
15:33:50.273511,198880.734375,178771.859375,234032.25,207853.0,200660.734375,172721.6875,686665.375,201877.75,0.098388671875,0.982177734375,-0.225830078125,-1.7089842557907104,-0.1220703050494194,0.5187987685203552,100.0,97520.0,1.0
15:33:50.284035,198883.421875,178776.234375,234033.765625,207847.1875,200660.828125,172729.640625,686651.8125,201871.40625,0.098876953125,0.98291015625,-0.225341796875,-1.7395018339157104,-0.2441406100988388,0.4577636420726776,100.0,97521.0,1.0
15:33:50.284039,198872.515625,178758.265625,234020.8125,207843.875,200645.453125,172691.015625,686643.375,201873.28125,0.09765625,0.98388671875,-0.227783203125,-1.7700194120407104,-0.2441406100988388,0.4577636420726776,100.0,97522.0,1.0
15:33:50.286572,198870.1875,178756.296875,234016.703125,207841.375,200640.171875,172680.28125,686627.625,201872.109375,0.097412109375,0.9833984375,-0.227294921875,-1.7089842557907104,-0.2136230319738388,0.3662109076976776,100.0,97523.0,1.0
15:33:50.286576,198864.828125,178754.6875,234017.234375,207835.375,200643.9375,172702.109375,686644.625,201863.984375,0.097900390625,0.983642578125,-0.22607421875,-1.7700194120407104,-0.1525878757238388,0.3662109076976776,100.0,97524.0,1.0
15:33:50.295957,198855.703125,178746.546875,234009.28125,207820.890625,200634.359375,172703.0,686615.375,201848.25,0.097900390625,0.982177734375,-0.225830078125,-1.7700194120407104,-0.1831054538488388,0.3662109076976776,100.0,97525.0,1.0
15:33:50.302962,198844.96875,178730.546875,233989.515625,207813.75,200617.28125,172667.765625,686612.0,201846.71875,0.09912109375,0.98291015625,-0.22607421875,-1.8005369901657104,-0.1831054538488388,0.3967284858226776,100.0,97526.0,1.0
15:33:50.302977,198841.578125,178723.578125,233981.015625,207813.828125,200607.71875,172646.140625,686601.625,201846.71875,0.09912109375,0.984619140625,-0.228759765625,-1.8005369901657104,-0.2136230319738388,0.4272460639476776,100.0,97527.0,1.0
15:33:50.305331,198846.3125,178732.421875,233991.65625,207817.40625,200618.359375,172673.765625,686644.125,201846.8125,0.097900390625,0.984375,-0.228271484375,-1.8005369901657104,-0.2136230319738388,0.4882812201976776,100.0,97528.0,1.0
15:33:50.305336,198852.21875,178741.359375,234002.03125,207816.34375,200625.875,172696.5625,686619.9375,201843.59375,0.097412109375,0.98193359375,-0.226806640625,-1.8310545682907104,-0.1220703050494194,0.5187987685203552,100.0,97529.0,1.0
15:33:50.314778,198847.296875,178733.40625,233988.71875,207810.25,200610.671875,172668.84375,686625.75,201841.171875,0.096923828125,0.98046875,-0.227294921875,-1.7395018339157104,-0.1220703050494194,0.5798339247703552,100.0,97530.0,1.0
15:33:50.317250,198846.5,178727.59375,233983.171875,207815.71875,200604.5,172644.4375,686611.0,201847.078125,0.0986328125,0.98095703125,-0.229248046875,-1.7395018339157104,-0.1220703050494194,0.5493163466453552,100.0,97531.0,1.0
15:33:50.320986,198851.234375,178736.0,233989.96875,207813.390625,200612.109375,172667.953125,686635.875,201844.21875,0.09814453125,0.979248046875,-0.226806640625,-1.7700194120407104,-0.0915527269244194,0.6103515028953552,100.0,97532.0,1.0
15:33:50.328555,198853.5625,178745.203125,233998.015625,207811.234375,200618.890625,172697.359375,686605.3125,201837.875,0.09765625,0.980712890625,-0.224609375,-1.6784666776657104,-0.1220703050494194,0.6408690810203552,100.0,97533.0,1.0
15:33:50.332956,198851.59375,178738.953125,233990.140625,207809.359375,200609.6875,172677.34375,686621.5,201835.453125,0.098876953125,0.982421875,-0.224365234375,-1.6174315214157104,-0.1220703050494194,0.7019042372703552,100.0,97534.0,1.0
15:33:50.332967,198845.515625,178726.875,233981.296875,207813.828125,200601.375,172645.59375,686598.875,201842.25,0.097900390625,0.98193359375,-0.2275390625,-1.5258787870407104,-0.0915527269244194,0.7934569716453552,100.0,97535.0,1.0
15:33:50.345404,198846.84375,178732.421875,233984.15625,207810.25,200605.125,172662.578125,686633.4375,201837.328125,0.099609375,0.983642578125,-0.22802734375,-1.6784666776657104,-0.0915527269244194,0.7629393935203552,100.0,97536.0,1.0
15:33:50.345412,198850.34375,178739.125,233995.78125,207811.59375,200616.65625,172694.234375,686607.4375,201834.5625,0.096435546875,0.982177734375,-0.227294921875,-1.6784666776657104,-0.03051757626235485,0.7019042372703552,100.0,97537.0,1.0
15:33:50.346566,198849.4375,178734.296875,233990.671875,207804.0,200609.15625,172679.75,686618.1875,201829.46875,0.097900390625,0.984375,-0.227783203125,-1.6479490995407104,-0.1220703050494194,0.7019042372703552,100.0,97538.0,1.0
15:33:50.354346,198848.1875,178726.96875,233984.15625,207810.53125,200604.59375,172650.0625,686593.25,201842.4375,0.099365234375,0.984619140625,-0.2265625,-1.7395018339157104,-0.2136230319738388,0.7019042372703552,100.0,97539.0,1.0
15:33:50.354364,198848.28125,178728.046875,233982.1875,207807.84375,200604.859375,172653.109375,686623.4375,201837.6875,0.1005859375,0.985107421875,-0.224853515625,-1.8310545682907104,-0.1220703050494194,0.5798339247703552,100.0,97540.0,1.0
15:33:50.360312,198848.8125,178731.171875,233991.84375,207808.375,200615.765625,172681.8125,686620.5,201835.453125,0.101318359375,0.98193359375,-0.22705078125,-1.8310545682907104,-0.0915527269244194,0.6103515028953552,100.0,97541.0,1.0
15:33:50.360333,198849.078125,178732.328125,233989.34375,207801.046875,200611.203125,172681.8125,686615.5625,201828.578125,0.10205078125,0.981689453125,-0.22607421875,-1.9226073026657104,-0.0915527269244194,0.5798339247703552,100.0,97542.0,1.0
15:33:50.362264,198847.296875,178727.0625,233982.71875,207806.328125,200605.671875,172655.171875,686618.375,201840.375,0.103515625,0.9814453125,-0.2265625,-2.014159917831421,0.03051757626235485,0.5798339247703552,100.0,97543.0,1.0
15:33:50.374809,198844.609375,178725.0,233977.890625,207803.375,200600.75,172648.734375,686635.25,201836.796875,0.103515625,0.98046875,-0.22802734375,-1.9836424589157104,0.0915527269244194,0.6103515028953552,100.0,97544.0,1.0
15:33:50.377948,198850.6875,178738.328125,233992.203125,207807.84375,200616.921875,172688.0625,686642.75,201838.671875,0.103515625,0.9775390625,-0.229248046875,-2.044677495956421,0.0915527269244194,0.7019042372703552,100.0,97545.0,1.0
15:33:50.378019,198852.65625,178740.5625,233991.125,207804.453125,200616.578125,172694.5,686629.0625,201832.421875,0.10400390625,0.97705078125,-0.23046875,-2.014159917831421,0.2441406100988388,0.7629393935203552,100.0,97546.0,1.0
15:33:50.379857,198848.90625,178728.40625,233980.125,207809.90625,200606.734375,172661.421875,686611.8125,201841.171875,0.101806640625,0.977294921875,-0.229736328125,-1.9531248807907104,0.3356933295726776,0.7019042372703552,100.0,97547.0,1.0
15:33:50.395418,198847.828125,178725.546875,233978.609375,207810.703125,200601.46875,172650.515625,686612.125,201840.734375,0.10205078125,0.9794921875,-0.229736328125,-1.9531248807907104,0.3967284858226776,0.6713866591453552,100.0,97548.0,1.0
15:33:50.395494,198851.40625,178734.03125,233989.96875,207816.34375,200616.578125,172686.28125,686627.1875,201842.078125,0.10009765625,0.978759765625,-0.2294921875,-1.8920897245407104,0.4272460639476776,0.6713866591453552,100.0,97549.0,1.0
15:33:50.397356,198846.578125,178733.3125,233987.734375,207811.515625,200611.65625,172693.875,686617.75,201830.265625,0.1015625,0.977783203125,-0.228515625,-1.8005369901657104,0.4272460639476776,0.7324218153953552,100.0,97550.0,1.0
15:33:50.399829,198842.296875,178724.109375,233977.453125,207809.8125,200601.46875,172664.90625,686613.25,201835.453125,0.099853515625,0.979248046875,-0.2294921875,-1.8005369901657104,0.4882812201976776,0.7019042372703552,100.0,97551.0,1.0
15:33:50.402322,198841.484375,178719.8125,233971.71875,207809.1875,200597.703125,172647.390625,686602.875,201840.109375,0.1005859375,0.9814453125,-0.22998046875,-1.7700194120407104,0.5187987685203552,0.5798339247703552,100.0,97552.0,1.0
15:33:50.406698,198839.609375,178720.53125,233974.40625,207804.359375,200603.703125,172670.09375,686644.1875,201834.828125,0.10205078125,0.981689453125,-0.2314453125,-1.7089842557907104,0.4882812201976776,0.6103515028953552,100.0,97553.0,1.0
15:33:50.406780,198839.703125,178724.734375,233979.328125,207798.90625,200609.328125,172690.5625,686626.125,201828.484375,0.100830078125,0.980712890625,-0.23291015625,-1.7089842557907104,0.5187987685203552,0.5798339247703552,100.0,97554.0,1.0
15:33:50.414991,198837.46875,178719.90625,233971.90625,207796.21875,200601.28125,172667.765625,686630.5,201830.890625,0.10107421875,0.983154296875,-0.2294921875,-1.6784666776657104,0.4577636420726776,0.4577636420726776,100.0,97555.0,1.0
15:33:50.425537,198828.609375,178706.40625,233960.90625,207796.484375,200589.921875,172635.671875,686612.8125,201831.609375,0.10009765625,0.986328125,-0.2275390625,-1.7089842557907104,0.4577636420726776,0.3356933295726776,100.0,97556.0,1.0
15:33:50.425593,198836.296875,178718.296875,233971.28125,207799.96875,200601.375,172661.953125,686659.375,201832.5,0.096923828125,0.984375,-0.2255859375,-1.8310545682907104,0.4577636420726776,0.2441406100988388,100.0,97557.0,1.0
15:33:50.428025,198840.859375,178725.71875,233981.375,207800.953125,200612.8125,172691.640625,686627.75,201832.59375,0.09521484375,0.98681640625,-0.225830078125,-1.8310545682907104,0.5493163466453552,0.03051757626235485,100.0,97558.0,1.0
15:33:50.428105,198839.515625,178722.765625,233974.140625,207797.65625,200605.484375,172675.546875,686630.75,201830.359375,0.092041015625,0.986572265625,-0.225830078125,-1.8310545682907104,0.4882812201976776,-0.1220703050494194,100.0,97559.0,1.0
15:33:50.429817,198836.75,178715.703125,233966.8125,207806.6875,200597.625,172646.578125,686602.1875,201837.609375,0.091552734375,0.985107421875,-0.228271484375,-1.7395018339157104,0.3662109076976776,-0.2441406100988388,100.0,97560.0,1.0
15:33:50.441085,198842.375,178721.0625,233972.171875,207807.84375,200602.625,172662.671875,686652.5,201836.078125,0.091796875,0.987548828125,-0.228515625,-1.8310545682907104,0.2441406100988388,-0.3356933295726776,100.0,97561.0,1.0
15:33:50.445475,198848.1875,178729.921875,233986.65625,207810.4375,200615.234375,172696.828125,686633.375,201834.203125,0.09326171875,0.98486328125,-0.225341796875,-1.7700194120407104,0.0915527269244194,-0.3662109076976776,100.0,97562.0,1.0
15:33:50.445543,198849.890625,178729.65625,233987.8125,207804.71875,200607.0,172685.921875,686629.4375,201830.359375,0.09375,0.9853515625,-0.22412109375,-1.8005369901657104,0.1525878757238388,-0.2441406100988388,100.0,97563.0,1.0
15:33:50.451620,198846.84375,178722.328125,233979.6875,207809.359375,200599.40625,172655.25,686597.6875,201840.109375,0.09423828125,0.984375,-0.223876953125,-1.9836424589157104,0.0915527269244194,-0.3967284858226776,100.0,97564.0,1.0
15:33:50.451684,198848.640625,178725.625,233979.859375,207811.328125,200602.265625,172660.53125,686630.3125,201838.5,0.09619140625,0.982666015625,-0.22509765625,-2.014159917831421,0.03051757626235485,-0.5187987685203552,100.0,97565.0,1.0
15:33:50.453562,198855.796875,178738.0625,233993.890625,207823.484375,200620.140625,172699.234375,686627.1875,201841.890625,0.095458984375,0.98193359375,-0.222900390625,-2.014159917831421,-0.0915527269244194,-0.4577636420726776,100.0,97566.0,1.0
15:33:50.464776,198855.96875,178741.90625,233987.640625,207816.875,200612.375,172696.5625,686634.375,201831.96875,0.095703125,0.981689453125,-0.22314453125,-2.075195074081421,-0.2136230319738388,-0.4272460639476776,100.0,97567.0,1.0
15:33:50.469188,198852.21875,178732.609375,233976.546875,207823.046875,200601.46875,172662.9375,686629.625,201839.484375,0.09619140625,0.982421875,-0.223388671875,-2.075195074081421,-0.2136230319738388,-0.4272460639476776,100.0,97568.0,1.0
15:33:50.469239,198853.5625,178731.984375,233975.65625,207824.828125,200600.125,172657.484375,686638.1875,201840.203125,0.09716796875,0.981201171875,-0.224853515625,-1.9531248807907104,-0.2136230319738388,-0.2746581733226776,100.0,97569.0,1.0
15:33:50.479258,198857.125,178739.578125,233989.0625,207825.90625,200614.515625,172692.171875,686633.4375,201841.359375,0.09716796875,0.98095703125,-0.224365234375,-2.105712652206421,-0.1831054538488388,-0.2746581733226776,100.0,97570.0,1.0
15:33:50.479346,198858.109375,178740.921875,233989.96875,207818.21875,200610.578125,172694.765625,686626.9375,201832.234375,0.096923828125,0.98095703125,-0.223388671875,-2.075195074081421,-0.1831054538488388,-0.1220703050494194,100.0,97571.0,1.0
15:33:50.481958,198857.578125,178734.921875,233983.078125,207820.8125,200601.734375,172663.921875,686621.75,201839.65625,0.09619140625,0.980712890625,-0.220947265625,-1.9531248807907104,-0.1525878757238388,0.03051757626235485,100.0,97572.0,1.0
15:33:50.489408,198862.046875,178739.046875,233983.796875,207828.671875,200602.265625,172658.46875,686616.625,201845.5625,0.099365234375,0.979736328125,-0.22314453125,-1.8920897245407104,-0.1525878757238388,0.2136230319738388,100.0,97573.0,1.0
15:33:50.489488,198866.4375,178747.265625,233993.453125,207831.359375,200614.15625,172690.84375,686642.125,201845.828125,0.097900390625,0.98193359375,-0.225830078125,-1.9836424589157104,-0.0610351525247097,0.4577636420726776,100.0,97574.0,1.0
15:33:50.499125,198873.84375,178757.375,234003.109375,207828.40625,200621.125,172708.625,686632.75,201842.4375,0.09814453125,0.981201171875,-0.22314453125,-2.044677495956421,-0.1525878757238388,0.6713866591453552,100.0,97575.0,1.0
15:33:50.499166,198873.84375,178754.328125,233997.03125,207828.3125,200615.046875,172682.96875,686632.5,201849.765625,0.09814453125,0.981201171875,-0.219482421875,-2.105712652206421,-0.1525878757238388,0.7324218153953552,100.0,97576.0,1.0
15:33:50.501624,198871.53125,178749.859375,233988.4375,207828.234375,200607.546875,172662.671875,686616.1875,201852.625,0.09716796875,0.98095703125,-0.2216796875,-2.075195074081421,-0.1831054538488388,0.7629393935203552,100.0,97577.0,1.0
15:33:50.501669,198879.125,178761.296875,233999.625,207832.15625,200620.859375,172696.109375,686661.25,201854.140625,0.09521484375,0.981689453125,-0.22265625,-2.014159917831421,-0.0915527269244194,0.8239745497703552,100.0,97578.0,1.0
15:33:50.529817,198888.0625,178772.21875,234012.40625,207839.140625,200632.75,172723.921875,686635.1875,201855.125,0.09326171875,0.984619140625,-0.2216796875,-1.9836424589157104,-0.1525878757238388,0.8544921278953552,100.0,97579.0,1.0
15:33:50.553020,198880.109375,178761.21875,233997.5625,207830.90625,200617.46875,172694.5,686638.125,201848.875,0.091796875,0.9833984375,-0.22314453125,-1.9531248807907104,-0.1831054538488388,0.9155272841453552,100.0,97580.0,1.0
15:33:50.553048,198873.046875,178746.109375,233984.78125,207830.109375,200604.859375,172662.234375,686608.3125,201850.390625,0.09033203125,0.9833984375,-0.222412109375,-2.014159917831421,-0.2746581733226776,0.9155272841453552,100.0,97581.0,1.0
15:33:50.556602,198876.796875,178753.34375,233992.46875,207827.78125,200613.0,172682.609375,686646.875,201847.53125,0.08984375,0.9833984375,-0.222900390625,-2.014159917831421,-0.3051757514476776,0.8850097060203552,100.0,97582.0,1.0
15:33:50.556621,198879.484375,178758.796875,234002.125,207827.25,200621.484375,172709.078125,686617.875,201844.9375,0.091796875,0.983642578125,-0.22412109375,-1.9836424589157104,-0.4882812201976776,1.0375975370407104,100.0,97583.0,1.0
15:33:50.556628,198880.734375,178758.359375,233997.203125,207826.625,200614.421875,172694.0625,686631.3125,201846.8125,0.09228515625,0.981201171875,-0.2255859375,-1.9226073026657104,-0.5493163466453552,0.9460448622703552,100.0,97584.0,1.0
15:33:50.556633,198877.15625,178750.3125,233990.40625,207831.984375,200605.671875,172666.515625,686602.5,201854.234375,0.094970703125,0.98291015625,-0.22119140625,-1.9226073026657104,-0.4882812201976776,0.8850097060203552,100.0,97585.0,1.0
15:33:50.556638,198875.28125,178750.125,233989.34375,207825.015625,200604.953125,172675.375,686644.375,201845.46875,0.09375,0.981689453125,-0.220458984375,-1.9836424589157104,-0.5798339247703552,0.7934569716453552,100.0,97586.0,1.0
15:33:50.556643,198878.671875,178755.9375,234000.515625,207829.03125,200617.375,172707.109375,686637.5625,201844.9375,0.093994140625,0.981689453125,-0.224609375,-1.8920897245407104,-0.4882812201976776,0.7324218153953552,100.0,97587.0,1.0
15:33:50.558498,198875.90625,178751.734375,233993.625,207820.546875,200605.671875,172693.4375,686639.875,201836.4375,0.095703125,0.98193359375,-0.22509765625,-1.7395018339157104,-0.4882812201976776,0.7019042372703552,100.0,97588.0,1.0
15:33:50.560983,198867.328125,178737.4375,233982.1875,207821.34375,200590.640625,172654.8125,686604.125,201840.109375,0.09619140625,0.981689453125,-0.2265625,-1.6479490995407104,-0.4882812201976776,0.6713866591453552,100.0,97589.0,1.0
15:33:50.563602,198868.578125,178738.234375,233983.796875,207819.640625,200592.078125,172659.09375,686635.875,201836.171875,0.100341796875,0.98095703125,-0.22314453125,-1.5869139432907104,-0.4882812201976776,0.5798339247703552,100.0,97590.0,1.0
15:33:50.566122,198874.125,178750.3125,233999.796875,207824.5625,200608.96875,172697.90625,686623.8125,201836.796875,0.102294921875,0.979248046875,-0.222412109375,-1.5563963651657104,-0.4272460639476776,0.5798339247703552,100.0,97591.0,1.0
15:33:50.569076,198874.125,178749.328125,233994.4375,207816.25,200601.90625,172695.75,686634.0,201829.640625,0.1044921875,0.978759765625,-0.22314453125,-1.3732908964157104,-0.3356933295726776,0.7019042372703552,100.0,97592.0,1.0
15:33:50.571686,198871.890625,178739.40625,233984.59375,207819.28125,200592.515625,172663.75,686627.125,201838.671875,0.104736328125,0.9775390625,-0.2236328125,-1.4038084745407104,-0.2136230319738388,0.7019042372703552,100.0,97593.0,1.0
15:33:50.574284,198874.125,178741.90625,233984.953125,207818.390625,200592.703125,172662.140625,686633.3125,201837.6875,0.103515625,0.97802734375,-0.22607421875,-1.3732908964157104,-0.1831054538488388,0.7629393935203552,100.0,97594.0,1.0
15:33:50.574303,198879.21875,178752.90625,234000.515625,207825.09375,200608.796875,172697.359375,686641.3125,201839.75,0.104736328125,0.979736328125,-0.22607421875,-1.2207030057907104,-0.1831054538488388,0.8239745497703552,100.0,97595.0,1.0
15:33:50.575988,198871.34375,178743.6875,233992.90625,207813.75,200599.671875,172693.96875,686621.375,201825.625,0.103271484375,0.980712890625,-0.225341796875,-1.2817381620407104,-0.0915527269244194,0.7629393935203552,100.0,97596.0,1.0
15:33:50.591544,198866.15625,178732.0625,233982.71875,207818.75,200589.578125,172661.78125,686604.875,201832.59375,0.101806640625,0.981689453125,-0.223388671875,-1.0986326932907104,0.03051757626235485,0.7019042372703552,100.0,97597.0,1.0
15:33:50.591552,198870.453125,178734.921875,233983.890625,207823.21875,200590.375,172655.25,686598.5,201836.625,0.101806640625,0.98193359375,-0.22607421875,-1.0986326932907104,0.1831054538488388,0.8544921278953552,100.0,97598.0,1.0
15:33:50.594208,198871.171875,178741.8125,233988.796875,207818.65625,200599.765625,172685.921875,686619.25,201830.984375,0.1015625,0.980712890625,-0.228759765625,-1.0681151151657104,0.2136230319738388,0.8239745497703552,100.0,97599.0,1.0
15:33:50.594226,198871.609375,178750.125,233988.71875,207810.53125,200598.515625,172701.828125,686606.75,201819.90625,0.10107421875,0.98193359375,-0.225830078125,-0.9765624403953552,0.3051757514476776,0.7629393935203552,100.0,97600.0,1.0
15:33:50.596117,198870.359375,178743.421875,233981.296875,207812.578125,200589.296875,172668.3125,686623.1875,201826.25,0.100830078125,0.982177734375,-0.2275390625,-1.0681151151657104,0.3051757514476776,0.7019042372703552,100.0,97601.0,1.0
15:33:50.599865,198867.6875,178735.828125,233976.375,207814.546875,200581.53125,172645.15625,686612.4375,201829.734375,0.098876953125,0.982421875,-0.227294921875,-1.0070799589157104,0.4882812201976776,0.5798339247703552,100.0,97602.0,1.0
15:33:50.609794,198871.609375,178745.203125,233984.6875,207814.015625,200591.359375,172673.84375,686633.9375,201828.484375,0.098388671875,0.982177734375,-0.22509765625,-0.9460448622703552,0.4577636420726776,0.5187987685203552,100.0,97603.0,1.0
15:33:50.612832,198869.734375,178747.0,233986.03125,207808.015625,200592.25,172691.640625,686601.0,201819.0,0.0966796875,0.983154296875,-0.223876953125,-0.9765624403953552,0.2441406100988388,0.4577636420726776,100.0,97604.0,1.0
15:33:50.612843,198865.09375,178739.125,233974.234375,207804.984375,200581.34375,172667.59375,686618.375,201817.75,0.0947265625,0.986083984375,-0.224365234375,-0.9460448622703552,0.3356933295726776,0.3051757514476776,100.0,97605.0,1.0
15:33:50.614765,198858.65625,178726.96875,233963.5,207808.015625,200571.59375,172640.40625,686617.75,201820.796875,0.0966796875,0.983154296875,-0.225341796875,-0.9765624403953552,0.4272460639476776,0.3967284858226776,100.0,97606.0,1.0
15:33:50.629756,198851.859375,178722.328125,233959.828125,207800.609375,200570.53125,172653.109375,686650.1875,201811.5,0.0966796875,0.985107421875,-0.227294921875,-1.0375975370407104,0.3662109076976776,0.2746581733226776,100.0,97607.0,1.0
15:33:50.632879,198855.609375,178728.40625,233971.28125,207800.0625,200578.9375,172680.640625,686625.0,201808.90625,0.096435546875,0.985107421875,-0.226806640625,-1.1291502714157104,0.3967284858226776,0.1220703050494194,100.0,97608.0,1.0
15:33:50.632903,198854.8125,178725.8125,233966.890625,207795.328125,200571.875,172666.25,686635.0,201807.46875,0.094482421875,0.985107421875,-0.22802734375,-1.1901854276657104,0.3967284858226776,0.0915527269244194,100.0,97609.0,1.0
15:33:50.634785,198844.703125,178710.78125,233954.828125,207795.0625,200560.953125,172631.46875,686623.0625,201811.578125,0.0947265625,0.983642578125,-0.228271484375,-1.1901854276657104,0.3967284858226776,0.0915527269244194,100.0,97610.0,1.0
15:33:50.637237,198840.859375,178709.171875,233951.609375,207787.734375,200558.09375,172639.15625,686646.1875,201801.75,0.09521484375,0.982421875,-0.227294921875,-1.1291502714157104,0.3051757514476776,0.0610351525247097,100.0,97611.0,1.0
15:33:50.647869,198841.578125,178715.4375,233961.171875,207783.078125,200568.828125,172672.6875,686616.9375,201796.296875,0.097412109375,0.981689453125,-0.226806640625,-1.1291502714157104,0.2136230319738388,-0.0915527269244194,100.0,97612.0,1.0
15:33:50.647885,198840.6875,178710.78125,233953.65625,207776.90625,200562.921875,172662.40625,686626.125,201792.8125,0.0966796875,0.978271484375,-0.228759765625,-1.0986326932907104,0.1831054538488388,-0.0915527269244194,100.0,97613.0,1.0
15:33:50.650419,198837.640625,178702.46875,233944.90625,207784.6875,200556.671875,172632.71875,686609.25,201804.875,0.096923828125,0.978271484375,-0.22900390625,-1.0986326932907104,0.1525878757238388,-0.0610351525247097,100.0,97614.0,1.0
15:33:50.650486,198833.890625,178701.671875,233941.328125,207779.953125,200552.46875,172633.703125,686633.375,201796.828125,0.09521484375,0.978271484375,-0.2314453125,-1.0375975370407104,0.0915527269244194,0.1220703050494194,100.0,97615.0,1.0
15:33:50.657255,198832.640625,178706.140625,233948.390625,207780.65625,200562.5625,172665.359375,686615.25,201792.453125,0.095947265625,0.97705078125,-0.230712890625,-0.9460448622703552,0.1220703050494194,0.1220703050494194,100.0,97616.0,1.0
15:33:50.665281,198829.6875,178702.65625,233942.046875,207770.296875,200555.234375,172660.171875,686622.1875,201781.09375,0.09619140625,0.980712890625,-0.229248046875,-0.9765624403953552,-0.03051757626235485,0.1220703050494194,100.0,97617.0,1.0
15:33:50.665289,198823.515625,178692.015625,233934.078125,207770.03125,200546.65625,172627.359375,686624.625,201789.234375,0.096435546875,0.979736328125,-0.23095703125,-0.9765624403953552,-0.03051757626235485,0.2441406100988388,100.0,97618.0,1.0
15:33:50.671586,198822.890625,178693.078125,233934.0,207767.703125,200546.03125,172624.5,686626.5625,201787.796875,0.09521484375,0.981201171875,-0.228759765625,-1.0070799589157104,-0.0610351525247097,0.2441406100988388,100.0,97619.0,1.0
15:33:50.671594,198823.96875,178698.890625,233942.578125,207767.875,200559.0,172658.296875,686627.3125,201787.890625,0.09375,0.97998046875,-0.23046875,-0.9460448622703552,-0.03051757626235485,0.2746581733226776,100.0,97620.0,1.0
15:33:50.678498,198822.53125,178699.875,233940.15625,207759.03125,200556.765625,172663.921875,686619.0625,201777.96875,0.09130859375,0.981689453125,-0.231689453125,-1.0070799589157104,-0.03051757626235485,0.3967284858226776,100.0,97621.0,1.0
15:33:50.685292,198816.90625,178688.53125,233928.0,207758.84375,200545.3125,172630.84375,686622.3125,201783.875,0.0908203125,0.982177734375,-0.23193359375,-1.0681151151657104,-0.0915527269244194,0.4272460639476776,100.0,97622.0,1.0
15:33:50.685306,198814.03125,178685.671875,233922.90625,207757.421875,200540.046875,172617.53125,686615.5625,201782.625,0.092529296875,0.98486328125,-0.232421875,-1.1291502714157104,-0.1220703050494194,0.4577636420726776,100.0,97623.0,1.0
15:33:50.695376,198820.65625,178697.640625,233937.75,207762.875,200556.9375,172654.453125,686628.0,201785.296875,0.09130859375,0.9853515625,-0.22802734375,-1.2207030057907104,-0.2441406100988388,0.3967284858226776,100.0,97624.0,1.0
15:33:50.695397,198821.1875,178699.25,233939.0,207756.078125,200556.671875,172666.421875,686609.6875,201776.453125,0.091796875,0.986083984375,-0.227294921875,-1.2817381620407104,-0.3051757514476776,0.3967284858226776,100.0,97625.0,1.0
15:33:50.697814,198822.890625,178695.765625,233931.3125,207761.078125,200549.703125,172642.109375,686622.0,201783.421875,0.0908203125,0.985595703125,-0.22900390625,-1.2512205839157104,-0.3051757514476776,0.4272460639476776,100.0,97626.0,1.0
15:33:50.697818,198821.640625,178689.953125,233924.703125,207766.453125,200541.828125,172621.09375,686610.1875,201786.015625,0.089111328125,0.9873046875,-0.230224609375,-1.4343260526657104,-0.4272460639476776,0.4577636420726776,100.0,97627.0,1.0
15:33:50.712246,198820.828125,178692.453125,233928.453125,207762.421875,200548.0,172642.015625,686634.0,201781.015625,0.091064453125,0.985107421875,-0.228515625,-1.5258787870407104,-0.5493163466453552,0.4882812201976776,100.0,97628.0,1.0
15:33:50.715276,198818.15625,178696.390625,233931.21875,207754.109375,200550.234375,172662.859375,686607.0625,201771.53125,0.093994140625,0.984375,-0.228515625,-1.5869139432907104,-0.5493163466453552,0.5493163466453552,100.0,97629.0,1.0
15:33:50.715284,198815.734375,178690.9375,233922.90625,207749.015625,200541.46875,172641.84375,686620.5625,201772.25,0.09423828125,0.984130859375,-0.23095703125,-1.6479490995407104,-0.6713866591453552,0.5493163466453552,100.0,97630.0,1.0
15:33:50.717227,198811.0,178681.546875,233913.34375,207754.28125,200533.0625,172614.390625,686594.75,201779.125,0.095947265625,0.98486328125,-0.2314453125,-1.6174315214157104,-0.7019042372703552,0.6408690810203552,100.0,97631.0,1.0
15:33:50.719728,198808.859375,178680.75,233914.859375,207754.46875,200535.296875,172629.0625,686632.125,201776.0,0.096923828125,0.98388671875,-0.232177734375,-1.7089842557907104,-0.7324218153953552,0.7019042372703552,100.0,97632.0,1.0
15:33:50.730508,198811.796875,178685.125,233923.265625,207755.1875,200542.71875,172655.078125,686607.0,201771.359375,0.09765625,0.9853515625,-0.233154296875,-1.7700194120407104,-0.7629393935203552,0.7934569716453552,100.0,97633.0,1.0
15:33:50.730557,198811.890625,178684.140625,233918.796875,207749.28125,200534.671875,172639.703125,686625.5,201769.75,0.098388671875,0.98388671875,-0.231689453125,-1.7700194120407104,-0.7019042372703552,0.7019042372703552,100.0,97634.0,1.0
15:33:50.739285,198809.125,178676.09375,233912.265625,207754.828125,200528.0625,172611.171875,686607.8125,201778.421875,0.09765625,0.982177734375,-0.229248046875,-1.8310545682907104,-0.5798339247703552,0.7324218153953552,100.0,97635.0,1.0
15:33:50.739367,198803.390625,178672.609375,233907.265625,207748.125,200525.90625,172615.828125,686629.625,201769.5625,0.09765625,0.981201171875,-0.22998046875,-1.8920897245407104,-0.5493163466453552,0.7934569716453552,100.0,97636.0,1.0
15:33:50.741123,198802.953125,178675.296875,233914.953125,207749.28125,200535.21875,172643.1875,686603.6875,201767.859375,0.099609375,0.9814453125,-0.228271484375,-1.8920897245407104,-0.5187987685203552,0.7629393935203552,100.0,97637.0,1.0
15:33:50.743508,198806.609375,178676.359375,233913.875,207747.3125,200530.828125,172636.65625,686621.6875,201767.78125,0.099365234375,0.9833984375,-0.2294921875,-1.8920897245407104,-0.3662109076976776,0.8239745497703552,100.0,97638.0,1.0
15:33:50.749795,198809.65625,178672.25,233912.453125,207758.484375,200527.078125,172609.03125,686607.0,201782.890625,0.099365234375,0.98291015625,-0.229248046875,-1.9836424589157104,-0.3662109076976776,0.7019042372703552,100.0,97639.0,1.0
15:33:50.754134,198809.65625,178671.890625,233912.53125,207756.25,200525.203125,172609.75,686632.3125,201778.5,0.099609375,0.98095703125,-0.228271484375,-2.075195074081421,-0.3967284858226776,0.8544921278953552,100.0,97640.0,1.0
15:33:50.754158,198811.796875,178679.40625,233923.0,207757.328125,200538.609375,172645.6875,686624.4375,201776.53125,0.099853515625,0.9833984375,-0.228515625,-2.014159917831421,-0.3051757514476776,0.7324218153953552,100.0,97641.0,1.0
15:33:50.763563,198810.640625,178679.859375,233922.109375,207745.96875,200533.78125,172645.0625,686611.3125,201766.34375,0.09814453125,0.982666015625,-0.225341796875,-2.044677495956421,-0.1831054538488388,0.7019042372703552,100.0,97642.0,1.0
15:33:50.767944,198809.203125,178674.40625,233917.1875,207751.96875,200528.234375,172617.25,686606.0,201777.703125,0.099609375,0.982666015625,-0.2275390625,-2.075195074081421,-0.1525878757238388,0.8239745497703552,100.0,97643.0,1.0
15:33:50.767968,198813.046875,178679.5,233917.8125,207752.5,200528.859375,172617.25,686625.625,201777.34375,0.100830078125,0.982421875,-0.2265625,-2.075195074081421,-0.1525878757238388,0.7934569716453552,100.0,97644.0,1.0
15:33:50.777375,198817.25,178686.109375,233929.171875,207756.171875,200543.53125,172649.171875,686630.0625,201778.859375,0.100341796875,0.983642578125,-0.229736328125,-2.166747808456421,-0.0610351525247097,0.7324218153953552,100.0,97645.0,1.0
15:33:50.780380,198822.265625,178690.84375,233933.640625,207755.0,200546.484375,172657.84375,686617.625,201776.1875,0.100341796875,0.98291015625,-0.22705078125,-2.197265386581421,0.0,0.7934569716453552,100.0,97646.0,1.0
15:33:50.780447,198824.40625,178689.15625,233931.21875,207761.796875,200540.84375,172632.0,686620.6875,201784.40625,0.100341796875,0.9833984375,-0.226806640625,-2.197265386581421,0.03051757626235485,0.6103515028953552,100.0,97647.0,1.0
15:33:50.787297,198817.796875,178679.765625,233921.828125,207756.078125,200530.5625,172612.78125,686617.625,201778.421875,0.100341796875,0.982666015625,-0.227783203125,-2.227782964706421,0.1220703050494194,0.6103515028953552,100.0,97648.0,1.0
15:33:50.795510,198821.1875,178688.609375,233929.875,207755.8125,200541.375,172645.6875,686649.75,201776.890625,0.09912109375,0.98193359375,-0.2265625,-2.105712652206421,0.1831054538488388,0.5493163466453552,100.0,97649.0,1.0
15:33:50.795593,198824.5,178693.625,233932.75,207752.234375,200543.4375,172661.6875,686616.9375,201771.265625,0.09814453125,0.983154296875,-0.2275390625,-2.105712652206421,0.2136230319738388,0.6103515028953552,100.0,97650.0,1.0
15:33:50.798702,198824.59375,178689.15625,233926.125,207754.828125,200536.375,172637.109375,686623.5625,201778.328125,0.098388671875,0.982421875,-0.223876953125,-2.166747808456421,0.3356933295726776,0.6103515028953552,100.0,97651.0,1.0
15:33:50.798785,198820.75,178682.265625,233918.078125,207755.8125,200529.84375,172615.46875,686602.5,201779.75,0.098876953125,0.98193359375,-0.223876953125,-2.258300542831421,0.3662109076976776,0.5798339247703552,100.0,97652.0,1.0
15:33:50.809817,198819.578125,178684.40625,233921.390625,207750.796875,200537.265625,172638.796875,686632.5,201772.96875,0.098876953125,0.983642578125,-0.223876953125,-2.288818120956421,0.3662109076976776,0.5798339247703552,100.0,97653.0,1.0
15:33:50.812971,198819.9375,178689.0625,233927.015625,207747.578125,200542.71875,172660.34375,686609.875,201767.6875,0.098876953125,0.9833984375,-0.225830078125,-2.258300542831421,0.4577636420726776,0.4882812201976776,100.0,97654.0,1.0
15:33:50.813272,198818.328125,178684.6875,233918.96875,207745.703125,200534.765625,172641.21875,686624.4375,201770.640625,0.097900390625,0.982421875,-0.224609375,-2.227782964706421,0.3967284858226776,0.5187987685203552,100.0,97655.0,1.0
15:33:50.816000,198812.78125,178674.75,233908.515625,207747.046875,200525.90625,172613.859375,686609.5,201773.953125,0.098876953125,0.982421875,-0.2255859375,-2.258300542831421,0.4272460639476776,0.6408690810203552,100.0,97656.0,1.0
15:33:50.855374,198813.953125,178680.390625,233911.90625,207743.734375,200530.5625,172632.984375,686633.8125,201770.453125,0.0986328125,0.982666015625,-0.222412109375,-2.197265386581421,0.5187987685203552,0.6713866591453552,100.0,97657.0,1.0
15:33:50.855426,198813.859375,178684.328125,233920.21875,207741.328125,200536.828125,172659.90625,686599.875,201766.96875,0.097900390625,0.982666015625,-0.222412109375,-2.166747808456421,0.5493163466453552,0.6408690810203552,100.0,97658.0,1.0
15:33:50.857955,198808.5,178674.84375,233910.75,207737.390625,200524.75,172638.265625,686616.8125,201763.03125,0.09521484375,0.982421875,-0.222412109375,-2.166747808456421,0.4577636420726776,0.6408690810203552,100.0,97659.0,1.0
15:33:50.857986,198809.921875,178671.625,233910.21875,207751.703125,200522.6875,172612.609375,686599.0625,201776.1875,0.0947265625,0.98095703125,-0.22314453125,-2.136230230331421,0.3967284858226776,0.7324218153953552,100.0,97660.0,1.0
15:33:50.859827,198808.3125,178671.625,233908.875,207746.6875,200522.0625,172621.640625,686637.6875,201767.328125,0.0966796875,0.981689453125,-0.225341796875,-2.075195074081421,0.3662109076976776,0.6408690810203552,100.0,97661.0,1.0
15:33:50.862356,198813.234375,178681.734375,233920.140625,207748.125,200535.296875,172655.96875,686620.6875,201766.171875,0.0947265625,0.984619140625,-0.221923828125,-1.9531248807907104,0.2746581733226776,0.5493163466453552,100.0,97662.0,1.0
15:33:50.864882,198811.0,178678.421875,233912.453125,207737.75,200524.296875,172643.8125,686622.0,201756.6875,0.093994140625,0.982177734375,-0.222900390625,-1.9226073026657104,0.3051757514476776,0.6408690810203552,100.0,97663.0,1.0
15:33:50.867355,198802.859375,178664.296875,233897.6875,207738.828125,200509.546875,172605.453125,686607.625,201760.984375,0.095458984375,0.9814453125,-0.22216796875,-1.9226073026657104,0.2746581733226776,0.7019042372703552,100.0,97664.0,1.0
15:33:50.870011,198805.359375,178666.703125,233898.234375,207739.453125,200509.28125,172608.140625,686628.75,201760.53125,0.093994140625,0.982421875,-0.223388671875,-1.9226073026657104,0.3356933295726776,0.6713866591453552,100.0,97665.0,1.0
15:33:50.895412,198808.578125,178673.6875,233909.046875,207742.125,200522.96875,172642.921875,686616.0,201761.515625,0.09375,0.98291015625,-0.220947265625,-1.8005369901657104,0.1831054538488388,0.6713866591453552,100.0,97666.0,1.0
15:33:50.895443,198813.140625,178678.6875,233911.546875,207738.828125,200521.796875,172646.578125,686611.0,201757.3125,0.093994140625,0.98388671875,-0.221435546875,-1.8005369901657104,0.1831054538488388,0.4882812201976776,100.0,97667.0,1.0
15:33:50.916176,198809.125,178667.15625,233902.4375,207743.734375,200512.234375,172610.8125,686605.9375,201765.71875,0.093017578125,0.98291015625,-0.221435546875,-1.8005369901657104,0.0610351525247097,0.5187987685203552,100.0,97668.0,1.0
15:33:50.918790,198806.703125,178665.375,233897.875,207743.46875,200507.140625,172603.75,686617.75,201762.5,0.09326171875,0.984130859375,-0.22119140625,-1.8615721464157104,0.0,0.7019042372703552,100.0,97669.0,1.0
15:33:50.921211,198806.34375,178669.390625,233903.78125,207744.359375,200516.25,172634.15625,686630.3125,201759.734375,0.092041015625,0.982666015625,-0.221923828125,-1.8615721464157104,-0.1220703050494194,0.7934569716453552,100.0,97670.0,1.0
15:33:50.925677,198805.28125,178668.3125,233899.65625,207735.25,200511.515625,172638.4375,686612.8125,201749.625,0.093017578125,0.98486328125,-0.221435546875,-1.8615721464157104,-0.1525878757238388,0.9155272841453552,100.0,97671.0,1.0
15:33:50.927829,198802.953125,178660.28125,233892.0625,207739.453125,200504.1875,172608.140625,686610.5625,201757.671875,0.094482421875,0.98388671875,-0.224365234375,-1.8310545682907104,-0.1831054538488388,0.9460448622703552,100.0,97672.0,1.0
15:33:50.927970,198799.28125,178655.0,233885.71875,207740.515625,200496.3125,172591.78125,686610.5625,201753.375,0.09423828125,0.98193359375,-0.2236328125,-1.8615721464157104,-0.3051757514476776,0.8239745497703552,100.0,97673.0,1.0
15:33:50.928595,198802.0625,178663.140625,233895.015625,207741.140625,200507.765625,172623.609375,686643.375,201750.078125,0.09619140625,0.980712890625,-0.22021484375,-1.8310545682907104,-0.3051757514476776,0.7629393935203552,100.0,97674.0,1.0
15:33:50.931631,198806.34375,178671.1875,233900.203125,207738.375,200512.5,172640.59375,686625.0,201744.53125,0.09619140625,0.97998046875,-0.22119140625,-1.8005369901657104,-0.3662109076976776,0.8239745497703552,100.0,97675.0,1.0
15:33:50.933514,198806.34375,178666.265625,233893.046875,207743.734375,200504.546875,172615.5625,686619.5,201750.703125,0.096923828125,0.978759765625,-0.22314453125,-1.6479490995407104,-0.3662109076976776,0.7934569716453552,100.0,97676.0,1.0
15:33:50.936026,198802.765625,178659.203125,233887.6875,207745.890625,200499.453125,172596.953125,686599.25,201754.546875,0.09765625,0.978759765625,-0.224853515625,-1.5869139432907104,-0.3356933295726776,0.8239745497703552,100.0,97677.0,1.0
15:33:50.938619,198802.234375,178663.40625,233892.953125,207743.65625,200506.421875,172622.171875,686646.1875,201751.6875,0.097412109375,0.979736328125,-0.225341796875,-1.6479490995407104,-0.3662109076976776,0.7629393935203552,100.0,97678.0,1.0
15:33:50.940972,198808.21875,178675.46875,233906.453125,207745.890625,200517.0625,172650.609375,686615.5,201750.34375,0.098388671875,0.97900390625,-0.224853515625,-1.6174315214157104,-0.3356933295726776,0.8850097060203552,100.0,97679.0,1.0
15:33:50.943473,198812.421875,178675.734375,233904.40625,207747.765625,200513.671875,172632.28125,686622.1875,201755.703125,0.098388671875,0.982177734375,-0.226806640625,-1.5563963651657104,-0.3356933295726776,0.7629393935203552,100.0,97680.0,1.0
15:33:50.946024,198802.0625,178660.09375,233888.578125,207745.96875,200499.53125,172598.296875,686598.625,201756.875,0.09912109375,0.98193359375,-0.22509765625,-1.4953612089157104,-0.3662109076976776,0.7324218153953552,100.0,97681.0,1.0
15:33:50.948477,198806.890625,178666.984375,233895.453125,207750.171875,200508.03125,172619.3125,686633.8125,201757.5,0.09814453125,0.982421875,-0.22705078125,-1.4648436307907104,-0.3662109076976776,0.7934569716453552,100.0,97682.0,1.0
15:33:50.950997,198803.484375,178666.984375,233897.34375,207746.59375,200511.078125,172641.84375,686603.0625,201750.25,0.098388671875,0.981689453125,-0.224853515625,-1.4343260526657104,-0.3967284858226776,0.8544921278953552,100.0,97683.0,1.0
15:33:50.954760,198800.09375,178662.59375,233890.359375,207742.75,200500.4375,172625.578125,686619.8125,201746.59375,0.098388671875,0.982177734375,-0.223876953125,-1.4038084745407104,-0.3967284858226776,0.9460448622703552,100.0,97684.0,1.0
15:33:50.954768,198801.34375,178660.28125,233893.40625,207752.40625,200499.359375,172601.4375,686593.9375,201759.90625,0.09765625,0.981201171875,-0.22265625,-1.4343260526657104,-0.3356933295726776,0.9460448622703552,100.0,97685.0,1.0
15:33:50.954769,198802.765625,178665.8125,233896.984375,207748.75,200503.296875,172613.328125,686633.1875,201755.265625,0.0986328125,0.981689453125,-0.2216796875,-1.4038084745407104,-0.2441406100988388,0.9155272841453552,100.0,97686.0,1.0
15:33:50.958011,198801.703125,178668.953125,233900.46875,207745.34375,200510.890625,172642.46875,686617.0,201748.734375,0.098388671875,0.981201171875,-0.2216796875,-1.3122557401657104,-0.2441406100988388,0.8850097060203552,100.0,97687.0,1.0
15:33:50.958018,198796.25,178662.953125,233889.734375,207735.15625,200498.90625,172629.6875,686618.375,201738.890625,0.099365234375,0.980224609375,-0.219970703125,-1.3427733182907104,-0.2136230319738388,0.7629393935203552,100.0,97688.0,1.0
15:33:50.962359,198797.40625,178654.734375,233883.5625,207747.859375,200494.171875,172598.21875,686581.6875,201753.921875,0.10009765625,0.982666015625,-0.221435546875,-1.2817381620407104,-0.2746581733226776,0.6408690810203552,100.0,97689.0,1.0
15:33:50.964788,198798.921875,178655.09375,233881.875,207744.28125,200492.921875,172599.375,686616.9375,201750.78125,0.100341796875,0.981201171875,-0.22509765625,-1.1901854276657104,-0.2441406100988388,0.6408690810203552,100.0,97690.0,1.0
15:33:50.967988,198806.34375,178668.046875,233897.0625,207751.515625,200509.375,172638.0,686629.0625,201754.984375,0.1005859375,0.983154296875,-0.2236328125,-1.2207030057907104,-0.2441406100988388,0.7324218153953552,100.0,97691.0,1.0
15:33:50.968000,198803.046875,178666.796875,233890.359375,207739.359375,200502.21875,172635.140625,686620.4375,201744.0,0.100341796875,0.98291015625,-0.22314453125,-1.2512205839157104,-0.2441406100988388,0.6408690810203552,100.0,97692.0,1.0
15:33:50.969832,198794.546875,178654.734375,233875.609375,207736.3125,200488.0,172600.890625,686606.1875,201744.4375,0.102294921875,0.9833984375,-0.222412109375,-1.1596678495407104,-0.1831054538488388,0.7324218153953552,100.0,97693.0,1.0
15:33:50.972354,198794.8125,178654.90625,233874.453125,207736.765625,200485.953125,172596.328125,686616.125,201742.390625,0.100830078125,0.980712890625,-0.224853515625,-1.2207030057907104,-0.0610351525247097,0.7629393935203552,100.0,97694.0,1.0
15:33:50.974828,198802.59375,178668.59375,233890.546875,207740.875,200504.015625,172637.1875,686629.6875,201745.421875,0.099853515625,0.98291015625,-0.22509765625,-1.1291502714157104,-0.1220703050494194,0.7629393935203552,100.0,97695.0,1.0
15:33:50.985430,198805.984375,178673.5,233893.84375,207734.078125,200504.359375,172647.46875,686617.5625,201738.453125,0.099365234375,0.982421875,-0.221923828125,-1.1901854276657104,-0.0915527269244194,0.7019042372703552,100.0,97696.0,1.0
15:33:50.985454,198802.0625,178666.078125,233885.625,207734.703125,200493.734375,172614.125,686626.25,201743.8125,0.10009765625,0.982666015625,-0.22119140625,-1.1901854276657104,0.03051757626235485,0.6713866591453552,100.0,97697.0,1.0
15:33:50.988012,198800.1875,178662.859375,233879.09375,207736.765625,200488.71875,172598.84375,686614.875,201745.875,0.1025390625,0.9814453125,-0.224365234375,-1.1291502714157104,0.1220703050494194,0.7934569716453552,100.0,97698.0,1.0
15:33:50.988050,198798.484375,178662.6875,233882.671875,207734.796875,200495.421875,172623.515625,686642.3125,201741.140625,0.099609375,0.98388671875,-0.221923828125,-1.1291502714157104,0.1831054538488388,0.7019042372703552,100.0,97699.0,1.0
15:33:50.994928,198801.15625,178667.515625,233887.40625,207733.1875,200499.0,172640.953125,686623.8125,201737.28125,0.100341796875,0.9833984375,-0.221435546875,-1.1596678495407104,0.2441406100988388,0.7629393935203552,100.0,97700.0,1.0
15:33:51.001708,198802.140625,178663.84375,233881.0625,207738.375,200494.078125,172617.875,686633.0,201746.671875,0.10009765625,0.98388671875,-0.22607421875,-1.0986326932907104,0.3662109076976776,0.7324218153953552,100.0,97701.0,1.0
15:33:51.001756,198798.21875,178655.796875,233871.953125,207739.265625,200486.03125,172595.078125,686604.375,201750.25,0.099853515625,0.9833984375,-0.2255859375,-1.0986326932907104,0.3662109076976776,0.7934569716453552,100.0,97702.0,1.0
15:33:51.008041,198800.265625,178661.171875,233878.65625,207738.828125,200493.640625,172621.71875,686637.9375,201747.921875,0.100341796875,0.98291015625,-0.224365234375,-1.0986326932907104,0.3662109076976776,0.6713866591453552,100.0,97703.0,1.0
15:33:51.008091,198801.78125,178666.53125,233887.0625,207734.53125,200499.453125,172646.9375,686618.1875,201740.78125,0.09912109375,0.9833984375,-0.2236328125,-1.0681151151657104,0.4272460639476776,0.6713866591453552,100.0,97704.0,1.0
15:33:51.010468,198794.1875,178656.875,233873.734375,207727.015625,200485.859375,172620.390625,686627.5625,201736.65625,0.099853515625,0.984619140625,-0.225830078125,-1.0681151151657104,0.3967284858226776,0.7019042372703552,100.0,97705.0,1.0
15:33:51.030077,198787.125,178643.546875,233863.71875,207729.34375,200475.84375,172594.71875,686594.3125,201741.765625,0.09912109375,0.985107421875,-0.222900390625,-1.1901854276657104,0.4272460639476776,0.6408690810203552,100.0,97706.0,1.0
15:33:51.030171,198792.3125,178651.25,233871.140625,207730.0625,200484.078125,172633.53125,686637.5,201743.09375,0.097900390625,0.983154296875,-0.223876953125,-1.1901854276657104,0.3356933295726776,0.6713866591453552,100.0,97707.0,1.0
15:33:51.030201,198794.28125,178657.140625,233878.921875,207728.625,200493.28125,172663.296875,686610.3125,201738.890625,0.098388671875,0.9833984375,-0.22607421875,-1.2207030057907104,0.3662109076976776,0.6103515028953552,100.0,97708.0,1.0
15:33:51.030844,198795.078125,178656.96875,233874.265625,207726.296875,200487.5625,172648.90625,686629.6875,201737.828125,0.097900390625,0.98291015625,-0.2255859375,-1.2207030057907104,0.3967284858226776,0.5798339247703552,100.0,97709.0,1.0
15:33:51.031528,198793.75,178650.171875,233870.96875,207737.03125,200484.515625,172618.15625,686614.25,201752.046875,0.099853515625,0.9833984375,-0.227294921875,-1.1901854276657104,0.3967284858226776,0.4577636420726776,100.0,97710.0,1.0
15:33:51.033763,198788.921875,178648.734375,233866.40625,207729.25,200481.484375,172619.765625,686636.6875,201743.546875,0.09912109375,0.982421875,-0.226806640625,-1.2207030057907104,0.3662109076976776,0.5187987685203552,100.0,97711.0,1.0
15:33:51.039905,198793.203125,178660.546875,233878.734375,207730.421875,200495.0625,172652.390625,686614.75,201741.84375,0.098388671875,0.981689453125,-0.224853515625,-1.1901854276657104,0.4272460639476776,0.5187987685203552,100.0,97712.0,1.0
15:33:51.046138,198795.796875,178663.140625,233875.078125,207725.140625,200488.546875,172645.15625,686620.75,201735.953125,0.0966796875,0.9814453125,-0.228271484375,-1.2512205839157104,0.3662109076976776,0.4882812201976776,100.0,97713.0,1.0
15:33:51.053010,198797.234375,178659.734375,233870.875,207734.53125,200485.59375,172617.34375,686597.4375,201749.71875,0.09814453125,0.982666015625,-0.225341796875,-1.2207030057907104,0.3662109076976776,0.7019042372703552,100.0,97714.0,1.0
15:33:51.053087,198796.328125,178658.75,233869.0,207732.109375,200485.140625,172616.71875,686620.6875,201746.234375,0.0986328125,0.982177734375,-0.22509765625,-1.1596678495407104,0.3051757514476776,0.7324218153953552,100.0,97715.0,1.0
15:33:51.059257,198798.921875,178665.640625,233881.15625,207734.53125,200497.921875,172650.34375,686622.625,201745.78125,0.097900390625,0.982177734375,-0.22509765625,-1.1901854276657104,0.3051757514476776,0.7019042372703552,100.0,97716.0,1.0
15:33:51.059328,198797.5,178663.484375,233876.234375,207725.140625,200489.875,172645.78125,686621.0625,201734.96875,0.098876953125,0.981689453125,-0.223388671875,-1.1901854276657104,0.2441406100988388,0.6713866591453552,100.0,97717.0,1.0
15:33:51.061216,198795.171875,178654.734375,233869.53125,207729.796875,200483.4375,172613.40625,686620.9375,201745.0625,0.097412109375,0.981689453125,-0.22412109375,-1.2207030057907104,0.2136230319738388,0.5493163466453552,100.0,97718.0,1.0
15:33:51.067440,198790.078125,178647.3125,233861.9375,207724.25,200475.84375,172600.71875,686616.9375,201741.21875,0.096923828125,0.982421875,-0.224853515625,-1.2512205839157104,0.3051757514476776,0.6408690810203552,100.0,97719.0,1.0
15:33:51.077544,198787.484375,178647.125,233866.671875,207722.90625,200484.25,172627.453125,686614.0625,201737.46875,0.096435546875,0.98193359375,-0.22412109375,-1.2512205839157104,0.2746581733226776,0.7324218153953552,100.0,97720.0,1.0
15:33:51.080723,198786.046875,178648.109375,233864.796875,207716.828125,200482.546875,172634.421875,686608.875,201731.03125,0.09765625,0.9814453125,-0.224853515625,-1.2207030057907104,0.2746581733226776,0.7324218153953552,100.0,97721.0,1.0
15:33:51.080795,198782.828125,178643.015625,233858.53125,207719.953125,200474.6875,172606.34375,686597.0,201740.421875,0.09814453125,0.982177734375,-0.223876953125,-1.1901854276657104,0.1220703050494194,0.6713866591453552,100.0,97722.0,1.0
15:33:51.096198,198782.390625,178639.703125,233854.515625,207721.828125,200469.5,172591.5,686590.75,201740.421875,0.097900390625,0.982177734375,-0.225341796875,-1.1596678495407104,0.2136230319738388,0.6408690810203552,100.0,97723.0,1.0
15:33:51.096271,198786.953125,178648.65625,233865.59375,207722.453125,200482.109375,172623.515625,686627.375,201738.625,0.09716796875,0.98046875,-0.22412109375,-1.1596678495407104,0.1220703050494194,0.7324218153953552,100.0,97724.0,1.0
15:33:51.096297,198788.015625,178652.5,233869.4375,207716.203125,200486.65625,172639.15625,686612.4375,201731.921875,0.098876953125,0.979248046875,-0.223876953125,-1.1596678495407104,0.1525878757238388,0.7324218153953552,100.0,97725.0,1.0
15:33:51.099226,198786.234375,178646.0625,233861.578125,207718.703125,200478.703125,172612.875,686616.9375,201736.9375,0.100341796875,0.9794921875,-0.225830078125,-1.0986326932907104,0.0915527269244194,0.8239745497703552,100.0,97726.0,1.0
15:33:51.099302,198788.734375,178645.15625,233860.328125,207726.484375,200476.5625,172596.0625,686615.75,201744.796875,0.0986328125,0.98046875,-0.223388671875,-1.1901854276657104,0.0915527269244194,0.7934569716453552,100.0,97727.0,1.0
15:33:51.101152,198790.25,178652.5,233866.21875,207725.671875,200484.515625,172622.703125,686633.625,201740.0625,0.09765625,0.9794921875,-0.224609375,-1.0986326932907104,0.0,0.7934569716453552,100.0,97728.0,1.0
15:33:51.111319,198789.984375,178658.03125,233871.859375,207727.828125,200489.25,172646.765625,686596.25,201731.921875,0.09912109375,0.978759765625,-0.22509765625,-1.0070799589157104,-0.0610351525247097,0.7324218153953552,100.0,97729.0,1.0
15:33:51.115559,198789.453125,178654.015625,233864.796875,207730.234375,200480.5,172624.671875,686612.875,201733.0,0.0986328125,0.979248046875,-0.22265625,-1.0070799589157104,0.03051757626235485,0.7934569716453552,100.0,97730.0,1.0
15:33:51.115632,198785.421875,178643.90625,233854.78125,207727.203125,200470.125,172595.703125,686600.5625,201735.59375,0.09912109375,0.97998046875,-0.22509765625,-1.0070799589157104,0.0,0.7629393935203552,100.0,97731.0,1.0
15:33:51.123905,198793.109375,178655.09375,233864.609375,207727.375,200480.046875,172619.21875,686639.25,201735.140625,0.099853515625,0.98193359375,-0.22607421875,-1.0986326932907104,-0.03051757626235485,0.6713866591453552,100.0,97732.0,1.0
15:33:51.127974,198795.078125,178662.59375,233874.890625,207724.96875,200488.09375,172646.3125,686616.5,201731.484375,0.1005859375,0.98193359375,-0.226806640625,-1.1291502714157104,-0.03051757626235485,0.6713866591453552,100.0,97733.0,1.0
15:33:51.128044,198791.5,178657.140625,233866.40625,207714.6875,200476.296875,172626.46875,686630.5,201724.40625,0.099365234375,0.982666015625,-0.228759765625,-1.0986326932907104,0.03051757626235485,0.5798339247703552,100.0,97734.0,1.0
15:33:51.135288,198791.859375,178651.953125,233860.953125,207722.640625,200471.375,172599.203125,686610.125,201735.953125,0.099853515625,0.983642578125,-0.22900390625,-1.0986326932907104,-0.0610351525247097,0.6103515028953552,100.0,97735.0,1.0
15:33:51.141828,198796.609375,178657.765625,233863.09375,207722.90625,200475.484375,172611.53125,686641.875,201732.734375,0.100830078125,0.984130859375,-0.227783203125,-1.1596678495407104,-0.0610351525247097,0.5187987685203552,100.0,97736.0,1.0
15:33:51.141914,198802.859375,178667.78125,233877.671875,207725.234375,200489.4375,172649.4375,686631.4375,201731.75,0.1005859375,0.983642578125,-0.226318359375,-1.1596678495407104,0.03051757626235485,0.5187987685203552,100.0,97737.0,1.0
15:33:51.148629,198801.15625,178665.640625,233871.765625,207714.6875,200480.9375,172640.140625,686636.5,201723.96875,0.100830078125,0.984130859375,-0.22509765625,-1.1291502714157104,0.0610351525247097,0.5493163466453552,100.0,97738.0,1.0
15:33:51.148713,198797.9375,178654.375,233862.5625,207719.875,200472.71875,172606.078125,686614.25,201733.265625,0.09912109375,0.98193359375,-0.225830078125,-1.0986326932907104,0.03051757626235485,0.4577636420726776,100.0,97739.0,1.0
15:33:51.157329,198801.515625,178656.96875,233862.203125,207722.1875,200474.140625,172608.671875,686642.3125,201733.53125,0.100341796875,0.982177734375,-0.228271484375,-1.0986326932907104,0.03051757626235485,0.4272460639476776,100.0,97740.0,1.0
15:33:51.161586,198811.09375,178672.078125,233878.03125,207731.21875,200493.015625,172651.140625,686641.0,201738.71875,0.09912109375,0.980224609375,-0.2275390625,-1.0681151151657104,-0.0610351525247097,0.3967284858226776,100.0,97741.0,1.0
15:33:51.161600,198818.15625,178680.21875,233882.765625,207733.375,200495.25,172659.453125,686639.0,201736.84375,0.0986328125,0.982421875,-0.225830078125,-0.9765624403953552,0.0610351525247097,0.4272460639476776,100.0,97742.0,1.0
15:33:51.167853,198819.578125,178675.734375,233880.53125,207747.046875,200493.90625,172632.640625,686633.1875,201753.65625,0.098876953125,0.982177734375,-0.2275390625,-1.0070799589157104,0.03051757626235485,0.3967284858226776,100.0,97743.0,1.0
15:33:51.167868,198819.140625,178676.359375,233880.0,207750.0,200492.296875,172628.796875,686633.8125,201754.28125,0.09814453125,0.98193359375,-0.2265625,-1.0375975370407104,0.03051757626235485,0.4882812201976776,100.0,97744.0,1.0
15:33:51.169774,198817.875,178682.265625,233888.671875,207748.828125,200503.921875,172663.5625,686653.75,201754.546875,0.09912109375,0.984375,-0.22705078125,-0.9765624403953552,0.1220703050494194,0.4882812201976776,100.0,97745.0,1.0
15:33:51.177399,198818.953125,178686.46875,233892.59375,207744.28125,200504.984375,172675.28125,686639.25,201748.46875,0.099853515625,0.98193359375,-0.22705078125,-1.0375975370407104,0.03051757626235485,0.5187987685203552,100.0,97746.0,1.0
15:33:51.185349,198813.5,178675.46875,233881.875,207747.21875,200492.828125,172643.625,686642.875,201752.671875,0.0986328125,0.981689453125,-0.225341796875,-1.0070799589157104,0.0610351525247097,0.6103515028953552,100.0,97747.0,1.0
15:33:51.185370,198800.8125,178659.640625,233866.578125,207735.875,200477.359375,172614.125,686623.5625,201743.015625,0.098876953125,0.982177734375,-0.227783203125,-1.0375975370407104,0.0,0.5798339247703552,100.0,97748.0,1.0
15:33:51.192821,198794.015625,178655.265625,233866.3125,207725.140625,200478.703125,172631.109375,686632.0625,201733.71875,0.097900390625,0.98388671875,-0.22900390625,-1.0070799589157104,0.03051757626235485,0.6103515028953552,100.0,97749.0,1.0
15:33:51.192838,198790.078125,178653.5625,233864.34375,207716.375,200475.578125,172641.84375,686617.625,201722.984375,0.095947265625,0.98291015625,-0.227294921875,-1.0986326932907104,0.0,0.6408690810203552,100.0,97750.0,1.0
15:33:51.194750,198784.890625,178643.828125,233853.078125,207716.375,200466.1875,172611.890625,686621.6875,201726.5625,0.096435546875,0.982421875,-0.22802734375,-1.0375975370407104,0.03051757626235485,0.5493163466453552,100.0,97751.0,1.0
15:33:51.206087,198774.78125,178629.34375,233838.15625,207711.734375,200453.5,172580.59375,686599.5,201725.125,0.09814453125,0.9814453125,-0.228759765625,-1.0070799589157104,-0.0610351525247097,0.6713866591453552,100.0,97752.0,1.0
15:33:51.211054,198779.703125,178635.78125,233846.90625,207710.84375,200463.78125,172605.984375,686641.9375,201725.578125,0.096923828125,0.982177734375,-0.22607421875,-0.9765624403953552,-0.0915527269244194,0.6713866591453552,100.0,97753.0,1.0
15:33:51.211108,198780.59375,178639.53125,233852.359375,207710.21875,200469.765625,172629.234375,686615.5,201722.09375,0.09765625,0.981689453125,-0.226318359375,-1.0986326932907104,-0.0610351525247097,0.6713866591453552,100.0,97754.0,1.0
15:33:51.211121,198775.859375,178632.734375,233839.671875,207706.90625,200457.25,172605.625,686618.625,201718.78125,0.097412109375,0.984130859375,-0.2275390625,-1.1291502714157104,-0.03051757626235485,0.6103515028953552,100.0,97755.0,1.0
15:33:51.213543,198771.484375,178627.015625,233831.265625,207708.421875,200448.75,172578.09375,686595.9375,201721.546875,0.09716796875,0.983642578125,-0.227294921875,-1.0375975370407104,-0.03051757626235485,0.6713866591453552,100.0,97756.0,1.0
15:33:51.217451,198775.859375,178635.859375,233838.15625,207708.875,200456.796875,172598.65625,686638.5,201719.671875,0.099365234375,0.98095703125,-0.2294921875,-1.0070799589157104,-0.0610351525247097,0.7629393935203552,100.0,97757.0,1.0
15:33:51.224844,198781.578125,178646.859375,233850.484375,207712.890625,200472.0,172633.171875,686618.375,201721.1875,0.099609375,0.98193359375,-0.23193359375,-0.9765624403953552,-0.1220703050494194,0.8239745497703552,100.0,97758.0,1.0
15:33:51.232940,198778.984375,178644.0,233842.4375,207708.15625,200462.796875,172619.046875,686625.75,201717.171875,0.098388671875,0.982421875,-0.23046875,-1.0375975370407104,-0.1220703050494194,0.7324218153953552,100.0,97759.0,1.0
15:33:51.232961,198775.953125,178636.3125,233833.859375,207714.0625,200454.296875,172590.171875,686595.5625,201724.765625,0.098388671875,0.983154296875,-0.2275390625,-0.9765624403953552,-0.1831054538488388,0.6408690810203552,100.0,97760.0,1.0
15:33:51.234766,198775.953125,178635.78125,233834.3125,207709.234375,200453.40625,172596.953125,686637.0625,201718.328125,0.09619140625,0.982177734375,-0.22607421875,-0.9460448622703552,-0.2136230319738388,0.6103515028953552,100.0,97761.0,1.0
15:33:51.264985,198781.3125,178644.890625,233848.15625,207715.578125,200467.890625,172632.28125,686638.8125,201719.234375,0.095458984375,0.9814453125,-0.225341796875,-1.0070799589157104,-0.3356933295726776,0.5493163466453552,100.0,97762.0,1.0
15:33:51.310293,198781.140625,178644.359375,233845.921875,207710.390625,200461.09375,172625.03125,686641.0,201711.453125,0.094970703125,0.978515625,-0.224609375,-0.9765624403953552,-0.3967284858226776,0.5493163466453552,100.0,97763.0,1.0
15:33:51.310307,198775.5,178633.625,233838.5,207711.90625,200449.921875,172591.15625,686607.6875,201717.171875,0.09619140625,0.97802734375,-0.22607421875,-1.0681151151657104,-0.3356933295726776,0.5493163466453552,100.0,97764.0,1.0
15:33:51.312344,198779.53125,178639.265625,233841.09375,207710.484375,200452.875,172596.953125,686630.6875,201716.8125,0.09765625,0.976318359375,-0.226318359375,-1.0986326932907104,-0.3051757514476776,0.4882812201976776,100.0,97765.0,1.0
15:33:51.314722,198780.234375,178645.875,233851.109375,207712.53125,200467.0,172632.28125,686618.25,201715.921875,0.099853515625,0.9775390625,-0.227783203125,-0.9155272841453552,-0.2441406100988388,0.5187987685203552,100.0,97766.0,1.0
15:33:51.317336,198779.703125,178644.359375,233846.546875,207705.828125,200460.109375,172629.5,686620.5625,201706.078125,0.10009765625,0.977294921875,-0.226806640625,-0.9460448622703552,-0.2746581733226776,0.5798339247703552,100.0,97767.0,1.0
15:33:51.319690,198778.28125,178635.0625,233838.5,207711.640625,200451.34375,172595.984375,686608.0625,201716.71875,0.104248046875,0.978515625,-0.227294921875,-0.8239745497703552,-0.2746581733226776,0.6408690810203552,100.0,97768.0,1.0
15:33:51.322263,198780.421875,178635.6875,233838.859375,207711.828125,200449.828125,172588.5625,686608.0625,201717.4375,0.10546875,0.979248046875,-0.2275390625,-0.8544921278953552,-0.1220703050494194,0.6408690810203552,100.0,97769.0,1.0
15:33:51.324687,198786.40625,178644.8125,233852.71875,207716.375,200465.109375,172621.71875,686622.3125,201718.609375,0.1044921875,0.9775390625,-0.2265625,-0.7324218153953552,-0.1831054538488388,0.6103515028953552,100.0,97770.0,1.0
15:33:51.327273,198791.78125,178651.328125,233856.75,207714.328125,200469.5,172634.15625,686614.625,201715.03125,0.10205078125,0.979736328125,-0.227294921875,-0.7629393935203552,-0.0915527269244194,0.5493163466453552,100.0,97771.0,1.0
15:33:51.329747,198788.734375,178643.46875,233847.453125,207714.765625,200459.578125,172603.484375,686606.75,201722.0,0.1015625,0.981689453125,-0.22900390625,-0.7324218153953552,-0.1525878757238388,0.4882812201976776,100.0,97772.0,1.0
15:33:51.332270,198789.0,178640.515625,233842.53125,207715.578125,200453.671875,172588.640625,686594.5,201721.734375,0.1015625,0.9814453125,-0.22900390625,-0.7019042372703552,0.0,0.4577636420726776,100.0,97773.0,1.0
15:33:51.334753,198791.859375,178647.484375,233850.21875,207717.09375,200464.578125,172617.703125,686618.0,201718.328125,0.0966796875,0.982177734375,-0.228271484375,-0.7324218153953552,0.0,0.3662109076976776,100.0,97774.0,1.0
15:33:51.337437,198789.984375,178648.734375,233852.015625,207711.90625,200464.140625,172632.1875,686601.25,201709.296875,0.096435546875,0.98193359375,-0.2314453125,-0.7629393935203552,0.0610351525247097,0.3051757514476776,100.0,97775.0,1.0
15:33:51.342781,198786.765625,178642.03125,233842.796875,207712.359375,200452.78125,172606.4375,686612.1875,201711.265625,0.095458984375,0.984130859375,-0.2353515625,-0.7629393935203552,-0.0610351525247097,0.3662109076976776,100.0,97776.0,1.0
15:33:51.349750,198788.734375,178639.0,233841.28125,207721.5625,200449.015625,172586.671875,686594.0625,201717.703125,0.098388671875,0.984619140625,-0.23291015625,-0.8850097060203552,-0.1220703050494194,0.3662109076976776,100.0,97777.0,1.0
15:33:51.349767,198789.0,178642.484375,233849.328125,207718.890625,200455.375,172609.390625,686631.75,201711.8125,0.098876953125,0.984619140625,-0.230712890625,-0.8544921278953552,-0.1525878757238388,0.3051757514476776,100.0,97778.0,1.0
15:33:51.349771,198790.96875,178649.359375,233859.078125,207715.21875,200461.359375,172635.40625,686606.1875,201705.640625,0.099853515625,0.986083984375,-0.231201171875,-0.9460448622703552,-0.1220703050494194,0.3967284858226776,100.0,97779.0,1.0
15:33:51.352284,198791.6875,178648.46875,233852.8125,207711.90625,200453.40625,172618.421875,686622.0,201707.421875,0.099853515625,0.98681640625,-0.23046875,-0.9155272841453552,-0.0610351525247097,0.3967284858226776,100.0,97780.0,1.0
15:33:51.354770,198789.09375,178641.3125,233844.671875,207716.734375,200444.734375,172591.0625,686603.9375,201714.578125,0.101318359375,0.987060546875,-0.230224609375,-0.9765624403953552,-0.2136230319738388,0.3051757514476776,100.0,97781.0,1.0
15:33:51.359753,198795.0,178649.8125,233851.828125,207717.90625,200452.78125,172611.625,686631.75,201714.484375,0.100830078125,0.986083984375,-0.231201171875,-1.0986326932907104,-0.1220703050494194,0.2746581733226776,100.0,97782.0,1.0
15:33:51.362207,198797.5,178655.890625,233861.390625,207716.375,200464.046875,172640.234375,686607.0625,201713.0625,0.0986328125,0.988525390625,-0.227294921875,-1.1596678495407104,-0.1220703050494194,0.1525878757238388,100.0,97783.0,1.0
15:33:51.366530,198794.640625,178650.171875,233853.625,207708.6875,200453.5,172622.078125,686622.3125,201707.875,0.095703125,0.988037109375,-0.227294921875,-1.3122557401657104,-0.1220703050494194,-0.0915527269244194,100.0,97784.0,1.0
15:33:51.366539,198791.78125,178640.78125,233845.65625,207715.75,200445.453125,172590.4375,686606.1875,201717.265625,0.093017578125,0.98828125,-0.22802734375,-1.4953612089157104,-0.1525878757238388,-0.1831054538488388,100.0,97785.0,1.0
15:33:51.366540,198788.921875,178638.28125,233841.71875,207710.296875,200442.671875,172595.53125,686630.9375,201709.125,0.09326171875,0.990234375,-0.228515625,-1.5563963651657104,-0.1525878757238388,-0.3051757514476776,100.0,97786.0,1.0
15:33:51.366542,198791.59375,178643.546875,233851.03125,207710.84375,200454.828125,172627.625,686620.4375,201707.421875,0.09326171875,0.988037109375,-0.227294921875,-1.6479490995407104,-0.2136230319738388,-0.3662109076976776,100.0,97787.0,1.0
15:33:51.369072,198793.03125,178644.359375,233847.53125,207705.65625,200450.71875,172622.4375,686616.5,201703.40625,0.09326171875,0.985107421875,-0.227294921875,-1.8005369901657104,-0.3662109076976776,-0.4577636420726776,100.0,97788.0,1.0
