Timestamp,Fz,FC3,FCz,FC4,Cz,C3,C4
15:36:58.627014,198115.046875,180422.3125,231026.03125,208953.59375,199528.046875,175398.265625,686268.0625,200602.453125,0.102783203125,0.979736328125,-0.22607421875,-0.9155272841453552,1.0986326932907104,1.2207030057907104,100.0,144643.0,1.0
15:36:58.627033,198118.453125,180425.796875,231026.921875,208957.890625,199529.46875,175390.21875,686298.625,200607.71875,0.104736328125,0.98095703125,-0.227294921875,-0.9155272841453552,1.1901854276657104,1.0986326932907104,100.0,144644.0,1.0
15:36:58.631948,198118.546875,180431.15625,231033.90625,208957.796875,199540.109375,175420.875,686321.8125,200605.390625,0.10302734375,0.9794921875,-0.2255859375,-0.8850097060203552,1.1596678495407104,1.0986326932907104,100.0,144645.0,1.0
15:36:58.631953,198117.015625,180432.5,231036.5,208951.09375,199540.375,175435.984375,686285.6875,200595.296875,0.104248046875,0.97998046875,-0.224853515625,-0.8850097060203552,1.0375975370407104,1.1901854276657104,100.0,144646.0,1.0
15:36:58.633783,198111.921875,180420.875,231026.390625,208949.84375,199528.84375,175404.34375,686268.125,200595.921875,0.103515625,0.980224609375,-0.224609375,-0.7629393935203552,0.9460448622703552,1.2817381620407104,100.0,144647.0,1.0
15:36:58.646308,198113.890625,180419.984375,231025.671875,208958.515625,199527.421875,175388.96875,686279.4375,200604.0625,0.103271484375,0.979736328125,-0.224609375,-0.7629393935203552,0.9765624403953552,1.3427733182907104,100.0,144648.0,1.0
15:36:58.649412,198112.28125,180422.21875,231027.46875,208955.828125,199530.28125,175408.1875,686320.375,200597.625,0.103515625,0.97900390625,-0.226806640625,-0.7019042372703552,0.8544921278953552,1.4953612089157104,100.0,144649.0,1.0
15:36:58.649419,198115.859375,180430.265625,231034.34375,208954.125,199537.25,175433.3125,686285.5625,200593.5,0.102294921875,0.97900390625,-0.225830078125,-0.8544921278953552,0.8850097060203552,1.5563963651657104,100.0,144650.0,1.0
15:36:58.651310,198124.4375,180436.515625,231036.671875,208957.890625,199539.3125,175423.109375,686286.125,200601.734375,0.10107421875,0.979736328125,-0.223876953125,-0.8850097060203552,0.7934569716453552,1.5563963651657104,100.0,144651.0,1.0
15:36:58.657624,198112.46875,180419.359375,231019.859375,208953.59375,199524.109375,175385.75,686285.875,200598.59375,0.099853515625,0.978515625,-0.225830078125,-0.8239745497703552,0.7324218153953552,1.7089842557907104,100.0,144652.0,1.0
15:36:58.664459,198116.125,180423.640625,231025.140625,208955.03125,199530.453125,175403.359375,686329.9375,200597.265625,0.099853515625,0.97998046875,-0.2265625,-0.7934569716453552,0.6713866591453552,1.7395018339157104,100.0,144653.0,1.0
15:36:58.664470,198117.375,180426.6875,231033.09375,208955.375,199539.03125,175430.796875,686288.5,200595.46875,0.099609375,0.979248046875,-0.229736328125,-0.7629393935203552,0.5187987685203552,1.8920897245407104,100.0,144654.0,1.0
15:36:58.674473,198117.734375,180425.4375,231028.71875,208956.90625,199534.921875,175417.65625,686274.5,200595.65625,0.09765625,0.981201171875,-0.227294921875,-0.9155272841453552,0.3967284858226776,1.9226073026657104,100.0,144655.0,1.0
15:36:58.674481,198117.015625,180421.765625,231023.890625,208966.375,199531.34375,175391.109375,686279.25,200606.640625,0.098876953125,0.98388671875,-0.22705078125,-0.8544921278953552,0.1220703050494194,1.9531248807907104,100.0,144656.0,1.0
15:36:58.676283,198123.09375,180428.390625,231030.40625,208963.421875,199537.96875,175405.234375,686329.375,200606.296875,0.098876953125,0.98583984375,-0.22607421875,-0.9460448622703552,0.0,2.014159917831421,100.0,144657.0,1.0
15:36:58.680109,198126.765625,180435.71875,231039.890625,208962.265625,199548.609375,175436.53125,686296.125,200603.515625,0.098876953125,0.989013671875,-0.22998046875,-1.0070799589157104,-0.1220703050494194,2.014159917831421,100.0,144658.0,1.0
15:36:58.687599,198132.484375,180444.125,231039.4375,208958.328125,199546.453125,175436.96875,686284.6875,200599.578125,0.1005859375,0.990234375,-0.22900390625,-1.1596678495407104,-0.2441406100988388,2.014159917831421,100.0,144659.0,1.0
15:36:58.691984,198130.4375,180435.453125,231032.5625,208966.828125,199541.71875,175405.765625,686292.4375,200611.46875,0.100830078125,0.989501953125,-0.228271484375,-1.4343260526657104,-0.3051757514476776,2.197265386581421,100.0,144660.0,1.0
15:36:58.691997,198127.84375,180433.21875,231028.890625,208963.78125,199537.25,175402.1875,686322.3125,200606.734375,0.1005859375,0.98828125,-0.228515625,-1.4648436307907104,-0.4577636420726776,2.349853277206421,100.0,144661.0,1.0
15:36:58.693790,198126.59375,180438.75,231036.671875,208962.796875,199547.625,175437.0625,686305.25,200604.328125,0.102294921875,0.987548828125,-0.227294921875,-1.5258787870407104,-0.5493163466453552,2.471923589706421,100.0,144662.0,1.0
15:36:58.703850,198118.984375,180431.25,231028.453125,208948.765625,199539.75,175432.6875,686277.375,200592.515625,0.10302734375,0.98828125,-0.22802734375,-1.5869139432907104,-0.7019042372703552,2.349853277206421,100.0,144663.0,1.0
15:36:58.709277,198112.546875,180420.421875,231018.703125,208951.265625,199532.515625,175399.875,686290.6875,200601.1875,0.106201171875,0.98583984375,-0.230224609375,-1.7089842557907104,-0.6713866591453552,2.319335699081421,100.0,144664.0,1.0
15:36:58.709286,198119.703125,180428.296875,231023.34375,208959.5,199536.265625,175400.40625,686313.1875,200606.296875,0.107177734375,0.985107421875,-0.230712890625,-1.9531248807907104,-0.6408690810203552,2.227782964706421,100.0,144665.0,1.0
15:36:58.718138,198129.890625,180442.421875,231040.25,208966.734375,199554.953125,175441.890625,686309.25,200611.296875,0.1083984375,0.986572265625,-0.23046875,-1.9531248807907104,-0.6713866591453552,2.380370855331421,100.0,144666.0,1.0
15:36:58.718147,198129.71875,180439.46875,231041.140625,208958.328125,199550.9375,175444.65625,686281.5625,200601.640625,0.109130859375,0.985107421875,-0.228759765625,-2.136230230331421,-0.6408690810203552,2.380370855331421,100.0,144667.0,1.0
15:36:58.723206,198129.8125,180435.984375,231039.171875,208963.875,199545.75,175417.21875,686279.4375,200612.375,0.112548828125,0.984130859375,-0.2255859375,-2.227782964706421,-0.7324218153953552,2.349853277206421,100.0,144668.0,1.0
15:36:58.723213,198120.421875,180426.6875,231026.921875,208957.34375,199534.65625,175396.03125,686295.9375,200607.0,0.11181640625,0.982666015625,-0.226806640625,-2.288818120956421,-0.6713866591453552,2.319335699081421,100.0,144669.0,1.0
15:36:58.725056,198121.140625,180434.109375,231032.65625,208956.28125,199541.1875,175425.796875,686315.25,200600.484375,0.1142578125,0.981689453125,-0.22802734375,-2.258300542831421,-0.7019042372703552,2.349853277206421,100.0,144670.0,1.0
15:36:58.738207,198132.046875,180447.609375,231046.6875,208959.9375,199554.421875,175455.125,686299.4375,200603.25,0.11328125,0.98291015625,-0.224365234375,-2.319335699081421,-0.6408690810203552,2.319335699081421,100.0,144671.0,1.0
15:36:58.738221,198132.3125,180444.5625,231039.625,208963.15625,199548.421875,175431.15625,686284.0625,200610.40625,0.113525390625,0.98046875,-0.22509765625,-2.441406011581421,-0.5187987685203552,2.319335699081421,100.0,144672.0,1.0
15:36:58.740665,198130.25,180438.484375,231033.0,208965.671875,199541.0,175407.921875,686279.3125,200613.890625,0.1142578125,0.983642578125,-0.226318359375,-2.349853277206421,-0.4272460639476776,2.349853277206421,100.0,144673.0,1.0
15:36:58.740716,198128.015625,180440.640625,231035.515625,208959.140625,199546.015625,175429.109375,686327.25,200607.984375,0.115234375,0.9814453125,-0.22802734375,-2.502441167831421,-0.2746581733226776,2.349853277206421,100.0,144674.0,1.0
15:36:58.750085,198126.140625,180441.703125,231041.859375,208955.921875,199551.375,175450.109375,686296.75,200602.53125,0.115478515625,0.9833984375,-0.228271484375,-2.502441167831421,-0.3051757514476776,2.288818120956421,100.0,144675.0,1.0
15:36:58.753160,198118.359375,180432.3125,231027.90625,208948.40625,199538.765625,175425.0,686284.5,200598.515625,0.116455078125,0.980224609375,-0.22412109375,-2.593993902206421,-0.1525878757238388,2.197265386581421,100.0,144676.0,1.0
15:36:58.753169,198125.96875,180437.234375,231030.40625,208962.09375,199542.4375,175408.71875,686283.625,200614.609375,0.11669921875,0.982177734375,-0.223876953125,-2.655029058456421,-0.1831054538488388,2.075195074081421,100.0,144677.0,1.0
15:36:58.758843,198132.21875,180446.453125,231039.625,208966.375,199554.234375,175431.34375,686327.75,200618.1875,0.115966796875,0.983642578125,-0.220947265625,-2.685546636581421,0.03051757626235485,2.075195074081421,100.0,144678.0,1.0
15:36:58.769397,198131.59375,180451.71875,231047.84375,208966.46875,199563.890625,175461.65625,686297.9375,200615.046875,0.1171875,0.98291015625,-0.219482421875,-2.716064214706421,0.1220703050494194,1.9836424589157104,100.0,144679.0,1.0
15:36:58.769406,198128.015625,180450.640625,231040.875,208959.5,199555.84375,175450.296875,686283.875,200608.96875,0.1171875,0.9814453125,-0.2216796875,-2.746581792831421,0.2441406100988388,1.8310545682907104,100.0,144680.0,1.0
15:36:58.771309,198122.203125,180439.296875,231032.46875,208965.484375,199546.546875,175417.21875,686277.0625,200616.578125,0.116455078125,0.98046875,-0.222412109375,-2.685546636581421,0.3051757514476776,1.7700194120407104,100.0,144681.0,1.0
15:36:58.782015,198116.390625,180430.703125,231025.40625,208955.296875,199539.9375,175413.28125,686318.6875,200607.28125,0.116455078125,0.9794921875,-0.22119140625,-2.655029058456421,0.5187987685203552,1.6174315214157104,100.0,144682.0,1.0
15:36:58.782028,198119.875,180437.0625,231035.328125,208957.078125,199552.453125,175445.5625,686296.5,200606.109375,0.116455078125,0.979736328125,-0.220703125,-2.685546636581421,0.5187987685203552,1.3427733182907104,100.0,144683.0,1.0
15:36:58.784506,198129.09375,180446.625,231040.34375,208958.953125,199554.0625,175447.703125,686288.625,200608.171875,0.116943359375,0.978515625,-0.22119140625,-2.624511480331421,0.6103515028953552,1.2817381620407104,100.0,144684.0,1.0
15:36:58.784513,198123.28125,180435.8125,231032.015625,208964.0625,199546.28125,175413.453125,686283.8125,200618.625,0.11767578125,0.978515625,-0.2216796875,-2.593993902206421,0.7324218153953552,1.0986326932907104,100.0,144685.0,1.0
15:36:58.795069,198116.75,180430.265625,231025.234375,208956.28125,199540.109375,175407.921875,686317.125,200610.3125,0.116455078125,0.977294921875,-0.22021484375,-2.502441167831421,0.7019042372703552,0.9765624403953552,100.0,144686.0,1.0
15:36:58.799435,198121.9375,180439.46875,231036.765625,208961.46875,199553.96875,175445.203125,686309.25,200612.015625,0.11328125,0.97900390625,-0.220947265625,-2.471923589706421,0.7629393935203552,0.8544921278953552,100.0,144687.0,1.0
15:36:58.799453,198120.15625,180438.3125,231033.09375,208954.484375,199548.875,175445.46875,686290.9375,200601.8125,0.113525390625,0.980224609375,-0.218505859375,-2.502441167831421,0.8850097060203552,0.8544921278953552,100.0,144688.0,1.0
15:36:58.829997,198111.828125,180423.734375,231021.65625,208956.015625,199537.515625,175407.296875,686279.4375,200608.796875,0.113037109375,0.9814453125,-0.216796875,-2.410888433456421,0.8544921278953552,0.6408690810203552,100.0,144689.0,1.0
15:36:58.830016,198119.703125,180430.984375,231025.578125,208964.328125,199541.90625,175406.484375,686301.375,200615.046875,0.11376953125,0.981201171875,-0.21728515625,-2.319335699081421,0.8239745497703552,0.3662109076976776,100.0,144690.0,1.0
15:36:58.850668,198125.421875,180443.046875,231037.75,208971.03125,199556.828125,175445.015625,686308.0,200617.375,0.11328125,0.978759765625,-0.214599609375,-2.227782964706421,0.8850097060203552,0.3051757514476776,100.0,144691.0,1.0
15:36:58.850683,198121.484375,180440.8125,231033.546875,208959.671875,199549.953125,175447.171875,686285.0625,200604.5,0.11328125,0.9794921875,-0.21826171875,-2.227782964706421,0.8850097060203552,0.2136230319738388,100.0,144692.0,1.0
15:36:58.860062,198120.78125,180435.09375,231028.53125,208962.0,199543.859375,175421.5,686276.125,200610.5,0.1123046875,0.97900390625,-0.218505859375,-2.136230230331421,0.8544921278953552,0.1831054538488388,100.0,144693.0,1.0
15:36:58.860082,198117.734375,180430.265625,231023.0,208961.8125,199537.703125,175405.140625,686302.375,200610.765625,0.111083984375,0.97900390625,-0.2197265625,-2.105712652206421,0.8239745497703552,0.1831054538488388,100.0,144694.0,1.0
15:36:58.860086,198122.5625,180437.5,231033.28125,208964.140625,199547.4375,175433.84375,686331.4375,200611.46875,0.109130859375,0.981201171875,-0.216552734375,-1.9531248807907104,0.8850097060203552,0.0915527269244194,100.0,144695.0,1.0
15:36:58.864026,198129.453125,180447.078125,231041.5,208965.671875,199554.859375,175455.921875,686297.125,200610.84375,0.109130859375,0.98046875,-0.21630859375,-1.9836424589157104,0.7324218153953552,0.0610351525247097,100.0,144696.0,1.0
15:36:58.864058,198120.859375,180434.109375,231027.28125,208961.375,199540.375,175423.921875,686289.1875,200608.96875,0.10888671875,0.979736328125,-0.21728515625,-1.9531248807907104,0.7324218153953552,0.0610351525247097,100.0,144697.0,1.0
15:36:58.864067,198116.9375,180427.484375,231020.40625,208965.75,199533.859375,175401.125,686304.4375,200611.65625,0.108642578125,0.981201171875,-0.216552734375,-1.8615721464157104,0.6103515028953552,0.0,100.0,144698.0,1.0
15:36:58.866959,198121.140625,180435.71875,231029.96875,208968.4375,199544.84375,175429.109375,686323.875,200610.84375,0.109130859375,0.979736328125,-0.215576171875,-1.8310545682907104,0.5187987685203552,0.0,100.0,144699.0,1.0
15:36:58.866979,198119.171875,180435.453125,231033.28125,208961.90625,199546.90625,175447.96875,686276.8125,200602.359375,0.10693359375,0.98046875,-0.21630859375,-1.7395018339157104,0.4882812201976776,0.0610351525247097,100.0,144700.0,1.0
15:36:58.868957,198118.8125,180430.796875,231032.015625,208961.375,199539.484375,175426.875,686272.875,200603.609375,0.106201171875,0.982666015625,-0.218017578125,-1.7089842557907104,0.4272460639476776,0.0610351525247097,100.0,144701.0,1.0
15:36:58.871439,198117.296875,180427.140625,231030.40625,208967.625,199534.484375,175400.5,686296.375,200610.84375,0.10791015625,0.98193359375,-0.217041015625,-1.6784666776657104,0.3662109076976776,0.03051757626235485,100.0,144702.0,1.0
15:36:58.873966,198121.484375,180434.28125,231033.8125,208966.109375,199541.90625,175419.984375,686335.375,200610.140625,0.10693359375,0.98095703125,-0.216796875,-1.5869139432907104,0.2441406100988388,0.1220703050494194,100.0,144703.0,1.0
15:36:58.876504,198121.84375,180437.6875,231038.015625,208965.03125,199549.671875,175447.96875,686301.75,200607.0,0.105712890625,0.98291015625,-0.220458984375,-1.5563963651657104,0.0915527269244194,0.0610351525247097,100.0,144704.0,1.0
15:36:58.878858,198115.234375,180430.703125,231026.03125,208955.109375,199537.15625,175429.828125,686285.25,200599.140625,0.10693359375,0.984130859375,-0.22119140625,-1.4953612089157104,0.1220703050494194,0.2136230319738388,100.0,144705.0,1.0
15:36:58.881341,198106.03125,180416.046875,231017.71875,208954.484375,199526.078125,175393.25,686278.4375,200603.609375,0.10498046875,0.981689453125,-0.219970703125,-1.5563963651657104,-0.0915527269244194,0.3051757514476776,100.0,144706.0,1.0
15:36:58.883833,198103.15625,180413.453125,231017.53125,208948.859375,199523.125,175394.421875,686316.1875,200597.078125,0.10498046875,0.9814453125,-0.216796875,-1.5563963651657104,-0.1525878757238388,0.2746581733226776,100.0,144707.0,1.0
15:36:58.886313,198108.078125,180421.59375,231028.171875,208951.984375,199535.015625,175427.859375,686293.375,200597.796875,0.106689453125,0.97998046875,-0.21826171875,-1.5258787870407104,-0.3356933295726776,0.4577636420726776,100.0,144708.0,1.0
15:36:58.889426,198109.875,180423.5625,231025.046875,208946.265625,199531.0,175424.71875,686275.5625,200591.8125,0.105712890625,0.979736328125,-0.217041015625,-1.5258787870407104,-0.4272460639476776,0.3662109076976776,100.0,144709.0,1.0
15:36:58.889441,198106.5625,180414.171875,231018.796875,208951.453125,199524.109375,175392.625,686262.4375,200602.359375,0.107177734375,0.98046875,-0.218994140625,-1.4343260526657104,-0.4272460639476776,0.3356933295726776,100.0,144710.0,1.0
15:36:58.891337,198103.34375,180412.109375,231015.296875,208945.640625,199520.4375,175390.390625,686306.125,200597.078125,0.106201171875,0.979736328125,-0.218505859375,-1.3427733182907104,-0.5493163466453552,0.3662109076976776,100.0,144711.0,1.0
15:36:58.906301,198103.15625,180417.390625,231028.71875,208945.28125,199531.796875,175423.921875,686320.875,200594.9375,0.105224609375,0.98046875,-0.220947265625,-1.4038084745407104,-0.6103515028953552,0.4272460639476776,100.0,144712.0,1.0
15:36:58.909441,198110.765625,180427.40625,231037.296875,208945.453125,199536.0,175433.390625,686292.375,200594.671875,0.105712890625,0.9814453125,-0.220947265625,-1.4343260526657104,-0.7629393935203552,0.4882812201976776,100.0,144713.0,1.0
15:36:58.910484,198115.5,180426.234375,231034.96875,208959.859375,199537.875,175408.09375,686288.0625,200611.5625,0.10791015625,0.982666015625,-0.22021484375,-1.3732908964157104,-0.7019042372703552,0.4882812201976776,100.0,144714.0,1.0
15:36:58.911352,198114.15625,180425.703125,231028.359375,208959.140625,199535.28125,175400.765625,686322.0,200610.40625,0.109130859375,0.98193359375,-0.218017578125,-1.2817381620407104,-0.7019042372703552,0.3662109076976776,100.0,144715.0,1.0
15:36:58.915288,198110.578125,180428.828125,231031.125,208955.203125,199542.53125,175430.265625,686318.0625,200604.6875,0.10791015625,0.98046875,-0.2197265625,-1.4038084745407104,-0.7934569716453552,0.4882812201976776,100.0,144716.0,1.0
15:36:58.917781,198111.921875,180433.578125,231032.46875,208947.96875,199542.078125,175442.34375,686286.5,200595.734375,0.1083984375,0.981201171875,-0.220947265625,-1.3427733182907104,-0.8239745497703552,0.5493163466453552,100.0,144717.0,1.0
15:36:58.923199,198115.5,180431.0625,231030.765625,208956.546875,199540.203125,175418.640625,686279.5625,200609.234375,0.109619140625,0.981201171875,-0.2197265625,-1.4648436307907104,-0.7324218153953552,0.5798339247703552,100.0,144718.0,1.0
15:36:58.923266,198118.90625,180429.90625,231029.609375,208965.390625,199540.203125,175404.875,686290.5,200617.5625,0.110595703125,0.98095703125,-0.221923828125,-1.4038084745407104,-0.7934569716453552,0.6408690810203552,100.0,144719.0,1.0
15:36:58.928169,198126.5,180442.953125,231045.171875,208972.90625,199556.65625,175440.28125,686322.0,200620.859375,0.111328125,0.983154296875,-0.22216796875,-1.4343260526657104,-0.7934569716453552,0.5187987685203552,100.0,144720.0,1.0
15:36:58.928180,198132.046875,180454.9375,231053.921875,208972.1875,199564.96875,175466.125,686291.0625,200617.46875,0.11181640625,0.9833984375,-0.22119140625,-1.4038084745407104,-0.8239745497703552,0.4577636420726776,100.0,144721.0,1.0
15:36:58.937617,198124.625,180443.046875,231039.796875,208965.9375,199552.265625,175435.546875,686280.0625,200614.421875,0.111083984375,0.983642578125,-0.22314453125,-1.4648436307907104,-0.8239745497703552,0.4272460639476776,100.0,144722.0,1.0
15:36:58.940715,198122.828125,180435.8125,231033.28125,208968.796875,199548.609375,175411.84375,686283.1875,200619.96875,0.11083984375,0.986083984375,-0.221435546875,-1.5258787870407104,-0.7629393935203552,0.5493163466453552,100.0,144723.0,1.0
15:36:58.940727,198123.546875,180438.84375,231037.5625,208968.078125,199555.484375,175432.234375,686321.875,200617.375,0.111328125,0.9853515625,-0.22119140625,-1.5563963651657104,-0.7629393935203552,0.5493163466453552,100.0,144724.0,1.0
15:36:58.946401,198121.3125,180440.546875,231040.6875,208962.984375,199558.078125,175452.625,686290.0625,200609.15625,0.11083984375,0.984619140625,-0.22119140625,-1.6174315214157104,-0.7019042372703552,0.7629393935203552,100.0,144725.0,1.0
15:36:58.955060,198131.140625,180446.625,231044.1875,208972.640625,199559.78125,175444.578125,686287.125,200617.015625,0.11279296875,0.9873046875,-0.22265625,-1.5869139432907104,-0.6713866591453552,0.7934569716453552,100.0,144726.0,1.0
15:36:58.959438,198128.828125,180441.0,231037.46875,208980.59375,199552.546875,175417.84375,686285.25,200624.078125,0.11279296875,0.98583984375,-0.220703125,-1.6479490995407104,-0.6408690810203552,0.7934569716453552,100.0,144727.0,1.0
15:36:58.959445,198130.703125,180445.015625,231041.046875,208978.625,199557.71875,175434.46875,686324.5625,200621.9375,0.112548828125,0.981689453125,-0.22216796875,-1.6174315214157104,-0.5798339247703552,0.8544921278953552,100.0,144728.0,1.0
15:36:58.961324,198128.375,180446.09375,231045.609375,208973.703125,199563.53125,175460.21875,686293.375,200615.3125,0.11181640625,0.982666015625,-0.220458984375,-1.6174315214157104,-0.5798339247703552,0.7019042372703552,100.0,144729.0,1.0
15:36:58.971303,198120.859375,180438.40625,231033.546875,208966.109375,199549.953125,175442.0625,686279.75,200606.5625,0.112060546875,0.98388671875,-0.22216796875,-1.6784666776657104,-0.5187987685203552,0.7324218153953552,100.0,144730.0,1.0
15:36:58.976938,198114.875,180426.6875,231023.0,208973.4375,199540.203125,175407.640625,686283.375,200614.96875,0.110595703125,0.984619140625,-0.223876953125,-1.8310545682907104,-0.5187987685203552,0.5493163466453552,100.0,144731.0,1.0
15:36:58.976946,198121.9375,180434.90625,231026.921875,208973.265625,199545.921875,175420.796875,686321.1875,200616.84375,0.110595703125,0.982421875,-0.224609375,-1.8920897245407104,-0.4272460639476776,0.5493163466453552,100.0,144732.0,1.0
15:36:58.979404,198132.9375,180450.015625,231045.34375,208980.78125,199565.6875,175464.15625,686309.25,200623.1875,0.11181640625,0.98095703125,-0.22705078125,-1.9531248807907104,-0.3051757514476776,0.6408690810203552,100.0,144733.0,1.0
15:36:58.979407,198123.015625,180438.9375,231032.5625,208963.15625,199551.015625,175449.578125,686291.75,200608.078125,0.11376953125,0.981689453125,-0.2265625,-1.8615721464157104,-0.3356933295726776,0.7019042372703552,100.0,144734.0,1.0
15:36:59.013875,198113.0,180420.703125,231017.890625,208962.09375,199537.15625,175407.203125,686284.25,200612.8125,0.114013671875,0.98046875,-0.2255859375,-1.8005369901657104,-0.2746581733226776,0.5187987685203552,100.0,144735.0,1.0
15:36:59.016922,198115.6875,180421.859375,231019.0625,208962.984375,199538.40625,175406.125,686330.375,200613.0,0.114501953125,0.981689453125,-0.2236328125,-1.8615721464157104,-0.1831054538488388,0.4577636420726776,100.0,144736.0,1.0
15:36:59.016927,198119.4375,180431.25,231029.78125,208966.734375,199552.0,175442.0625,686311.6875,200611.75,0.11181640625,0.984619140625,-0.22119140625,-1.7395018339157104,-0.0915527269244194,0.3662109076976776,100.0,144737.0,1.0
15:36:59.018805,198117.734375,180431.609375,231024.0625,208957.53125,199545.921875,175441.71875,686286.0,200600.390625,0.111083984375,0.98388671875,-0.222412109375,-1.8310545682907104,-0.1525878757238388,0.3051757514476776,100.0,144738.0,1.0
15:36:59.021292,198118.265625,180427.140625,231018.078125,208964.0625,199540.640625,175413.28125,686274.6875,200611.65625,0.11083984375,0.983642578125,-0.221923828125,-1.8920897245407104,-0.0610351525247097,0.3967284858226776,100.0,144739.0,1.0
15:36:59.023783,198114.609375,180423.5625,231012.078125,208962.796875,199534.921875,175400.046875,686308.1875,200609.59375,0.11083984375,0.982177734375,-0.22119140625,-1.9226073026657104,-0.0610351525247097,0.3051757514476776,100.0,144740.0,1.0
15:36:59.026309,198115.953125,180430.078125,231021.203125,208964.953125,199546.109375,175431.4375,686322.875,200610.578125,0.10888671875,0.98095703125,-0.2197265625,-1.8310545682907104,-0.1525878757238388,0.3662109076976776,100.0,144741.0,1.0
15:36:59.028832,198114.78125,180432.140625,231020.578125,208956.8125,199544.21875,175442.0625,686284.9375,200601.015625,0.108642578125,0.980712890625,-0.22119140625,-1.7700194120407104,0.1525878757238388,0.3662109076976776,100.0,144742.0,1.0
15:36:59.031332,198111.296875,180423.640625,231012.796875,208959.40625,199537.078125,175412.203125,686273.125,200607.453125,0.109375,0.981689453125,-0.222900390625,-1.8310545682907104,0.03051757626235485,0.2441406100988388,100.0,144743.0,1.0
15:36:59.036359,198112.90625,180422.9375,231013.6875,208965.21875,199536.796875,175397.90625,686282.25,200614.34375,0.108642578125,0.9833984375,-0.2216796875,-1.8615721464157104,0.0,0.3967284858226776,100.0,144744.0,1.0
15:36:59.038791,198115.140625,180430.0,231021.390625,208965.03125,199547.078125,175429.28125,686301.3125,200614.15625,0.10693359375,0.98486328125,-0.2216796875,-1.9226073026657104,0.0,0.3356933295726776,100.0,144745.0,1.0
15:36:59.041285,198113.796875,180431.15625,231021.828125,208960.03125,199547.53125,175445.109375,686279.3125,200603.515625,0.108642578125,0.984375,-0.221435546875,-2.044677495956421,-0.0610351525247097,0.2441406100988388,100.0,144746.0,1.0
15:36:59.043895,198110.671875,180424.453125,231013.875,208958.59375,199539.3125,175417.484375,686268.0625,200605.484375,0.107177734375,0.98388671875,-0.219482421875,-1.9531248807907104,-0.03051757626235485,0.2441406100988388,100.0,144747.0,1.0
15:36:59.047291,198108.53125,180417.484375,231008.953125,208960.390625,199533.046875,175393.96875,686283.375,200609.78125,0.107177734375,0.98388671875,-0.22265625,-1.9836424589157104,-0.0915527269244194,0.1831054538488388,100.0,144748.0,1.0
15:36:59.047306,198112.734375,180424.09375,231016.828125,208961.015625,199541.90625,175418.828125,686328.9375,200608.609375,0.10498046875,0.983154296875,-0.222900390625,-2.105712652206421,-0.1525878757238388,0.3051757514476776,100.0,144749.0,1.0
15:36:59.049112,198115.046875,180430.53125,231026.296875,208960.390625,199549.859375,175445.015625,686293.875,200606.109375,0.108154296875,0.982666015625,-0.22216796875,-2.197265386581421,-0.1525878757238388,0.1831054538488388,100.0,144750.0,1.0
15:36:59.055723,198113.71875,180427.40625,231018.34375,208955.65625,199541.90625,175426.0625,686278.8125,200604.953125,0.106689453125,0.984130859375,-0.221435546875,-2.197265386581421,-0.1525878757238388,0.2136230319738388,100.0,144751.0,1.0
15:36:59.055730,198108.265625,180416.9375,231009.484375,208958.59375,199532.6875,175395.21875,686279.0625,200609.859375,0.107666015625,0.983154296875,-0.220703125,-2.258300542831421,-0.1831054538488388,0.1220703050494194,100.0,144752.0,1.0
15:36:59.062006,198113.09375,180424.0,231016.375,208960.203125,199539.9375,175412.75,686324.5,200609.953125,0.108642578125,0.983642578125,-0.22021484375,-2.258300542831421,-0.2136230319738388,0.2746581733226776,100.0,144753.0,1.0
15:36:59.062016,198121.578125,180439.65625,231032.375,208964.765625,199556.03125,175451.546875,686302.125,200611.46875,0.10986328125,0.9833984375,-0.22021484375,-2.319335699081421,-0.2136230319738388,0.2746581733226776,100.0,144754.0,1.0
15:36:59.063915,198121.3125,180439.109375,231026.125,208957.796875,199548.96875,175437.859375,686278.5,200607.28125,0.107177734375,0.98388671875,-0.224853515625,-2.197265386581421,-0.2441406100988388,0.1525878757238388,100.0,144755.0,1.0
15:36:59.090640,198117.109375,180429.09375,231018.34375,208964.0625,199542.703125,175406.3125,686266.8125,200616.65625,0.10595703125,0.981689453125,-0.2197265625,-2.380370855331421,-0.2136230319738388,0.1831054538488388,100.0,144756.0,1.0
15:36:59.090654,198120.953125,180433.390625,231021.203125,208964.953125,199545.296875,175414.703125,686318.75,200614.34375,0.103759765625,0.9853515625,-0.22216796875,-2.197265386581421,-0.2746581733226776,0.1525878757238388,100.0,144757.0,1.0
15:36:59.090655,198123.453125,180441.078125,231030.953125,208965.84375,199557.8125,175448.328125,686305.4375,200613.53125,0.106201171875,0.98388671875,-0.2177734375,-2.258300542831421,-0.2136230319738388,0.1831054538488388,100.0,144758.0,1.0
15:36:59.090657,198117.109375,180434.28125,231020.9375,208953.953125,199547.53125,175439.125,686282.5625,200603.421875,0.104736328125,0.982421875,-0.21923828125,-2.227782964706421,-0.2746581733226776,0.2136230319738388,100.0,144759.0,1.0
15:36:59.092576,198110.578125,180418.8125,231008.234375,208958.78125,199538.40625,175401.5625,686284.9375,200613.4375,0.10498046875,0.98046875,-0.22216796875,-2.258300542831421,-0.3662109076976776,0.3051757514476776,100.0,144760.0,1.0
15:36:59.095121,198113.265625,180419.4375,231010.125,208962.890625,199540.828125,175399.78125,686314.8125,200615.953125,0.105712890625,0.978759765625,-0.2216796875,-2.197265386581421,-0.4272460639476776,0.3662109076976776,100.0,144761.0,1.0
15:36:59.097770,198113.625,180423.015625,231019.6875,208962.984375,199551.640625,175431.25,686297.625,200613.53125,0.103759765625,0.978759765625,-0.220947265625,-2.258300542831421,-0.5187987685203552,0.3356933295726776,100.0,144762.0,1.0
15:36:59.100393,198110.21875,180421.140625,231013.25,208952.96875,199545.125,175432.40625,686279.875,200604.0625,0.103515625,0.981689453125,-0.220703125,-2.288818120956421,-0.4882812201976776,0.2746581733226776,100.0,144763.0,1.0
15:36:59.102710,198108.171875,180413.8125,231007.171875,208958.328125,199540.203125,175402.546875,686273.625,200615.765625,0.104736328125,0.982666015625,-0.220947265625,-2.227782964706421,-0.6103515028953552,0.3967284858226776,100.0,144764.0,1.0
15:36:59.110671,198106.296875,180410.953125,231005.203125,208957.171875,199536.09375,175391.28125,686296.5625,200615.671875,0.105224609375,0.983642578125,-0.219970703125,-2.288818120956421,-0.5493163466453552,0.3662109076976776,100.0,144765.0,1.0
15:36:59.110703,198107.359375,180417.84375,231014.140625,208958.328125,199547.171875,175423.03125,686315.4375,200614.15625,0.10498046875,0.984619140625,-0.22021484375,-2.288818120956421,-0.7629393935203552,0.1831054538488388,100.0,144766.0,1.0
15:36:59.117648,198109.25,180423.375,231016.109375,208953.328125,199547.171875,175435.0,686276.375,200606.734375,0.10546875,0.98388671875,-0.21875,-2.288818120956421,-0.6103515028953552,0.1525878757238388,100.0,144767.0,1.0
15:36:59.124490,198106.734375,180417.125,231006.546875,208953.421875,199539.484375,175406.3125,686276.3125,200611.75,0.106689453125,0.983154296875,-0.22021484375,-2.349853277206421,-0.5798339247703552,0.2746581733226776,100.0,144768.0,1.0
15:36:59.124499,198107.0,180415.78125,231004.125,208956.90625,199536.890625,175389.59375,686301.5,200617.015625,0.106201171875,0.983642578125,-0.21923828125,-2.319335699081421,-0.5798339247703552,0.2136230319738388,100.0,144769.0,1.0
15:36:59.126364,198115.953125,180429.546875,231019.5,208964.40625,199552.984375,175424.453125,686325.8125,200622.203125,0.10400390625,0.98388671875,-0.218994140625,-2.410888433456421,-0.4882812201976776,0.1831054538488388,100.0,144770.0,1.0
15:36:59.135656,198111.828125,180428.828125,231019.953125,208961.109375,199551.375,175438.765625,686283.8125,200609.78125,0.104736328125,0.984619140625,-0.220703125,-2.380370855331421,-0.5493163466453552,0.3051757514476776,100.0,144771.0,1.0
15:36:59.135664,198107.0,180420.875,231009.484375,208958.25,199540.203125,175412.5625,686269.6875,200609.6875,0.105712890625,0.983642578125,-0.22119140625,-2.410888433456421,-0.6713866591453552,0.4272460639476776,100.0,144772.0,1.0
15:36:59.143154,198104.765625,180415.6875,231003.328125,208963.875,199535.28125,175390.65625,686290.9375,200616.21875,0.1044921875,0.98388671875,-0.220458984375,-2.380370855331421,-0.7019042372703552,0.3967284858226776,100.0,144773.0,1.0
15:36:59.143166,198108.96875,180424.1875,231011.1875,208966.375,199546.015625,175417.03125,686324.125,200616.03125,0.10498046875,0.984130859375,-0.2236328125,-2.441406011581421,-0.6408690810203552,0.5187987685203552,100.0,144774.0,1.0
15:36:59.157632,198103.78125,180424.359375,231013.421875,208956.90625,199547.796875,175440.1875,686286.125,200605.125,0.10595703125,0.982666015625,-0.220947265625,-2.532958745956421,-0.7019042372703552,0.4577636420726776,100.0,144775.0,1.0
15:36:59.161276,198097.703125,180417.203125,231001.171875,208947.15625,199535.28125,175418.734375,686273.0,200597.171875,0.107177734375,0.98291015625,-0.22314453125,-2.471923589706421,-0.7324218153953552,0.4577636420726776,100.0,144776.0,1.0
15:36:59.161286,198097.078125,180412.375,230996.265625,208952.25,199530.71875,175392.1875,686272.6875,200605.21875,0.106689453125,0.9814453125,-0.2197265625,-2.563476324081421,-0.7629393935203552,0.5187987685203552,100.0,144777.0,1.0
15:36:59.161287,198100.03125,180415.78125,231002.703125,208950.203125,199535.1875,175405.59375,686309.8125,200602.71875,0.10791015625,0.979736328125,-0.21826171875,-2.532958745956421,-0.6103515028953552,0.3356933295726776,100.0,144778.0,1.0
15:36:59.163982,198104.234375,180424.90625,231014.234375,208956.359375,199548.0625,175438.9375,686283.8125,200602.359375,0.105712890625,0.977294921875,-0.2177734375,-2.410888433456421,-0.6103515028953552,0.3662109076976776,100.0,144779.0,1.0
15:36:59.166267,198099.234375,180420.78125,231005.921875,208946.0,199535.734375,175425.625,686274.9375,200593.765625,0.10791015625,0.9775390625,-0.2177734375,-2.288818120956421,-0.5493163466453552,0.3356933295726776,100.0,144780.0,1.0
15:36:59.172960,198098.953125,180414.625,231001.796875,208952.875,199531.34375,175397.1875,686283.8125,200606.46875,0.10693359375,0.9775390625,-0.222900390625,-2.288818120956421,-0.6103515028953552,0.3356933295726776,100.0,144781.0,1.0
15:36:59.217196,198104.6875,180419.09375,231006.546875,208955.828125,199535.734375,175404.78125,686319.8125,200607.0,0.10546875,0.979736328125,-0.220947265625,-2.258300542831421,-0.5493163466453552,0.2746581733226776,100.0,144782.0,1.0
15:36:59.217210,198108.796875,180427.578125,231018.515625,208959.046875,199549.5,175440.640625,686296.6875,200607.984375,0.104248046875,0.980712890625,-0.221923828125,-2.227782964706421,-0.5187987685203552,0.2136230319738388,100.0,144783.0,1.0
15:36:59.219441,198109.6875,180429.734375,231017.1875,208952.609375,199546.28125,175438.9375,686282.0625,200603.34375,0.105224609375,0.982177734375,-0.221923828125,-2.197265386581421,-0.4577636420726776,0.1220703050494194,100.0,144784.0,1.0
15:36:59.219452,198108.53125,180421.59375,231011.1875,208960.03125,199541.90625,175408.625,686272.6875,200617.015625,0.106201171875,0.982177734375,-0.217041015625,-2.166747808456421,-0.5493163466453552,0.2441406100988388,100.0,144785.0,1.0
15:36:59.221288,198111.828125,180422.9375,231011.90625,208962.171875,199542.171875,175406.484375,686306.25,200617.015625,0.107177734375,0.982177734375,-0.218017578125,-2.197265386581421,-0.4272460639476776,0.1525878757238388,100.0,144786.0,1.0
15:36:59.223804,198117.921875,180431.875,231026.390625,208965.84375,199557.375,175442.6875,686310.25,200618.09375,0.1083984375,0.98193359375,-0.21923828125,-2.166747808456421,-0.3967284858226776,0.1831054538488388,100.0,144787.0,1.0
15:36:59.226394,198122.03125,180436.609375,231031.125,208960.5625,199558.34375,175450.5625,686284.3125,200611.296875,0.10888671875,0.98193359375,-0.21923828125,-2.227782964706421,-0.3051757514476776,0.0915527269244194,100.0,144788.0,1.0
15:36:59.228913,198116.578125,180425.53125,231020.84375,208963.703125,199548.25,175416.3125,686281.125,200616.65625,0.109619140625,0.9853515625,-0.218994140625,-2.227782964706421,-0.2746581733226776,0.03051757626235485,100.0,144789.0,1.0
15:36:59.231270,198119.53125,180428.46875,231020.484375,208968.609375,199548.34375,175409.25,686313.375,200619.515625,0.108642578125,0.984375,-0.216796875,-2.227782964706421,-0.2136230319738388,0.03051757626235485,100.0,144790.0,1.0
15:36:59.234347,198129.8125,180443.5,231037.296875,208981.9375,199568.8125,175449.671875,686334.0625,200627.390625,0.10888671875,0.982421875,-0.217529296875,-2.227782964706421,-0.2136230319738388,0.03051757626235485,100.0,144791.0,1.0
15:36:59.236288,198136.515625,180453.0625,231045.34375,208981.75,199575.0625,175468.984375,686310.5,200624.703125,0.1064453125,0.98486328125,-0.218017578125,-2.227782964706421,-0.1220703050494194,0.0610351525247097,100.0,144792.0,1.0
15:36:59.238810,198139.109375,180450.734375,231041.671875,208982.921875,199571.84375,175447.25,686310.25,200634.984375,0.10400390625,0.98291015625,-0.21826171875,-2.258300542831421,-0.1525878757238388,0.1831054538488388,100.0,144793.0,1.0
15:36:59.244339,198140.265625,180449.75,231039.53125,208987.125,199570.421875,175432.953125,686319.3125,200639.90625,0.1044921875,0.98388671875,-0.21826171875,-2.258300542831421,-0.0610351525247097,0.2441406100988388,100.0,144794.0,1.0
15:36:59.246312,198141.25,180454.40625,231046.421875,208988.28125,199580.171875,175460.21875,686353.875,200637.9375,0.10302734375,0.984130859375,-0.21875,-2.227782964706421,-0.0915527269244194,0.0915527269244194,100.0,144795.0,1.0
15:36:59.248883,198136.421875,180453.328125,231045.34375,208982.390625,199579.0,175475.78125,686314.625,200629.09375,0.1044921875,0.983642578125,-0.218505859375,-2.258300542831421,-0.1220703050494194,0.1220703050494194,100.0,144796.0,1.0
15:36:59.251450,198125.875,180439.203125,231029.4375,208973.078125,199562.28125,175443.140625,686292.4375,200624.703125,0.10693359375,0.9833984375,-0.21728515625,-2.319335699081421,-0.1831054538488388,0.1831054538488388,100.0,144797.0,1.0
15:36:59.254530,198115.40625,180424.09375,231018.515625,208970.765625,199549.40625,175409.703125,686300.75,200624.625,0.10546875,0.9853515625,-0.21923828125,-2.380370855331421,-0.0915527269244194,0.0915527269244194,100.0,144798.0,1.0
15:36:59.254604,198115.234375,180426.78125,231022.359375,208968.609375,199554.0625,175428.484375,686324.75,200620.953125,0.1044921875,0.986083984375,-0.218505859375,-2.288818120956421,-0.03051757626235485,-0.03051757626235485,100.0,144799.0,1.0
15:36:59.256356,198116.125,180431.421875,231029.078125,208968.34375,199561.125,175455.296875,686293.8125,200617.015625,0.10400390625,0.986328125,-0.21728515625,-2.288818120956421,-0.03051757626235485,0.03051757626235485,100.0,144800.0,1.0
15:36:59.259490,198115.046875,180426.328125,231022.09375,208965.484375,199552.1875,175435.90625,686276.4375,200615.59375,0.103515625,0.985107421875,-0.218505859375,-2.258300542831421,-0.1220703050494194,0.03051757626235485,100.0,144801.0,1.0
15:36:59.259537,198115.328125,180419.625,231018.96875,208974.421875,199547.4375,175407.109375,686265.3125,200626.046875,0.1064453125,0.98681640625,-0.21728515625,-2.197265386581421,-0.0915527269244194,0.1525878757238388,100.0,144802.0,1.0
15:36:59.261597,198119.53125,180425.078125,231023.4375,208972.640625,199550.484375,175419.53125,686311.125,200621.40625,0.104736328125,0.984130859375,-0.2177734375,-2.166747808456421,-0.0915527269244194,0.2136230319738388,100.0,144803.0,1.0
15:36:59.272051,198125.0625,180435.359375,231034.796875,208973.890625,199563.171875,175454.671875,686289.25,200620.6875,0.10546875,0.983642578125,-0.216552734375,-2.197265386581421,-0.03051757626235485,0.2136230319738388,100.0,144804.0,1.0
15:36:59.272132,198123.28125,180433.125,231027.28125,208966.109375,199554.5,175443.40625,686272.875,200614.25,0.104248046875,0.984130859375,-0.215087890625,-2.319335699081421,-0.1525878757238388,0.3051757514476776,100.0,144805.0,1.0
15:36:59.275121,198118.359375,180420.96875,231018.515625,208971.390625,199546.375,175407.203125,686264.375,200622.5625,0.10546875,0.98388671875,-0.21533203125,-2.197265386581421,-0.0610351525247097,0.4272460639476776,100.0,144806.0,1.0
15:36:59.275207,198118.1875,180420.421875,231015.75,208967.546875,199545.03125,175407.828125,686308.375,200618.890625,0.104736328125,0.982421875,-0.21630859375,-2.075195074081421,0.0,0.4272460639476776,100.0,144807.0,1.0
15:36:59.280329,198120.15625,180425.53125,231024.421875,208968.796875,199556.03125,175439.75,686294.8125,200616.921875,0.1025390625,0.983154296875,-0.218505859375,-2.044677495956421,-0.03051757626235485,0.5493163466453552,100.0,144808.0,1.0
15:36:59.291157,198121.21875,180427.578125,231023.703125,208964.0625,199551.828125,175436.890625,686274.0625,200610.3125,0.10302734375,0.983154296875,-0.21484375,-1.9836424589157104,-0.0610351525247097,0.4882812201976776,100.0,144809.0,1.0
15:36:59.291238,198114.96875,180417.390625,231013.875,208967.1875,199542.4375,175404.703125,686274.5,200619.796875,0.104736328125,0.98291015625,-0.21630859375,-1.9226073026657104,-0.1220703050494194,0.5187987685203552,100.0,144810.0,1.0
15:36:59.293235,198117.921875,180421.859375,231014.3125,208968.078125,199543.953125,175404.96875,686309.125,200619.796875,0.102294921875,0.982666015625,-0.2177734375,-1.8310545682907104,-0.0915527269244194,0.4882812201976776,100.0,144811.0,1.0
15:36:59.293300,198120.78125,180430.078125,231024.0625,208971.03125,199557.28125,175440.546875,686304.875,200619.515625,0.10009765625,0.982421875,-0.215087890625,-1.8005369901657104,-0.1525878757238388,0.4272460639476776,100.0,144812.0,1.0
15:36:59.302861,198118.984375,180430.796875,231020.3125,208963.078125,199551.734375,175444.21875,686282.0,200608.96875,0.102294921875,0.981201171875,-0.21435546875,-1.7700194120407104,-0.1831054538488388,0.4882812201976776,100.0,144813.0,1.0
15:36:59.307102,198108.890625,180414.265625,231005.375,208959.5,199537.421875,175406.3125,686271.5625,200611.03125,0.10400390625,0.98193359375,-0.212158203125,-1.8005369901657104,-0.1831054538488388,0.6408690810203552,100.0,144814.0,1.0
15:36:59.307191,198106.734375,180411.84375,231001.453125,208958.78125,199533.046875,175396.65625,686294.0,200608.96875,0.103759765625,0.97900390625,-0.214599609375,-1.7700194120407104,-0.1220703050494194,0.7019042372703552,100.0,144815.0,1.0
15:36:59.316603,198113.171875,180425.796875,231013.875,208965.3125,199548.34375,175435.8125,686297.75,200611.296875,0.105712890625,0.977783203125,-0.21337890625,-1.7089842557907104,-0.1831054538488388,0.7934569716453552,100.0,144816.0,1.0
15:36:59.319722,198111.390625,180427.671875,231013.25,208958.25,199546.453125,175447.4375,686281.3125,200601.46875,0.104248046875,0.978515625,-0.2158203125,-1.7089842557907104,-0.1220703050494194,0.7629393935203552,100.0,144817.0,1.0
15:36:59.319785,198106.5625,180418.640625,231004.21875,208956.453125,199536.796875,175416.234375,686266.0,200603.703125,0.10693359375,0.979736328125,-0.21533203125,-1.5258787870407104,-0.0915527269244194,0.7934569716453552,100.0,144818.0,1.0
15:36:59.325100,198103.515625,180411.9375,230997.515625,208961.015625,199531.890625,175395.3125,686282.875,200607.546875,0.108642578125,0.978759765625,-0.217529296875,-1.4648436307907104,-0.1220703050494194,0.8239745497703552,100.0,144819.0,1.0
15:36:59.332030,198104.234375,180416.3125,231002.703125,208959.140625,199539.75,175421.421875,686313.0,200604.59375,0.107666015625,0.978515625,-0.21875,-1.3427733182907104,0.0,0.9460448622703552,100.0,144820.0,1.0
15:36:59.332101,198108.34375,180423.734375,231009.578125,208955.828125,199544.84375,175444.578125,686280.9375,200599.5,0.109130859375,0.980712890625,-0.22021484375,-1.2512205839157104,0.0,1.1291502714157104,100.0,144821.0,1.0
15:36:59.338226,198109.59375,180422.484375,231004.484375,208957.265625,199539.671875,175423.921875,686270.0,200604.6875,0.107421875,0.979736328125,-0.219970703125,-1.3122557401657104,0.0915527269244194,1.0070799589157104,100.0,144822.0,1.0
15:36:59.338300,198107.546875,180417.390625,231000.546875,208963.25,199534.75,175401.65625,686288.6875,200612.640625,0.10693359375,0.98291015625,-0.2197265625,-1.2817381620407104,0.0915527269244194,0.9460448622703552,100.0,144823.0,1.0
15:36:59.340118,198106.46875,180420.96875,231004.21875,208958.15625,199539.9375,175422.125,686318.5,200606.921875,0.10791015625,0.98486328125,-0.218994140625,-1.1901854276657104,0.1525878757238388,1.0070799589157104,100.0,144824.0,1.0
15:36:59.353259,198109.78125,180427.765625,231012.984375,208959.140625,199548.421875,175450.65625,686281.1875,200604.140625,0.1083984375,0.98583984375,-0.21923828125,-1.1291502714157104,0.0915527269244194,0.9460448622703552,100.0,144825.0,1.0
15:36:59.353340,198104.953125,180421.40625,231003.765625,208954.125,199536.53125,175430.171875,686273.625,200598.59375,0.110107421875,0.986328125,-0.220947265625,-1.1291502714157104,0.1220703050494194,1.0070799589157104,100.0,144826.0,1.0
15:36:59.358179,198098.6875,180411.3125,230994.203125,208961.8125,199527.953125,175397.90625,686276.9375,200606.296875,0.11083984375,0.987060546875,-0.220458984375,-1.2207030057907104,0.1525878757238388,1.0070799589157104,100.0,144827.0,1.0
15:36:59.360185,198102.0,180416.765625,230996.890625,208963.25,199531.4375,175411.671875,686320.0625,200602.453125,0.111083984375,0.987060546875,-0.220703125,-1.2817381620407104,0.1831054538488388,1.0375975370407104,100.0,144828.0,1.0
15:36:59.363969,198105.84375,180426.0625,231009.21875,208967.0,199543.421875,175446.8125,686301.875,200601.8125,0.109375,0.986328125,-0.22021484375,-1.2512205839157104,0.3356933295726776,0.9765624403953552,100.0,144829.0,1.0
15:36:59.374681,198097.171875,180418.015625,230997.421875,208956.71875,199530.90625,175431.96875,686275.3125,200591.71875,0.108642578125,0.98486328125,-0.21826171875,-1.2207030057907104,0.2441406100988388,0.8544921278953552,100.0,144830.0,1.0
15:36:59.374765,198090.46875,180406.84375,230987.9375,208958.953125,199522.40625,175398.96875,686275.125,200598.953125,0.105712890625,0.985107421875,-0.21826171875,-1.2817381620407104,0.3356933295726776,0.7629393935203552,100.0,144831.0,1.0
15:36:59.377239,198089.65625,180406.578125,230987.140625,208954.21875,199521.34375,175401.390625,686320.0,200594.9375,0.10595703125,0.984619140625,-0.220947265625,-1.3427733182907104,0.3662109076976776,0.5493163466453552,100.0,144832.0,1.0
15:36:59.377274,198094.578125,180415.59375,230998.9375,208958.875,199534.84375,175437.59375,686310.4375,200596.09375,0.1044921875,0.98486328125,-0.2177734375,-1.3122557401657104,0.3967284858226776,0.3662109076976776,100.0,144833.0,1.0
15:36:59.383991,198096.640625,180418.015625,230997.0625,208953.234375,199531.625,175437.59375,686280.9375,200589.84375,0.1025390625,0.984130859375,-0.218017578125,-1.4038084745407104,0.4577636420726776,0.3051757514476776,100.0,144834.0,1.0
15:36:59.394590,198090.015625,180405.59375,230985.984375,208955.46875,199522.671875,175403.265625,686271.125,200599.140625,0.103515625,0.986328125,-0.21875,-1.4343260526657104,0.3967284858226776,0.2441406100988388,100.0,144835.0,1.0
15:36:59.394668,198090.375,180405.140625,230981.859375,208956.28125,199519.8125,175397.8125,686318.0625,200598.78125,0.10302734375,0.98388671875,-0.219482421875,-1.4953612089157104,0.3356933295726776,0.2441406100988388,100.0,144836.0,1.0
15:36:59.397284,198093.78125,180413.90625,230992.6875,208959.671875,199532.25,175431.609375,686324.9375,200598.421875,0.10302734375,0.9853515625,-0.218017578125,-1.5563963651657104,0.1525878757238388,0.1525878757238388,100.0,144837.0,1.0
15:36:59.397366,198093.0625,180415.78125,230992.859375,208954.9375,199529.921875,175437.59375,686280.3125,200590.734375,0.1015625,0.984619140625,-0.216552734375,-1.6174315214157104,0.3051757514476776,-0.03051757626235485,100.0,144838.0,1.0
15:36:59.404432,198089.75,180407.90625,230986.875,208957.890625,199523.65625,175408.359375,686274.9375,200600.5625,0.1044921875,0.98388671875,-0.2158203125,-1.5258787870407104,0.1525878757238388,0.0915527269244194,100.0,144839.0,1.0
15:36:59.410762,198089.390625,180405.59375,230985.078125,208958.78125,199520.53125,175396.65625,686297.75,200601.90625,0.105712890625,0.9853515625,-0.216552734375,-1.5563963651657104,0.0610351525247097,0.0915527269244194,100.0,144840.0,1.0
15:36:59.410825,198096.71875,180417.484375,230997.78125,208963.609375,199535.546875,175433.21875,686328.5,200603.609375,0.105712890625,0.98388671875,-0.217041015625,-1.6174315214157104,0.0915527269244194,0.1220703050494194,100.0,144841.0,1.0
15:36:59.412759,198097.171875,180421.328125,231000.015625,208955.5625,199536.625,175448.328125,686290.5,200595.828125,0.10595703125,0.98291015625,-0.21728515625,-1.6174315214157104,0.0610351525247097,0.2441406100988388,100.0,144842.0,1.0
15:36:59.420277,198093.15625,180413.8125,230990.1875,208954.046875,199527.859375,175419.984375,686286.5,200599.5,0.106689453125,0.98193359375,-0.216064453125,-1.5869139432907104,0.0610351525247097,0.4882812201976776,100.0,144843.0,1.0
15:36:59.427362,198087.0625,180403.703125,230983.65625,208954.671875,199519.1875,175394.953125,686302.6875,200599.5,0.10693359375,0.98046875,-0.2177734375,-1.5869139432907104,0.0610351525247097,0.4577636420726776,100.0,144844.0,1.0
15:36:59.427439,198090.015625,180409.515625,230994.5625,208956.546875,199529.390625,175420.796875,686329.6875,200599.40625,0.108642578125,0.983154296875,-0.218017578125,-1.6174315214157104,0.03051757626235485,0.4272460639476776,100.0,144845.0,1.0
15:36:59.433250,198095.5625,180417.03125,231003.140625,208956.71875,199536.09375,175444.75,686296.5625,200595.65625,0.108642578125,0.983154296875,-0.21728515625,-1.6174315214157104,0.03051757626235485,0.5798339247703552,100.0,144846.0,1.0
15:36:59.433322,198097.078125,180414.625,230994.46875,208953.859375,199528.484375,175423.46875,686280.3125,200597.171875,0.10791015625,0.982421875,-0.217041015625,-1.5869139432907104,0.03051757626235485,0.5187987685203552,100.0,144847.0,1.0
15:36:59.440316,198099.40625,180411.125,230991.796875,208961.375,199526.796875,175400.234375,686287.375,200607.28125,0.108154296875,0.984619140625,-0.217041015625,-1.6174315214157104,0.0915527269244194,0.8239745497703552,100.0,144848.0,1.0
15:36:59.447026,198105.84375,180419.09375,230999.75,208964.234375,199536.09375,175421.6875,686332.5,200607.28125,0.109619140625,0.983642578125,-0.216552734375,-1.4953612089157104,0.0610351525247097,0.9765624403953552,100.0,144849.0,1.0
15:36:59.447084,198111.921875,180428.75,231011.1875,208966.296875,199547.53125,175453.515625,686299.25,200606.203125,0.110595703125,0.98388671875,-0.21630859375,-1.7395018339157104,0.1220703050494194,1.0375975370407104,100.0,144850.0,1.0
15:36:59.448906,198112.375,180428.203125,231004.75,208964.0625,199542.4375,175440.375,686284.6875,200604.765625,0.107421875,0.983642578125,-0.215576171875,-1.7395018339157104,0.1831054538488388,1.0681151151657104,100.0,144851.0,1.0
15:36:59.456890,198111.03125,180422.484375,231000.734375,208973.625,199539.84375,175413.8125,686284.625,200615.953125,0.106689453125,0.985107421875,-0.213623046875,-1.7700194120407104,0.0915527269244194,1.0986326932907104,100.0,144852.0,1.0
15:36:59.463232,198113.359375,180427.40625,231004.65625,208973.796875,199543.953125,175424.71875,686330.3125,200614.15625,0.10546875,0.986083984375,-0.212890625,-1.8005369901657104,0.1220703050494194,1.1901854276657104,100.0,144853.0,1.0
15:36:59.463274,198118.71875,180437.78125,231018.609375,208979.078125,199556.65625,175458.4375,686304.1875,200613.703125,0.105224609375,0.984375,-0.212646484375,-1.7700194120407104,0.0915527269244194,1.1901854276657104,100.0,144854.0,1.0
15:36:59.469496,198120.234375,180439.03125,231013.875,208972.640625,199550.65625,175450.921875,686281.375,200608.4375,0.104736328125,0.98486328125,-0.214599609375,-1.8005369901657104,0.2136230319738388,1.2512205839157104,100.0,144855.0,1.0
15:36:59.469531,198115.5,180430.171875,231004.21875,208974.78125,199543.78125,175419.453125,686288.875,200616.65625,0.10205078125,0.986572265625,-0.2119140625,-1.8920897245407104,0.2746581733226776,1.2817381620407104,100.0,144856.0,1.0
15:36:59.471448,198120.234375,180435.625,231007.53125,208973.265625,199547.265625,175426.6875,686324.3125,200615.859375,0.102294921875,0.984619140625,-0.21337890625,-1.9836424589157104,0.03051757626235485,1.2207030057907104,100.0,144857.0,1.0
15:36:59.482647,198123.28125,180442.6875,231018.796875,208973.890625,199559.953125,175461.109375,686307.5,200615.765625,0.101318359375,0.984375,-0.216552734375,-2.044677495956421,0.0,1.1291502714157104,100.0,144858.0,1.0
15:36:59.485673,198125.15625,180444.296875,231017.265625,208969.234375,199556.296875,175460.046875,686289.4375,200609.859375,0.10400390625,0.985107421875,-0.220703125,-2.105712652206421,0.0610351525247097,1.0986326932907104,100.0,144859.0,1.0
15:36:59.485702,198123.453125,180436.34375,231009.40625,208976.84375,199550.390625,175429.640625,686284.75,200621.484375,0.106201171875,0.983642578125,-0.21533203125,-2.197265386581421,0.0,1.0681151151657104,100.0,144860.0,1.0
15:36:59.487608,198118.625,180431.421875,231002.78125,208972.375,199543.0625,175420.34375,686313.625,200615.3125,0.106689453125,0.982421875,-0.215576171875,-2.136230230331421,-0.0915527269244194,1.0375975370407104,100.0,144861.0,1.0
15:36:59.501389,198119.4375,180439.46875,231014.046875,208972.640625,199555.9375,175456.546875,686308.3125,200614.609375,0.107421875,0.984375,-0.217529296875,-2.075195074081421,-0.0610351525247097,1.0070799589157104,100.0,144862.0,1.0
15:36:59.505164,198117.203125,180440.640625,231015.296875,208962.984375,199553.34375,175462.90625,686275.125,200605.03125,0.109130859375,0.98388671875,-0.219482421875,-2.044677495956421,-0.03051757626235485,0.8850097060203552,100.0,144863.0,1.0
15:36:59.505242,198114.078125,180431.875,231006.90625,208964.59375,199545.125,175431.515625,686274.125,200610.84375,0.11083984375,0.983154296875,-0.21630859375,-2.044677495956421,-0.0610351525247097,1.0375975370407104,100.0,144864.0,1.0
15:36:59.505265,198113.625,180429.453125,231003.40625,208965.484375,199541.625,175417.84375,686295.5,200613.0,0.113525390625,0.9814453125,-0.218994140625,-2.075195074081421,-0.0610351525247097,1.0986326932907104,100.0,144865.0,1.0
15:36:59.507728,198118.8125,180437.5,231013.96875,208970.3125,199553.796875,175449.484375,686309.5625,200614.421875,0.111083984375,0.98193359375,-0.2177734375,-2.044677495956421,0.0,1.0375975370407104,100.0,144866.0,1.0
15:36:59.511358,198124.359375,180444.75,231020.125,208970.140625,199557.546875,175466.125,686291.375,200608.25,0.112060546875,0.981201171875,-0.216064453125,-2.014159917831421,0.1220703050494194,0.9460448622703552,100.0,144867.0,1.0
15:36:59.521379,198123.09375,180440.28125,231016.46875,208969.6875,199550.125,175440.90625,686279.3125,200612.8125,0.113525390625,0.981201171875,-0.216064453125,-1.9836424589157104,0.1525878757238388,0.9460448622703552,100.0,144868.0,1.0
15:36:59.525641,198122.65625,180436.515625,231014.953125,208973.703125,199546.453125,175421.59375,686291.375,200619.078125,0.113037109375,0.980224609375,-0.215087890625,-1.9531248807907104,0.2136230319738388,1.0681151151657104,100.0,144869.0,1.0
15:36:59.525676,198126.671875,180443.3125,231021.921875,208975.234375,199555.578125,175447.609375,686313.625,200616.921875,0.113037109375,0.977783203125,-0.214599609375,-1.7700194120407104,0.3356933295726776,1.0986326932907104,100.0,144870.0,1.0
15:36:59.531349,198130.703125,180451.359375,231030.140625,208976.84375,199562.46875,175473.09375,686278.5,200612.90625,0.1142578125,0.978515625,-0.217529296875,-1.8005369901657104,0.3967284858226776,0.9460448622703552,100.0,144871.0,1.0
15:36:59.539433,198129.1875,180446.625,231022.640625,208976.125,199552.453125,175450.734375,686270.1875,200612.8125,0.11376953125,0.980224609375,-0.215576171875,-1.7089842557907104,0.5187987685203552,0.9155272841453552,100.0,144872.0,1.0
15:36:59.539458,198126.234375,180438.84375,231015.921875,208982.296875,199545.5625,175422.578125,686290.4375,200619.34375,0.11328125,0.979736328125,-0.2158203125,-1.6479490995407104,0.4882812201976776,0.8850097060203552,100.0,144873.0,1.0
15:36:59.541406,198135.796875,180449.3125,231024.953125,208985.328125,199556.734375,175444.9375,686332.0625,200621.484375,0.1123046875,0.97998046875,-0.216064453125,-1.4953612089157104,0.5798339247703552,0.7629393935203552,100.0,144874.0,1.0
15:36:59.567591,198140.453125,180454.5,231032.46875,208985.6875,199565.0625,175472.203125,686296.125,200618.71875,0.1103515625,0.98046875,-0.2177734375,-1.4343260526657104,0.7324218153953552,0.7019042372703552,100.0,144875.0,1.0
15:36:59.590373,198139.546875,180452.171875,231025.140625,208978.1875,199555.21875,175457.0,686274.9375,200612.375,0.11083984375,0.98095703125,-0.217041015625,-1.3122557401657104,0.7629393935203552,0.7324218153953552,100.0,144876.0,1.0
15:36:59.593146,198133.296875,180442.328125,231014.5,208979.171875,199544.5,175426.328125,686280.125,200615.671875,0.111328125,0.98046875,-0.218017578125,-1.1901854276657104,0.7934569716453552,0.6713866591453552,100.0,144877.0,1.0
15:36:59.593158,198137.3125,180448.6875,231018.34375,208977.640625,199548.15625,175437.859375,686332.1875,200612.453125,0.10986328125,0.98095703125,-0.21923828125,-1.2207030057907104,0.8239745497703552,0.4882812201976776,100.0,144878.0,1.0
15:36:59.595096,198138.65625,180454.046875,231028.71875,208976.65625,199558.078125,175468.625,686301.5625,200609.859375,0.107177734375,0.983642578125,-0.219482421875,-1.1596678495407104,0.8239745497703552,0.4272460639476776,100.0,144879.0,1.0
15:36:59.597600,198136.421875,180450.015625,231022.359375,208969.234375,199550.125,175457.625,686272.875,200604.328125,0.1064453125,0.98388671875,-0.216064453125,-1.2207030057907104,0.7629393935203552,0.3356933295726776,100.0,144880.0,1.0
15:36:59.600142,198131.0625,180439.203125,231011.640625,208974.609375,199541.71875,175422.578125,686283.8125,200612.734375,0.105224609375,0.985107421875,-0.217041015625,-1.1901854276657104,0.7019042372703552,0.2441406100988388,100.0,144881.0,1.0
15:36:59.603243,198134.015625,180441.4375,231012.265625,208976.75,199541.90625,175423.296875,686313.8125,200611.921875,0.106201171875,0.986328125,-0.216552734375,-1.2207030057907104,0.5493163466453552,0.1525878757238388,100.0,144882.0,1.0
15:36:59.605087,198138.484375,180450.734375,231025.140625,208980.859375,199556.03125,175459.59375,686315.625,200613.703125,0.10693359375,0.98583984375,-0.216552734375,-1.2512205839157104,0.5493163466453552,0.0915527269244194,100.0,144883.0,1.0
15:36:59.607601,198142.0625,180456.453125,231024.25,208975.765625,199552.8125,175462.1875,686282.8125,200609.859375,0.106201171875,0.986328125,-0.216796875,-1.1901854276657104,0.5493163466453552,0.0915527269244194,100.0,144884.0,1.0
15:36:59.610143,198134.640625,180444.5625,231011.1875,208977.28125,199542.171875,175426.609375,686266.1875,200614.515625,0.106201171875,0.982666015625,-0.21728515625,-1.1596678495407104,0.5798339247703552,0.1220703050494194,100.0,144885.0,1.0
15:36:59.612612,198136.25,180445.28125,231009.484375,208980.140625,199540.375,175421.78125,686298.375,200613.890625,0.10595703125,0.981689453125,-0.217041015625,-1.1291502714157104,0.4272460639476776,0.0,100.0,144886.0,1.0
15:36:59.615115,198145.90625,180459.859375,231026.5625,208988.46875,199559.609375,175462.8125,686307.125,200619.796875,0.10693359375,0.98095703125,-0.21826171875,-1.0681151151657104,0.4272460639476776,0.0610351525247097,100.0,144887.0,1.0
15:36:59.617611,198149.125,180467.015625,231029.34375,208983.453125,199559.609375,175473.984375,686282.875,200611.921875,0.108154296875,0.98046875,-0.218994140625,-1.0986326932907104,0.4272460639476776,0.1525878757238388,100.0,144888.0,1.0
15:36:59.620706,198144.109375,180457.078125,231019.78125,208982.734375,199547.984375,175441.53125,686275.125,200614.78125,0.109130859375,0.981689453125,-0.2216796875,-1.1291502714157104,0.3356933295726776,0.2441406100988388,100.0,144889.0,1.0
15:36:59.620728,198148.40625,180458.96875,231022.546875,208989.796875,199549.140625,175433.390625,686305.625,200621.84375,0.109619140625,0.982421875,-0.218505859375,-1.1291502714157104,0.3356933295726776,0.3356933295726776,100.0,144890.0,1.0
15:36:59.622612,198149.125,180464.234375,231032.296875,208990.4375,199558.171875,175463.265625,686314.0,200619.796875,0.110595703125,0.98095703125,-0.2158203125,-1.1291502714157104,0.2441406100988388,0.3967284858226776,100.0,144891.0,1.0
15:36:59.625388,198141.421875,180456.015625,231030.234375,208977.5625,199550.9375,175466.921875,686276.0,200605.578125,0.107666015625,0.982177734375,-0.21826171875,-1.0681151151657104,0.2441406100988388,0.3967284858226776,100.0,144892.0,1.0
15:36:59.657062,198139.109375,180448.765625,231021.296875,208979.515625,199544.046875,175439.390625,686269.5625,200612.8125,0.105712890625,0.980224609375,-0.2197265625,-1.1596678495407104,0.1220703050494194,0.4882812201976776,100.0,144893.0,1.0
15:36:59.657077,198146.4375,180452.890625,231025.5,208992.046875,199548.15625,175428.03125,686293.6875,200625.15625,0.104736328125,0.9794921875,-0.2177734375,-1.0375975370407104,0.0610351525247097,0.3662109076976776,100.0,144894.0,1.0
15:36:59.659552,198152.421875,180460.21875,231039.359375,208993.46875,199558.890625,175453.515625,686324.3125,200624.171875,0.102783203125,0.97998046875,-0.218017578125,-1.0375975370407104,0.0,0.3662109076976776,100.0,144895.0,1.0
15:36:59.659564,198154.484375,180462.71875,231048.46875,208990.515625,199561.84375,175472.375,686282.4375,200618.0,0.10107421875,0.978271484375,-0.219482421875,-1.1596678495407104,0.03051757626235485,0.5187987685203552,100.0,144896.0,1.0
15:36:59.661281,198156.1875,180460.125,231043.015625,208992.75,199558.265625,175454.046875,686262.3125,200622.46875,0.099609375,0.982177734375,-0.220458984375,-1.0681151151657104,-0.03051757626235485,0.5187987685203552,100.0,144897.0,1.0
15:36:59.664411,198153.3125,180453.15625,231035.0625,208998.296875,199553.515625,175427.765625,686263.9375,200632.21875,0.099609375,0.98486328125,-0.219482421875,-1.0986326932907104,-0.1831054538488388,0.4577636420726776,100.0,144898.0,1.0
15:36:59.664421,198152.15625,180456.28125,231035.59375,208992.3125,199555.3125,175442.6875,686311.6875,200625.953125,0.101318359375,0.98583984375,-0.21923828125,-1.1291502714157104,-0.3356933295726776,0.4882812201976776,100.0,144899.0,1.0
15:36:59.671238,198160.5625,180467.640625,231051.6875,208997.765625,199572.125,175477.390625,686280.75,200629.984375,0.10009765625,0.986572265625,-0.216796875,-1.1596678495407104,-0.5493163466453552,0.3967284858226776,100.0,144900.0,1.0
15:36:59.671255,198164.765625,180468.265625,231048.109375,208996.328125,199568.90625,175465.9375,686268.875,200631.859375,0.1015625,0.985107421875,-0.21826171875,-1.1901854276657104,-0.4272460639476776,0.4882812201976776,100.0,144901.0,1.0
15:36:59.671257,198161.640625,180461.015625,231038.90625,209003.484375,199561.84375,175436.890625,686262.8125,200640.09375,0.103759765625,0.98681640625,-0.218994140625,-1.3732908964157104,-0.5493163466453552,0.4882812201976776,100.0,144902.0,1.0
15:36:59.674430,198161.28125,180464.234375,231037.75,208997.9375,199560.59375,175443.40625,686310.1875,200632.046875,0.103759765625,0.98876953125,-0.2216796875,-1.6174315214157104,-0.6408690810203552,0.5187987685203552,100.0,144903.0,1.0
15:36:59.674445,198165.75,180472.90625,231048.921875,209001.6875,199574.171875,175476.40625,686287.875,200632.3125,0.107666015625,0.98876953125,-0.22119140625,-1.7395018339157104,-0.7629393935203552,0.3967284858226776,100.0,144904.0,1.0
15:36:59.680067,198163.515625,180471.390625,231042.75,208995.4375,199566.75,175470.40625,686270.0,200625.609375,0.1103515625,0.986083984375,-0.219970703125,-1.7700194120407104,-0.8239745497703552,0.4577636420726776,100.0,144905.0,1.0
15:36:59.680140,198155.46875,180456.375,231031.3125,208999.546875,199555.046875,175432.59375,686270.8125,200632.75,0.1103515625,0.98193359375,-0.21826171875,-1.8310545682907104,-0.7629393935203552,0.3662109076976776,100.0,144906.0,1.0
15:36:59.680167,198158.0625,180457.0,231030.6875,208999.1875,199553.796875,175430.984375,686309.5625,200631.328125,0.1083984375,0.979736328125,-0.22021484375,-1.8920897245407104,-0.7629393935203552,0.4577636420726776,100.0,144907.0,1.0
15:36:59.683154,198156.625,180461.109375,231038.640625,208995.53125,199561.5625,175461.921875,686310.25,200624.890625,0.107666015625,0.979248046875,-0.22216796875,-1.8615721464157104,-0.7019042372703552,0.5187987685203552,100.0,144908.0,1.0
15:36:59.686195,198159.046875,180467.28125,231041.59375,208988.546875,199558.890625,175467.8125,686284.25,200617.828125,0.108154296875,0.97998046875,-0.223388671875,-1.8310545682907104,-0.7629393935203552,0.6713866591453552,100.0,144909.0,1.0
15:36:59.688255,198156.09375,180458.875,231033.546875,208993.828125,199552.453125,175436.25,686275.5625,200626.765625,0.108154296875,0.982421875,-0.224609375,-1.9836424589157104,-0.6713866591453552,0.7324218153953552,100.0,144910.0,1.0
15:36:59.688321,198157.796875,180457.078125,231030.6875,208994.09375,199550.296875,175428.03125,686303.5625,200625.609375,0.108154296875,0.98388671875,-0.219482421875,-1.8920897245407104,-0.7324218153953552,0.7934569716453552,100.0,144911.0,1.0
15:36:59.695608,198158.78125,180462.1875,231038.375,208993.5625,199561.75,175459.953125,686314.625,200623.8125,0.111328125,0.986328125,-0.21826171875,-2.014159917831421,-0.5798339247703552,0.8544921278953552,100.0,144912.0,1.0
15:36:59.705687,198156.1875,180462.09375,231034.890625,208984.265625,199558.984375,175465.671875,686278.6875,200613.984375,0.114013671875,0.989501953125,-0.216064453125,-2.136230230331421,-0.6103515028953552,0.7019042372703552,100.0,144913.0,1.0
15:36:59.705746,198155.640625,180457.984375,231028.453125,208991.953125,199553.34375,175438.40625,686261.25,200624.171875,0.1142578125,0.989013671875,-0.21728515625,-2.166747808456421,-0.5493163466453552,0.7934569716453552,100.0,144914.0,1.0
15:36:59.713193,198155.640625,180458.78125,231026.65625,208996.515625,199551.5625,175425.53125,686284.0625,200629.796875,0.114990234375,0.985107421875,-0.216064453125,-2.166747808456421,-0.4577636420726776,0.7934569716453552,100.0,144915.0,1.0
15:36:59.713203,198157.703125,180468.4375,231035.78125,208996.15625,199563.0,175457.265625,686310.375,200627.296875,0.11474609375,0.98291015625,-0.212890625,-2.227782964706421,-0.3356933295726776,0.7324218153953552,100.0,144916.0,1.0
15:36:59.719517,198165.75,180478.625,231045.96875,208997.21875,199571.9375,175480.0625,686271.125,200627.75,0.11279296875,0.9814453125,-0.216064453125,-2.166747808456421,-0.1525878757238388,0.6713866591453552,100.0,144917.0,1.0
15:36:59.719534,198162.4375,180471.125,231039.0,208996.328125,199564.25,175452.625,686271.4375,200632.125,0.1103515625,0.980224609375,-0.218017578125,-2.136230230331421,-0.1525878757238388,0.6408690810203552,100.0,144918.0,1.0
15:36:59.725845,198157.34375,180462.8125,231032.65625,208996.421875,199556.109375,175428.390625,686296.375,200630.609375,0.111083984375,0.979736328125,-0.218994140625,-2.136230230331421,-0.1220703050494194,0.7629393935203552,100.0,144919.0,1.0
15:36:59.725894,198161.453125,180468.890625,231039.625,208996.953125,199565.421875,175454.046875,686331.0625,200628.109375,0.109619140625,0.9814453125,-0.21875,-2.197265386581421,-0.0610351525247097,0.8544921278953552,100.0,144920.0,1.0
15:36:59.735807,198163.328125,180474.4375,231045.875,208994.625,199572.296875,175479.625,686293.1875,200623.1875,0.109130859375,0.9814453125,-0.217529296875,-2.166747808456421,-0.0610351525247097,0.7934569716453552,100.0,144921.0,1.0
15:36:59.735856,198160.734375,180468.625,231037.65625,208991.40625,199564.25,175458.875,686276.1875,200623.015625,0.109619140625,0.9833984375,-0.21533203125,-2.136230230331421,-0.03051757626235485,0.8544921278953552,100.0,144922.0,1.0
15:36:59.743351,198159.125,180463.796875,231033.359375,208999.734375,199561.21875,175435.1875,686265.125,200633.5625,0.110107421875,0.984130859375,-0.21630859375,-2.105712652206421,0.03051757626235485,0.7629393935203552,100.0,144923.0,1.0
15:36:59.743402,198162.53125,180469.25,231039.4375,208999.8125,199567.375,175453.515625,686322.625,200632.3125,0.11181640625,0.985595703125,-0.21630859375,-2.166747808456421,0.1525878757238388,0.6713866591453552,100.0,144924.0,1.0
15:36:59.745263,198160.65625,180473.0,231044.1875,208996.328125,199572.5625,175480.328125,686291.0625,200626.234375,0.111328125,0.985595703125,-0.215087890625,-2.166747808456421,0.1525878757238388,0.6713866591453552,100.0,144925.0,1.0
15:36:59.758366,198154.390625,180465.578125,231033.359375,208986.046875,199559.609375,175462.359375,686264.9375,200618.0,0.109130859375,0.98388671875,-0.216064453125,-2.197265386581421,0.1220703050494194,0.5798339247703552,100.0,144926.0,1.0
15:36:59.758411,198153.140625,180458.875,231026.21875,208993.203125,199554.6875,175432.0625,686276.1875,200628.90625,0.10888671875,0.9833984375,-0.216796875,-2.227782964706421,0.2136230319738388,0.6103515028953552,100.0,144927.0,1.0
15:36:59.764581,198148.765625,180458.25,231022.546875,208985.25,199552.09375,175436.171875,686315.375,200620.6875,0.109130859375,0.983642578125,-0.21533203125,-2.227782964706421,0.2746581733226776,0.4882812201976776,100.0,144928.0,1.0
15:36:59.764626,198154.578125,180469.25,231035.328125,208990.078125,199565.0625,175473.546875,686277.8125,200620.59375,0.11083984375,0.984375,-0.215576171875,-2.227782964706421,0.3051757514476776,0.4272460639476776,100.0,144929.0,1.0
15:36:59.767105,198148.765625,180462.890625,231026.5625,208978.359375,199555.84375,175464.421875,686273.625,200610.3125,0.1083984375,0.98486328125,-0.218505859375,-2.319335699081421,0.3051757514476776,0.4882812201976776,100.0,144930.0,1.0
15:36:59.767138,198143.03125,180453.328125,231017.890625,208981.75,199547.359375,175432.140625,686272.0,200618.71875,0.108154296875,0.984375,-0.2177734375,-2.227782964706421,0.3662109076976776,0.4882812201976776,100.0,144931.0,1.0
15:36:59.776416,198144.109375,180456.1875,231016.46875,208981.75,199544.84375,175431.703125,686309.75,200615.40625,0.108154296875,0.985107421875,-0.21826171875,-2.227782964706421,0.2746581733226776,0.3662109076976776,100.0,144932.0,1.0
15:36:59.780676,198148.578125,180463.515625,231028.796875,208985.421875,199558.4375,175467.28125,686304.4375,200615.5,0.108154296875,0.9853515625,-0.216796875,-2.197265386581421,0.3662109076976776,0.2746581733226776,100.0,144933.0,1.0
15:36:59.780689,198154.296875,180470.046875,231031.046875,208981.671875,199558.265625,175472.46875,686276.625,200611.5625,0.104736328125,0.984619140625,-0.2158203125,-2.197265386581421,0.3662109076976776,0.2746581733226776,100.0,144934.0,1.0
15:36:59.790489,198150.640625,180459.859375,231021.46875,208987.21875,199550.84375,175440.375,686260.125,200621.3125,0.10498046875,0.98388671875,-0.216064453125,-2.105712652206421,0.3662109076976776,0.2136230319738388,100.0,144935.0,1.0
15:36:59.793407,198145.359375,180454.84375,231014.40625,208986.046875,199546.546875,175429.546875,686303.9375,200617.90625,0.1064453125,0.985595703125,-0.216064453125,-2.197265386581421,0.3356933295726776,0.2441406100988388,100.0,144936.0,1.0
15:36:59.793464,198142.5,180457.796875,231020.40625,208983.640625,199553.96875,175459.59375,686321.5,200612.375,0.10888671875,0.98486328125,-0.21435546875,-2.258300542831421,0.3356933295726776,0.2441406100988388,100.0,144937.0,1.0
15:36:59.796874,198143.3125,180462.8125,231021.46875,208979.34375,199551.828125,175471.578125,686291.375,200603.421875,0.107666015625,0.981689453125,-0.2138671875,-2.197265386581421,0.3356933295726776,0.2441406100988388,100.0,144938.0,1.0
15:36:59.807602,198143.21875,180458.421875,231017.453125,208990.875,199548.15625,175445.46875,686266.8125,200614.609375,0.10546875,0.978515625,-0.212890625,-2.075195074081421,0.3356933295726776,0.1831054538488388,100.0,144939.0,1.0
15:36:59.810657,198141.34375,180452.890625,231012.265625,208991.765625,199544.84375,175428.5625,686291.9375,200617.109375,0.1064453125,0.97705078125,-0.217041015625,-1.9836424589157104,0.2136230319738388,0.03051757626235485,100.0,144940.0,1.0
15:36:59.810670,198148.140625,180461.828125,231022.546875,208994.546875,199558.078125,175460.125,686334.375,200621.3125,0.1064453125,0.97802734375,-0.21630859375,-1.9531248807907104,0.2441406100988388,0.1220703050494194,100.0,144941.0,1.0
15:36:59.812565,198147.234375,180463.171875,231022.015625,208985.421875,199556.828125,175473.625,686291.3125,200611.75,0.1064453125,0.979248046875,-0.21630859375,-1.8310545682907104,0.2441406100988388,0.2136230319738388,100.0,144942.0,1.0
15:36:59.822691,198144.921875,180457.0,231013.25,208983.09375,199548.875,175448.0625,686278.5,200613.078125,0.10595703125,0.9794921875,-0.21484375,-1.6479490995407104,0.2441406100988388,0.3356933295726776,100.0,144943.0,1.0
15:36:59.827027,198138.296875,180447.34375,231005.734375,208982.734375,199540.828125,175423.03125,686288.625,200614.34375,0.10546875,0.981689453125,-0.213623046875,-1.5869139432907104,0.0915527269244194,0.3051757514476776,100.0,144944.0,1.0
15:36:59.827048,198145.1875,180457.171875,231017.625,208988.828125,199553.796875,175450.390625,686332.8125,200618.53125,0.103759765625,0.983154296875,-0.215576171875,-1.5258787870407104,-0.0610351525247097,0.3967284858226776,100.0,144945.0,1.0
15:36:59.838271,198152.515625,180466.65625,231030.59375,208991.859375,199563.453125,175478.640625,686292.8125,200619.34375,0.1025390625,0.982666015625,-0.213134765625,-1.5258787870407104,-0.1525878757238388,0.3967284858226776,100.0,144946.0,1.0
15:36:59.838289,198154.03125,180465.046875,231025.40625,208990.34375,199557.375,175461.734375,686274.875,200621.046875,0.104248046875,0.982421875,-0.214599609375,-1.4648436307907104,-0.1831054538488388,0.2746581733226776,100.0,144947.0,1.0
15:36:59.840631,198151.625,180458.6875,231018.515625,208996.0625,199552.71875,175434.734375,686277.0,200629.890625,0.103515625,0.9833984375,-0.212158203125,-1.4038084745407104,-0.2136230319738388,0.3051757514476776,100.0,144948.0,1.0
15:36:59.840637,198153.140625,180464.328125,231023.34375,208995.4375,199558.703125,175450.203125,686328.0625,200628.46875,0.105712890625,0.982666015625,-0.214599609375,-1.4038084745407104,-0.3356933295726776,0.3662109076976776,100.0,144949.0,1.0
15:36:59.847695,198154.125,180471.65625,231032.65625,208996.328125,199568.359375,175480.0625,686304.25,200625.15625,0.10498046875,0.982666015625,-0.21533203125,-1.3427733182907104,-0.3662109076976776,0.4882812201976776,100.0,144950.0,1.0
15:36:59.854379,198156.984375,180472.28125,231029.703125,208996.6875,199563.171875,175469.15625,686290.875,200625.15625,0.10546875,0.982421875,-0.215576171875,-1.3732908964157104,-0.3356933295726776,0.5187987685203552,100.0,144951.0,1.0
15:36:59.854387,198154.390625,180462.984375,231023.0,209004.015625,199556.828125,175438.3125,686273.0,200636.0625,0.108154296875,0.98193359375,-0.216064453125,-1.4648436307907104,-0.3356933295726776,0.5187987685203552,100.0,144952.0,1.0
15:36:59.862015,198155.828125,180466.03125,231025.3125,209000.359375,199558.703125,175446.71875,686312.875,200631.40625,0.106201171875,0.9833984375,-0.216552734375,-1.4038084745407104,-0.3662109076976776,0.5798339247703552,100.0,144953.0,1.0
15:36:59.862048,198160.46875,180473.453125,231039.078125,209004.28125,199573.28125,175481.140625,686301.9375,200633.5625,0.106201171875,0.982666015625,-0.21630859375,-1.4038084745407104,-0.4577636420726776,0.6408690810203552,100.0,144954.0,1.0
15:36:59.867652,198162.4375,180477.46875,231038.8125,208999.1875,199570.953125,175480.0625,686277.8125,200629.625,0.105224609375,0.983642578125,-0.215087890625,-1.3732908964157104,-0.3967284858226776,0.6103515028953552,100.0,144955.0,1.0
15:36:59.874470,198155.90625,180465.125,231027.109375,209002.5,199560.671875,175444.578125,686274.0625,200636.515625,0.107177734375,0.98291015625,-0.216552734375,-1.4648436307907104,-0.3967284858226776,0.6103515028953552,100.0,144956.0,1.0
15:36:59.874483,198160.390625,180469.609375,231028.09375,209004.828125,199563.625,175447.34375,686312.5,200637.84375,0.10693359375,0.984130859375,-0.21484375,-1.3732908964157104,-0.5187987685203552,0.6713866591453552,100.0,144957.0,1.0
15:36:59.880744,198168.15625,180483.734375,231045.4375,209012.328125,199581.5,175488.296875,686314.875,200642.5,0.10791015625,0.985107421875,-0.215576171875,-1.4648436307907104,-0.4577636420726776,0.6408690810203552,100.0,144958.0,1.0
15:36:59.880761,198170.390625,180484.4375,231044.984375,209005.8125,199577.9375,175491.6875,686288.6875,200632.84375,0.108154296875,0.984130859375,-0.2158203125,-1.4038084745407104,-0.3662109076976776,0.7019042372703552,100.0,144959.0,1.0
15:36:59.882654,198169.140625,180479.53125,231037.296875,209015.015625,199573.375,175463.34375,686276.75,200643.390625,0.110595703125,0.985595703125,-0.218017578125,-1.4038084745407104,-0.3051757514476776,0.6713866591453552,100.0,144960.0,1.0
15:36:59.892585,198168.609375,180479.265625,231034.34375,209016.09375,199571.140625,175454.3125,686296.75,200643.84375,0.1123046875,0.984130859375,-0.22021484375,-1.4038084745407104,-0.3662109076976776,0.7019042372703552,100.0,144961.0,1.0
15:36:59.895617,198173.890625,180488.5625,231046.328125,209019.046875,199585.078125,175488.109375,686309.1875,200645.1875,0.113525390625,0.98486328125,-0.2177734375,-1.3732908964157104,-0.3051757514476776,0.7324218153953552,100.0,144962.0,1.0
15:36:59.895622,198175.765625,180491.15625,231048.65625,209010.09375,199584.453125,175499.015625,686279.875,200637.046875,0.113037109375,0.985595703125,-0.218994140625,-1.4343260526657104,-0.3051757514476776,0.7019042372703552,100.0,144963.0,1.0
15:36:59.906325,198169.140625,180478.8125,231037.828125,209008.765625,199571.5,175463.703125,686273.625,200639.1875,0.112060546875,0.983154296875,-0.21484375,-1.4343260526657104,-0.2441406100988388,0.7019042372703552,100.0,144964.0,1.0
15:36:59.909229,198171.5625,180477.921875,231039.359375,209017.703125,199567.921875,175449.21875,686296.0625,200646.4375,0.114990234375,0.983154296875,-0.212646484375,-1.4038084745407104,-0.1831054538488388,0.7019042372703552,100.0,144965.0,1.0
15:36:59.952698,198180.5,180491.0625,231057.953125,209031.828125,199586.0625,175485.15625,686321.625,200655.109375,0.11376953125,0.982666015625,-0.21435546875,-1.4343260526657104,-0.1831054538488388,0.5493163466453552,100.0,144966.0,1.0
15:36:59.955161,198178.890625,180493.828125,231059.46875,209023.78125,199585.890625,175501.078125,686286.3125,200644.828125,0.1123046875,0.98291015625,-0.211181640625,-1.5258787870407104,-0.0915527269244194,0.5798339247703552,100.0,144967.0,1.0
15:36:59.957542,198168.875,180480.328125,231042.125,209016.453125,199568.8125,175469.15625,686276.4375,200640.625,0.112548828125,0.983154296875,-0.214599609375,-1.4648436307907104,0.0,0.6103515028953552,100.0,144968.0,1.0
15:36:59.960134,198166.28125,180475.859375,231038.1875,209021.0,199561.921875,175447.25,686294.9375,200643.21875,0.113037109375,0.983642578125,-0.214111328125,-1.4648436307907104,0.03051757626235485,0.7019042372703552,100.0,144969.0,1.0
15:36:59.962579,198165.484375,180478.0,231040.78125,209013.9375,199565.6875,175466.03125,686322.75,200635.96875,0.1142578125,0.982421875,-0.21630859375,-1.4038084745407104,0.0610351525247097,0.5798339247703552,100.0,144970.0,1.0
15:36:59.965106,198167.71875,180484.71875,231048.734375,209013.765625,199571.21875,175490.796875,686284.3125,200631.40625,0.11376953125,0.98193359375,-0.214111328125,-1.3732908964157104,0.03051757626235485,0.5493163466453552,100.0,144971.0,1.0
15:36:59.967582,198174.78125,180490.078125,231052.3125,209024.140625,199571.40625,175481.40625,686280.3125,200637.578125,0.112548828125,0.98291015625,-0.21728515625,-1.3427733182907104,0.1525878757238388,0.5798339247703552,100.0,144972.0,1.0
15:36:59.970083,198172.1875,180482.125,231047.84375,209027.984375,199567.65625,175453.515625,686296.75,200646.796875,0.11279296875,0.982666015625,-0.216796875,-1.3427733182907104,0.2441406100988388,0.6103515028953552,100.0,144973.0,1.0
15:36:59.972551,198168.78125,180482.125,231043.5625,209015.546875,199566.390625,175463.53125,686324.625,200636.328125,0.111328125,0.982177734375,-0.221923828125,-1.3122557401657104,0.2746581733226776,0.4272460639476776,100.0,144974.0,1.0
15:36:59.975078,198176.125,180494.71875,231055.171875,209018.859375,199579.359375,175498.9375,686295.9375,200636.78125,0.112060546875,0.97998046875,-0.216796875,-1.3427733182907104,0.3967284858226776,0.3967284858226776,100.0,144975.0,1.0
15:36:59.977559,198176.03125,180492.3125,231048.109375,209013.671875,199571.671875,175486.59375,686283.25,200632.390625,0.112060546875,0.97900390625,-0.217529296875,-1.3122557401657104,0.3967284858226776,0.3051757514476776,100.0,144976.0,1.0
15:36:59.980152,198171.828125,180483.28125,231041.5,209019.578125,199566.578125,175457.09375,686275.75,200643.484375,0.110107421875,0.982666015625,-0.21630859375,-1.3122557401657104,0.4882812201976776,0.3356933295726776,100.0,144977.0,1.0
15:36:59.982587,198175.84375,180489.625,231046.234375,209020.03125,199574.09375,175468.171875,686310.0,200643.84375,0.111328125,0.980712890625,-0.2177734375,-1.2512205839157104,0.5493163466453552,0.2746581733226776,100.0,144978.0,1.0
15:36:59.985121,198179.34375,180497.40625,231056.609375,209021.0,199586.328125,175502.0625,686289.625,200641.34375,0.111083984375,0.98095703125,-0.21630859375,-1.1901854276657104,0.6408690810203552,0.2136230319738388,100.0,144979.0,1.0
15:36:59.990644,198182.375,180500.0,231053.84375,209013.5,199579.359375,175498.75,686269.3125,200634.09375,0.10888671875,0.98291015625,-0.216064453125,-1.2817381620407104,0.5798339247703552,0.1831054538488388,100.0,144980.0,1.0
15:36:59.990652,198181.390625,180493.46875,231047.046875,209021.09375,199573.375,175468.359375,686270.9375,200646.4375,0.107421875,0.9833984375,-0.215087890625,-1.2512205839157104,0.4882812201976776,0.1220703050494194,100.0,144981.0,1.0
15:36:59.993203,198178.71875,180489.359375,231042.21875,209017.4375,199571.046875,175462.640625,686300.75,200643.390625,0.110595703125,0.986083984375,-0.21435546875,-1.3122557401657104,0.5493163466453552,0.1525878757238388,100.0,144982.0,1.0
15:36:59.993216,198184.96875,180500.890625,231056.4375,209022.53125,199588.390625,175501.53125,686308.0,200646.796875,0.10791015625,0.984619140625,-0.21875,-1.3122557401657104,0.6713866591453552,0.1220703050494194,100.0,144983.0,1.0
15:36:59.995138,198187.390625,180504.5625,231056.78125,209018.59375,199586.875,175507.25,686270.0,200641.703125,0.107177734375,0.984130859375,-0.21630859375,-1.3122557401657104,0.7324218153953552,0.0,100.0,144984.0,1.0
15:36:59.998216,198180.328125,180492.484375,231044.71875,209020.109375,199574.4375,175472.921875,686259.625,200646.171875,0.106689453125,0.983154296875,-0.21875,-1.3122557401657104,0.5798339247703552,0.0610351525247097,100.0,144985.0,1.0
15:36:59.998234,198181.03125,180489.71875,231043.109375,209025.5625,199572.75,175469.0625,686296.125,200649.296875,0.10693359375,0.98388671875,-0.219482421875,-1.3732908964157104,0.5798339247703552,0.0610351525247097,100.0,144986.0,1.0
15:37:00.000118,198185.6875,180497.671875,231054.734375,209032.453125,199587.3125,175525.84375,686326.25,200651.890625,0.10595703125,0.984130859375,-0.216064453125,-1.3427733182907104,0.4272460639476776,0.0915527269244194,100.0,144987.0,1.0
15:37:00.002925,198184.515625,180499.203125,231054.015625,209027.53125,199585.171875,175538.1875,686284.6875,200642.328125,0.106689453125,0.985107421875,-0.214111328125,-1.2817381620407104,0.5187987685203552,0.03051757626235485,100.0,144988.0,1.0
15:37:00.005376,198175.046875,180484.359375,231038.1875,209034.859375,199568.71875,175496.15625,686277.5625,200638.921875,0.106201171875,0.985107421875,-0.21337890625,-1.3122557401657104,0.4577636420726776,0.0,100.0,144989.0,1.0
15:37:00.013282,198181.9375,180488.46875,231041.140625,209057.84375,199571.671875,175481.40625,686305.6875,200649.03125,0.104736328125,0.984130859375,-0.217529296875,-1.4038084745407104,0.4577636420726776,0.0610351525247097,100.0,144990.0,1.0
15:37:00.013325,198183.8125,180495.53125,231049.375,209059.0,199583.296875,175508.671875,686328.6875,200646.96875,0.104736328125,0.984130859375,-0.21728515625,-1.3732908964157104,0.3051757514476776,0.0,100.0,144991.0,1.0
15:37:00.015705,198177.90625,180491.5,231047.9375,209048.28125,199579.265625,175517.34375,686290.75,200634.09375,0.1064453125,0.9833984375,-0.217529296875,-1.4038084745407104,0.2441406100988388,-0.0915527269244194,100.0,144992.0,1.0
15:37:00.015746,198179.515625,180488.203125,231044.546875,209045.59375,199574.0,175490.96875,686275.3125,200638.75,0.10595703125,0.984619140625,-0.218017578125,-1.4953612089157104,0.1831054538488388,-0.0915527269244194,100.0,144993.0,1.0
15:37:00.026410,198178.359375,180481.9375,231039.890625,209046.75,199568.8125,175465.578125,686283.1875,200645.8125,0.1064453125,0.984619140625,-0.2177734375,-1.5258787870407104,0.1220703050494194,-0.0610351525247097,100.0,144994.0,1.0
15:37:00.030710,198175.40625,180482.296875,231039.53125,209036.921875,199570.0625,175482.125,686326.8125,200637.671875,0.103515625,0.982177734375,-0.214111328125,-1.5258787870407104,0.1220703050494194,-0.1220703050494194,100.0,144995.0,1.0
15:37:00.030778,198172.1875,180484.890625,231041.671875,209027.796875,199572.296875,175503.9375,686290.75,200629.796875,0.103271484375,0.98291015625,-0.216796875,-1.4648436307907104,0.0610351525247097,-0.0915527269244194,100.0,144996.0,1.0
15:37:00.045719,198172.1875,180484.4375,231036.046875,209025.125,199566.9375,175487.578125,686283.8125,200632.046875,0.10205078125,0.986083984375,-0.215087890625,-1.5563963651657104,0.0,-0.1220703050494194,100.0,144997.0,1.0
15:37:00.045798,198169.59375,180476.125,231029.34375,209030.484375,199562.015625,175458.78125,686281.625,200642.59375,0.104248046875,0.984130859375,-0.215087890625,-1.4648436307907104,-0.0610351525247097,-0.0610351525247097,100.0,144998.0,1.0
15:37:00.045825,198171.296875,180480.234375,231032.46875,209028.703125,199564.609375,175472.46875,686320.25,200638.75,0.10400390625,0.984619140625,-0.211669921875,-1.5563963651657104,-0.1525878757238388,-0.1220703050494194,100.0,144999.0,1.0
15:37:00.047632,198172.8125,180487.578125,231039.984375,209029.046875,199573.015625,175503.671875,686287.875,200635.890625,0.103759765625,0.98388671875,-0.214599609375,-1.5258787870407104,-0.2746581733226776,-0.03051757626235485,100.0,145000.0,1.0
15:37:00.050169,198170.84375,180484.890625,231034.609375,209020.203125,199566.3125,175490.96875,686282.5625,200631.0625,0.10498046875,0.9833984375,-0.21435546875,-1.5869139432907104,-0.3051757514476776,0.0,100.0,145001.0,1.0
15:37:00.060710,198162.625,180470.765625,231023.625,209022.703125,199556.390625,175453.25,686288.1875,200637.84375,0.10546875,0.9833984375,-0.214111328125,-1.6174315214157104,-0.3356933295726776,0.0610351525247097,100.0,145002.0,1.0
15:37:00.060751,198158.5,180464.78125,231018.703125,209025.5625,199551.828125,175451.71875,686326.375,200630.96875,0.105712890625,0.985107421875,-0.216796875,-1.6174315214157104,-0.3356933295726776,-0.03051757626235485,100.0,145003.0,1.0
15:37:00.063293,198153.046875,180465.40625,231021.46875,209031.015625,199558.171875,175479.703125,686300.0,200623.1875,0.10498046875,0.983642578125,-0.216064453125,-1.6174315214157104,-0.3356933295726776,0.0,100.0,145004.0,1.0
15:37:00.063322,198161.8125,180477.734375,231026.84375,209037.8125,199562.015625,175485.25,686282.0,200625.78125,0.106689453125,0.984375,-0.2109375,-1.5258787870407104,-0.3967284858226776,0.0,100.0,145005.0,1.0
15:37:00.071360,198168.25,180477.46875,231031.046875,209054.171875,199566.125,175462.546875,686277.0625,200646.171875,0.105712890625,0.98193359375,-0.214599609375,-1.5258787870407104,-0.3967284858226776,0.0,100.0,145006.0,1.0
15:37:00.079393,198168.703125,180477.203125,231032.203125,209044.609375,199564.078125,175460.578125,686307.125,200641.15625,0.107666015625,0.982177734375,-0.218505859375,-1.6479490995407104,-0.3967284858226776,0.03051757626235485,100.0,145007.0,1.0
15:37:00.079409,198172.359375,180484.890625,231042.296875,209043.1875,199575.34375,175495.359375,686310.625,200641.15625,0.107177734375,0.980712890625,-0.216064453125,-1.5563963651657104,-0.3967284858226776,-0.03051757626235485,100.0,145008.0,1.0
15:37:00.085668,198171.5625,180484.53125,231037.921875,209033.875,199569.53125,175497.59375,686280.8125,200630.515625,0.1083984375,0.984130859375,-0.218994140625,-1.6479490995407104,-0.3967284858226776,0.0,100.0,145009.0,1.0
15:37:00.085694,198164.859375,180473.0,231025.765625,209031.921875,199560.140625,175463.078125,686279.3125,200635.609375,0.10888671875,0.984130859375,-0.21630859375,-1.6174315214157104,-0.2441406100988388,-0.0610351525247097,100.0,145010.0,1.0
15:37:00.091350,198166.1875,180472.109375,231023.703125,209030.65625,199557.09375,175450.390625,686313.125,200636.234375,0.109619140625,0.9833984375,-0.21435546875,-1.5869139432907104,-0.2746581733226776,0.0,100.0,145011.0,1.0
15:37:00.095121,198166.640625,180477.828125,231028.890625,209027.171875,199563.53125,175477.5625,686319.375,200630.25,0.109619140625,0.981201171875,-0.217529296875,-1.5258787870407104,-0.2441406100988388,0.03051757626235485,100.0,145012.0,1.0
15:37:00.105721,198169.5,180483.453125,231033.71875,209020.828125,199561.921875,175488.296875,686287.5625,200621.40625,0.1103515625,0.980712890625,-0.218017578125,-1.4953612089157104,-0.1831054538488388,-0.03051757626235485,100.0,145013.0,1.0
15:37:00.105747,198170.21875,180479.703125,231028.453125,209023.875,199556.203125,175463.265625,686278.5,200629.796875,0.110595703125,0.98095703125,-0.219482421875,-1.5563963651657104,-0.1220703050494194,0.0,100.0,145014.0,1.0
15:37:00.108292,198175.140625,180480.421875,231029.609375,209031.375,199557.640625,175449.578125,686294.3125,200637.84375,0.109375,0.982421875,-0.21728515625,-1.4953612089157104,0.03051757626235485,-0.0610351525247097,100.0,145015.0,1.0
15:37:00.108325,198178.0,180488.015625,231036.5,209030.65625,199567.375,175477.75,686322.125,200634.453125,0.109619140625,0.983154296875,-0.217041015625,-1.4648436307907104,0.03051757626235485,-0.2441406100988388,100.0,145016.0,1.0
15:37:00.117631,198179.78125,180493.46875,231041.328125,209025.125,199570.328125,175497.765625,686283.625,200628.28125,0.109619140625,0.98388671875,-0.215087890625,-1.4648436307907104,0.03051757626235485,-0.2441406100988388,100.0,145017.0,1.0
15:37:00.121985,198176.65625,180487.125,231032.921875,209020.03125,199560.3125,175473.09375,686271.8125,200628.375,0.107666015625,0.984619140625,-0.21630859375,-1.4648436307907104,0.0610351525247097,-0.2441406100988388,100.0,145018.0,1.0
15:37:00.122016,198174.6875,180479.96875,231028.359375,209030.21875,199555.3125,175446.984375,686286.75,200636.953125,0.1064453125,0.985107421875,-0.213623046875,-1.5563963651657104,0.0915527269244194,-0.4272460639476776,100.0,145019.0,1.0
15:37:00.131990,198182.109375,180492.9375,231041.328125,209044.796875,199566.484375,175472.28125,686319.5625,200638.75,0.10498046875,0.984375,-0.21923828125,-1.5869139432907104,0.0915527269244194,-0.3662109076976776,100.0,145020.0,1.0
15:37:00.132040,198187.734375,180502.6875,231056.078125,209051.3125,199578.015625,175503.9375,686284.3125,200637.140625,0.1044921875,0.98388671875,-0.21630859375,-1.6784666776657104,0.0610351525247097,-0.3967284858226776,100.0,145021.0,1.0
15:37:00.138383,198190.328125,180500.0,231050.078125,209051.046875,199574.53125,175489.015625,686274.5625,200639.546875,0.10009765625,0.9833984375,-0.21826171875,-1.5869139432907104,0.0915527269244194,-0.5798339247703552,100.0,145022.0,1.0
15:37:00.138410,198186.578125,180490.609375,231038.90625,209053.28125,199566.484375,175459.0625,686291.6875,200646.171875,0.10009765625,0.983154296875,-0.217529296875,-1.5869139432907104,0.0915527269244194,-0.5493163466453552,100.0,145023.0,1.0
15:37:00.140684,198176.5625,180484.09375,231030.234375,209035.671875,199559.6875,175462.28125,686331.375,200632.21875,0.098876953125,0.9833984375,-0.21728515625,-1.6174315214157104,0.03051757626235485,-0.5493163466453552,100.0,145024.0,1.0
15:37:00.148184,198184.515625,180495.703125,231047.84375,209041.125,199575.421875,175498.578125,686299.0,200636.328125,0.0966796875,0.98583984375,-0.215087890625,-1.6174315214157104,-0.1220703050494194,-0.6713866591453552,100.0,145025.0,1.0
15:37:00.157041,198182.734375,180492.484375,231041.40625,209032.984375,199566.84375,175486.765625,686276.5625,200630.078125,0.09716796875,0.983154296875,-0.21435546875,-1.6174315214157104,-0.2136230319738388,-0.6408690810203552,100.0,145026.0,1.0
15:37:00.157275,198178.4375,180481.9375,231034.4375,209037.8125,199559.15625,175452.890625,686262.9375,200637.84375,0.096435546875,0.983642578125,-0.21484375,-1.7089842557907104,-0.2441406100988388,-0.6713866591453552,100.0,145027.0,1.0
15:37:00.163893,198192.5625,180497.3125,231047.125,209045.234375,199570.6875,175469.421875,686310.375,200643.21875,0.095703125,0.98388671875,-0.2138671875,-1.6479490995407104,-0.3967284858226776,-0.6103515028953552,100.0,145028.0,1.0
15:37:00.163968,198191.9375,180498.296875,231055.265625,209046.40625,199582.140625,175500.09375,686290.75,200643.484375,0.097412109375,0.982666015625,-0.216064453125,-1.6784666776657104,-0.5187987685203552,-0.6103515028953552,100.0,145029.0,1.0
15:37:00.169540,198188.375,180494.453125,231048.203125,209039.875,199572.828125,175491.421875,686268.25,200635.4375,0.0966796875,0.981689453125,-0.217529296875,-1.7089842557907104,-0.6103515028953552,-0.5187987685203552,100.0,145030.0,1.0
15:37:00.169552,198177.28125,180478.984375,231032.734375,209040.140625,199558.796875,175451.8125,686263.125,200639.453125,0.09716796875,0.982421875,-0.216796875,-1.6784666776657104,-0.7629393935203552,-0.3967284858226776,100.0,145031.0,1.0
15:37:00.171474,198181.84375,180481.21875,231036.140625,209043.890625,199562.015625,175453.0625,686308.125,200643.125,0.094482421875,0.9833984375,-0.2158203125,-1.6784666776657104,-0.8239745497703552,-0.4577636420726776,100.0,145032.0,1.0
15:37:00.182823,198193.90625,180498.21875,231056.34375,209054.359375,199583.65625,175497.5,686308.625,200651.4375,0.09521484375,0.98291015625,-0.213623046875,-1.6479490995407104,-0.9155272841453552,-0.3051757514476776,100.0,145033.0,1.0
15:37:00.190933,198201.25,180509.921875,231063.046875,209054.265625,199588.578125,175512.796875,686285.6875,200649.296875,0.0927734375,0.983154296875,-0.214111328125,-1.5869139432907104,-1.0070799589157104,-0.2136230319738388,100.0,145034.0,1.0
15:37:00.191025,198205.984375,180507.59375,231062.78125,209071.171875,199587.765625,175486.6875,686285.6875,200664.3125,0.09228515625,0.984619140625,-0.21337890625,-1.5869139432907104,-1.1596678495407104,-0.1220703050494194,100.0,145035.0,1.0
15:37:00.191053,198207.5,180507.78125,231065.453125,209075.8125,199585.4375,175476.765625,686311.3125,200666.375,0.09521484375,0.98486328125,-0.21337890625,-1.6174315214157104,-1.1596678495407104,-0.03051757626235485,100.0,145036.0,1.0
15:37:00.192858,198214.828125,180519.578125,231081.203125,209078.9375,199602.25,175515.109375,686321.4375,200669.328125,0.09423828125,0.9833984375,-0.21435546875,-1.5563963651657104,-1.2207030057907104,0.0,100.0,145037.0,1.0
15:37:00.206432,198228.328125,180538.171875,231096.484375,209083.5,199615.21875,175542.390625,686297.0,200673.4375,0.09619140625,0.98291015625,-0.21142578125,-1.4953612089157104,-1.3427733182907104,0.0610351525247097,100.0,145038.0,1.0
15:37:00.210864,198226.09375,180533.796875,231089.328125,209081.984375,199608.328125,175517.890625,686302.6875,200678.4375,0.096435546875,0.982421875,-0.2119140625,-1.3732908964157104,-1.4648436307907104,0.1525878757238388,100.0,145039.0,1.0
15:37:00.210939,198222.15625,180526.5625,231081.109375,209082.96875,199600.28125,175494.546875,686313.5625,200679.6875,0.09814453125,0.98291015625,-0.211669921875,-1.2817381620407104,-1.5869139432907104,0.1831054538488388,100.0,145040.0,1.0
15:37:00.210966,198218.671875,180526.109375,231081.203125,209076.96875,199600.734375,175512.703125,686337.0,200671.203125,0.101318359375,0.984130859375,-0.21630859375,-1.3122557401657104,-1.6174315214157104,0.2136230319738388,100.0,145041.0,1.0
15:37:00.217169,198212.859375,180520.828125,231077.796875,209064.734375,199595.453125,175522.53125,686278.25,200656.265625,0.102294921875,0.985107421875,-0.21240234375,-1.4038084745407104,-1.6784666776657104,0.3051757514476776,100.0,145042.0,1.0
15:37:00.217242,198205.09375,180509.65625,231062.15625,209056.953125,199580.96875,175492.859375,686254.0,200650.90625,0.102294921875,0.985107421875,-0.213623046875,-1.3427733182907104,-1.6479490995407104,0.4272460639476776,100.0,145043.0,1.0
15:37:00.219062,198201.78125,180504.03125,231055.453125,209059.359375,199576.046875,175467.90625,686291.1875,200657.34375,0.10302734375,0.985107421875,-0.216064453125,-1.3427733182907104,-1.5563963651657104,0.6103515028953552,100.0,145044.0,1.0
15:37:00.231568,198203.65625,180507.421875,231058.578125,209060.171875,199582.84375,175486.953125,686322.0625,200655.734375,0.10498046875,0.985595703125,-0.21728515625,-1.4343260526657104,-1.5869139432907104,0.6408690810203552,100.0,145045.0,1.0
15:37:00.235913,198204.015625,180511.09375,231065.375,209061.0625,199588.75,175512.875,686284.0625,200652.0625,0.105712890625,0.98828125,-0.21630859375,-1.4343260526657104,-1.5563963651657104,0.7019042372703552,100.0,145046.0,1.0
15:37:00.235991,198197.21875,180501.25,231052.5,209052.65625,199574.71875,175487.84375,686252.6875,200646.25,0.106201171875,0.98828125,-0.2158203125,-1.4343260526657104,-1.4038084745407104,0.7324218153953552,100.0,145047.0,1.0
15:37:00.238248,198193.640625,180494.640625,231045.96875,209058.921875,199568.90625,175459.421875,686281.4375,200655.46875,0.1064453125,0.98779296875,-0.213623046875,-1.4953612089157104,-1.3732908964157104,0.7629393935203552,100.0,145048.0,1.0
15:37:00.238314,198199.90625,180506.078125,231054.640625,209059.546875,199577.390625,175478.71875,686337.0625,200654.65625,0.10693359375,0.985107421875,-0.212890625,-1.4953612089157104,-1.3427733182907104,0.8544921278953552,100.0,145049.0,1.0
15:37:00.253149,198198.65625,180510.546875,231061.890625,209056.40625,199585.265625,175508.765625,686303.9375,200649.03125,0.10791015625,0.985595703125,-0.21240234375,-1.4953612089157104,-1.3122557401657104,0.9765624403953552,100.0,145050.0,1.0
15:37:00.257447,198199.0,180508.5,231053.921875,209048.90625,199575.34375,175497.953125,686267.6875,200641.609375,0.107177734375,0.9853515625,-0.21533203125,-1.5258787870407104,-1.2512205839157104,0.9460448622703552,100.0,145051.0,1.0
15:37:00.257546,198191.234375,180495.265625,231042.296875,209050.59375,199564.34375,175461.203125,686264.75,200646.796875,0.106201171875,0.986328125,-0.214599609375,-1.5869139432907104,-1.2207030057907104,1.0681151151657104,100.0,145052.0,1.0
15:37:00.264638,198193.90625,180500.453125,231045.515625,209053.546875,199566.21875,175466.203125,686319.625,200646.515625,0.104736328125,0.9873046875,-0.21337890625,-1.6174315214157104,-1.0681151151657104,1.0375975370407104,100.0,145053.0,1.0
15:37:00.264724,198199.0,180511.625,231057.0625,209057.75,199581.0625,175504.5625,686306.0625,200648.3125,0.106201171875,0.987060546875,-0.213134765625,-1.6174315214157104,-1.0070799589157104,1.0375975370407104,100.0,145054.0,1.0
15:37:00.294549,198197.21875,180509.828125,231050.796875,209045.0625,199574.890625,175501.25,686283.375,200638.484375,0.108154296875,0.983642578125,-0.21484375,-1.5869139432907104,-0.9155272841453552,1.0986326932907104,100.0,145055.0,1.0
15:37:00.294579,198190.953125,180495.078125,231038.734375,209046.046875,199564.15625,175463.609375,686272.6875,200644.640625,0.1083984375,0.98291015625,-0.215087890625,-1.6479490995407104,-0.7934569716453552,1.0375975370407104,100.0,145056.0,1.0
15:37:00.319529,198194.984375,180496.875,231041.328125,209050.328125,199565.6875,175461.5625,686308.0,200646.703125,0.107177734375,0.982666015625,-0.216552734375,-1.5563963651657104,-0.7324218153953552,0.9155272841453552,100.0,145057.0,1.0
15:37:00.319583,198202.5,180509.296875,231060.0,209061.15625,199584.71875,175502.421875,686312.9375,200653.046875,0.107666015625,0.983154296875,-0.214599609375,-1.5258787870407104,-0.6408690810203552,0.8239745497703552,100.0,145058.0,1.0
15:37:00.345834,198201.421875,180508.9375,231057.953125,209055.703125,199582.40625,175507.875,686282.5625,200645.1875,0.109375,0.982421875,-0.215087890625,-1.5258787870407104,-0.5493163466453552,0.8544921278953552,100.0,145059.0,1.0
15:37:00.345918,198195.875,180500.265625,231048.109375,209055.078125,199573.109375,175476.484375,686269.25,200649.296875,0.110595703125,0.980224609375,-0.215576171875,-1.5258787870407104,-0.3356933295726776,0.8239745497703552,100.0,145060.0,1.0
15:37:00.345921,198195.515625,180497.140625,231045.4375,209056.859375,199569.609375,175462.640625,686299.0625,200649.46875,0.111328125,0.97998046875,-0.214111328125,-1.4953612089157104,-0.3051757514476776,0.7324218153953552,100.0,145061.0,1.0
15:37:00.347649,198202.859375,180507.875,231060.1875,209064.546875,199586.875,175496.78125,686319.3125,200652.328125,0.1123046875,0.979248046875,-0.21435546875,-1.4648436307907104,-0.1525878757238388,0.7629393935203552,100.0,145062.0,1.0
15:37:00.350141,198205.984375,180514.9375,231078.328125,209061.859375,199589.90625,175514.671875,686281.5625,200647.5,0.11181640625,0.9794921875,-0.214111328125,-1.3427733182907104,-0.03051757626235485,0.8239745497703552,100.0,145063.0,1.0
15:37:00.352664,198206.25,180513.140625,231086.109375,209063.125,199585.265625,175492.578125,686268.5625,200654.65625,0.108642578125,0.98046875,-0.214111328125,-1.3732908964157104,0.0915527269244194,0.7934569716453552,100.0,145064.0,1.0
15:37:00.355111,198203.921875,180507.875,231083.15625,209066.15625,199582.671875,175474.703125,686285.5,200660.03125,0.10693359375,0.98046875,-0.215087890625,-1.3732908964157104,0.1525878757238388,0.7019042372703552,100.0,145065.0,1.0
15:37:00.357619,198209.46875,180516.625,231088.890625,209069.109375,199594.375,175503.578125,686323.25,200661.546875,0.106689453125,0.98388671875,-0.21533203125,-1.3122557401657104,0.2746581733226776,0.5798339247703552,100.0,145066.0,1.0
15:37:00.360114,198214.75,180525.921875,231098.71875,209067.59375,199601.625,175528.34375,686281.8125,200657.25,0.105224609375,0.984130859375,-0.214111328125,-1.2512205839157104,0.3662109076976776,0.4882812201976776,100.0,145067.0,1.0
15:37:00.362571,198212.59375,180519.9375,231088.703125,209063.03125,199592.0625,175504.828125,686269.0625,200656.984375,0.103759765625,0.984375,-0.217041015625,-1.2817381620407104,0.3662109076976776,0.4882812201976776,100.0,145068.0,1.0
15:37:00.365107,198207.046875,180508.859375,231078.421875,209064.8125,199582.765625,175475.5,686290.9375,200661.359375,0.102294921875,0.9833984375,-0.22021484375,-1.2512205839157104,0.3662109076976776,0.4882812201976776,100.0,145069.0,1.0
15:37:00.367599,198211.53125,180516.546875,231085.046875,209064.734375,199589.375,175495.71875,686332.25,200659.046875,0.10302734375,0.985107421875,-0.21923828125,-1.1901854276657104,0.3662109076976776,0.3662109076976776,100.0,145070.0,1.0
15:37:00.370080,198216.4375,180525.484375,231094.515625,209066.15625,199598.21875,175525.390625,686299.0,200656.984375,0.10400390625,0.986328125,-0.21875,-1.0681151151657104,0.2746581733226776,0.3356933295726776,100.0,145071.0,1.0
15:37:00.372586,198214.5625,180520.125,231089.25,209062.578125,199589.734375,175506.703125,686281.375,200655.828125,0.10498046875,0.985595703125,-0.216552734375,-1.0375975370407104,0.2136230319738388,0.4272460639476776,100.0,145072.0,1.0
15:37:00.375255,198210.359375,180511.0,231083.515625,209070.71875,199584.71875,175477.203125,686280.1875,200667.359375,0.10400390625,0.98486328125,-0.217529296875,-1.0681151151657104,0.3051757514476776,0.3967284858226776,100.0,145073.0,1.0
15:37:00.377749,198216.171875,180518.515625,231088.265625,209073.75,199592.5,175492.578125,686329.1875,200667.71875,0.10302734375,0.9873046875,-0.217041015625,-1.0375975370407104,0.2136230319738388,0.2746581733226776,100.0,145074.0,1.0
15:37:00.380188,198220.90625,180528.875,231100.953125,209076.0,199605.015625,175527.453125,686304.5625,200666.1875,0.104248046875,0.986572265625,-0.217529296875,-1.1291502714157104,0.2441406100988388,0.2136230319738388,100.0,145075.0,1.0
15:37:00.382766,198222.25,180531.5625,231093.890625,209073.21875,199599.203125,175523.078125,686284.6875,200661.546875,0.10205078125,0.986572265625,-0.216552734375,-1.1596678495407104,0.3051757514476776,0.1220703050494194,100.0,145076.0,1.0
15:37:00.385789,198216.984375,180522.0,231088.703125,209077.6875,199592.765625,175491.421875,686271.1875,200669.859375,0.09912109375,0.988525390625,-0.21337890625,-1.2207030057907104,0.3356933295726776,0.0610351525247097,100.0,145077.0,1.0
15:37:00.385808,198213.765625,180519.484375,231083.15625,209072.5,199590.625,175491.15625,686310.625,200662.96875,0.09716796875,0.988037109375,-0.2109375,-1.3732908964157104,0.3051757514476776,0.03051757626235485,100.0,145078.0,1.0
15:37:00.388209,198216.265625,180525.484375,231094.15625,209075.8125,199602.703125,175526.375,686296.25,200663.953125,0.096923828125,0.987060546875,-0.21240234375,-1.3122557401657104,0.2136230319738388,-0.0610351525247097,100.0,145079.0,1.0
15:37:00.388216,198213.21875,180523.78125,231090.140625,209066.25,199595.359375,175522.71875,686271.375,200654.84375,0.0966796875,0.987060546875,-0.21484375,-1.3732908964157104,0.0915527269244194,-0.03051757626235485,100.0,145080.0,1.0
15:37:00.388220,198208.125,180514.578125,231077.984375,209068.578125,199586.96875,175490.53125,686268.75,200663.328125,0.095947265625,0.986083984375,-0.217529296875,-1.4343260526657104,-0.03051757626235485,0.0,100.0,145081.0,1.0
15:37:00.390646,198208.03125,180513.859375,231075.296875,209067.671875,199583.296875,175484.453125,686307.75,200661.28125,0.097412109375,0.986328125,-0.21435546875,-1.4648436307907104,-0.1220703050494194,0.0,100.0,145082.0,1.0
15:37:00.390650,198210.890625,180523.25,231084.59375,209072.5,199596.078125,175519.765625,686317.125,200661.90625,0.098388671875,0.9853515625,-0.214111328125,-1.4953612089157104,-0.2441406100988388,0.0610351525247097,100.0,145083.0,1.0
15:37:00.392641,198213.484375,180526.203125,231087.453125,209066.6875,199596.078125,175527.71875,686275.9375,200655.90625,0.09912109375,0.98291015625,-0.21142578125,-1.4953612089157104,-0.3356933295726776,0.1525878757238388,100.0,145084.0,1.0
15:37:00.396280,198205.984375,180511.359375,231076.28125,209069.203125,199583.203125,175491.15625,686273.9375,200659.84375,0.09912109375,0.9833984375,-0.214111328125,-1.5563963651657104,-0.3356933295726776,0.1831054538488388,100.0,145085.0,1.0
15:37:00.396349,198203.125,180502.6875,231066.625,209070.453125,199574.796875,175472.46875,686313.625,200657.609375,0.101318359375,0.9833984375,-0.213623046875,-1.4648436307907104,-0.4272460639476776,0.2136230319738388,100.0,145086.0,1.0
15:37:00.397841,198211.53125,180516.09375,231079.3125,209076.96875,199590.0,175508.140625,686321.25,200658.6875,0.099853515625,0.984375,-0.212890625,-1.5258787870407104,-0.4272460639476776,0.2441406100988388,100.0,145087.0,1.0
15:37:00.400732,198217.421875,180525.03125,231091.390625,209076.703125,199596.703125,175528.96875,686291.125,200655.90625,0.100341796875,0.985107421875,-0.213134765625,-1.6174315214157104,-0.4577636420726776,0.3967284858226776,100.0,145088.0,1.0
15:37:00.400790,198217.96875,180519.578125,231086.203125,209077.609375,199593.671875,175506.890625,686273.0,200665.828125,0.10205078125,0.984130859375,-0.21484375,-1.6479490995407104,-0.5493163466453552,0.5798339247703552,100.0,145089.0,1.0
15:37:00.402651,198208.578125,180506.609375,231071.265625,209076.0,199583.296875,175479.0,686286.75,200662.890625,0.103515625,0.983154296875,-0.2109375,-1.5258787870407104,-0.4882812201976776,0.6713866591453552,100.0,145090.0,1.0
15:37:00.412724,198208.390625,180510.90625,231075.5625,209081.625,199589.734375,175502.421875,686326.375,200658.328125,0.103515625,0.983642578125,-0.2109375,-1.4953612089157104,-0.4272460639476776,0.8239745497703552,100.0,145091.0,1.0
15:37:00.415100,198216.265625,180521.90625,231091.921875,209088.78125,199600.640625,175530.3125,686284.75,200658.765625,0.105712890625,0.982666015625,-0.212890625,-1.4648436307907104,-0.4272460639476776,0.9460448622703552,100.0,145092.0,1.0
15:37:00.421933,198217.0625,180520.125,231086.375,209090.921875,199595.359375,175510.734375,686275.375,200663.953125,0.104248046875,0.984375,-0.211669921875,-1.5869139432907104,-0.4272460639476776,1.0681151151657104,100.0,145093.0,1.0
15:37:00.421942,198217.328125,180515.921875,231080.921875,209099.0625,199591.25,175486.140625,686274.875,200672.546875,0.1044921875,0.983642578125,-0.212646484375,-1.4953612089157104,-0.4272460639476776,1.3427733182907104,100.0,145094.0,1.0
15:37:00.432341,198221.53125,180523.25,231087.453125,209099.328125,199598.21875,175504.296875,686332.25,200670.578125,0.10400390625,0.983154296875,-0.212158203125,-1.4953612089157104,-0.3662109076976776,1.3732908964157104,100.0,145095.0,1.0
15:37:00.432396,198225.46875,180531.03125,231096.125,209093.875,199606.8125,175533.0,686303.5625,200667.625,0.1064453125,0.9853515625,-0.2119140625,-1.4648436307907104,-0.2441406100988388,1.4648436307907104,100.0,145096.0,1.0
15:37:00.433842,198226.90625,180530.75,231094.34375,209088.59375,199602.25,175519.859375,686287.25,200667.53125,0.103759765625,0.984130859375,-0.21337890625,-1.4343260526657104,-0.2746581733226776,1.4343260526657104,100.0,145097.0,1.0
15:37:00.437621,198222.25,180521.90625,231090.578125,209092.53125,199597.78125,175490.4375,686303.0,200676.296875,0.103759765625,0.985107421875,-0.21142578125,-1.4343260526657104,-0.3967284858226776,1.4038084745407104,100.0,145098.0,1.0
15:37:00.448200,198223.0625,180525.03125,231089.875,209088.328125,199599.75,175500.8125,686344.75,200673.171875,0.103515625,0.983642578125,-0.2119140625,-1.5258787870407104,-0.3051757514476776,1.3732908964157104,100.0,145099.0,1.0
15:37:00.448205,198219.84375,180524.046875,231092.734375,209083.140625,199604.484375,175527.546875,686306.125,200666.46875,0.101806640625,0.9833984375,-0.212890625,-1.5869139432907104,-0.3051757514476776,1.4038084745407104,100.0,145100.0,1.0
15:37:00.450685,198218.671875,180524.671875,231087.640625,209075.28125,199597.953125,175519.671875,686283.6875,200659.578125,0.104248046875,0.982177734375,-0.212646484375,-1.5258787870407104,-0.3967284858226776,1.2817381620407104,100.0,145101.0,1.0
15:37:00.450689,198217.875,180519.9375,231084.953125,209084.125,199594.46875,175492.3125,686277.5625,200672.625,0.103759765625,0.981201171875,-0.21337890625,-1.4038084745407104,-0.3356933295726776,1.3122557401657104,100.0,145102.0,1.0
15:37:00.459674,198215.546875,180519.046875,231082.984375,209082.515625,199591.4375,175493.65625,686327.6875,200666.46875,0.1044921875,0.982666015625,-0.2119140625,-1.4953612089157104,-0.3662109076976776,1.2817381620407104,100.0,145103.0,1.0
15:37:00.466547,198211.796875,180521.640625,231087.015625,209076.0,199595.359375,175522.09375,686320.8125,200657.4375,0.107421875,0.983154296875,-0.215576171875,-1.4038084745407104,-0.1831054538488388,1.2207030057907104,100.0,145104.0,1.0
15:37:00.466599,198214.828125,180527.359375,231088.265625,209070.71875,199593.9375,175524.765625,686289.0,200653.234375,0.10791015625,0.983642578125,-0.21533203125,-1.3732908964157104,-0.1831054538488388,1.1291502714157104,100.0,145105.0,1.0
15:37:00.471613,198215.453125,180524.671875,231082.453125,209079.21875,199592.765625,175500.09375,686277.375,200667.0,0.107177734375,0.98291015625,-0.215576171875,-1.3122557401657104,-0.2136230319738388,1.0986326932907104,100.0,145106.0,1.0
15:37:00.478574,198216.53125,180526.828125,231082.0,209078.671875,199592.421875,175496.421875,686306.6875,200667.359375,0.108154296875,0.981201171875,-0.21337890625,-1.2817381620407104,-0.2441406100988388,1.1901854276657104,100.0,145107.0,1.0
15:37:00.478627,198220.640625,180536.921875,231092.28125,209083.0625,199605.296875,175530.046875,686325.875,200667.71875,0.109130859375,0.98193359375,-0.216064453125,-1.2817381620407104,-0.1525878757238388,1.1291502714157104,100.0,145108.0,1.0
15:37:00.485771,198221.890625,180537.1875,231089.953125,209078.140625,199602.078125,175533.890625,686278.625,200659.578125,0.111328125,0.982177734375,-0.216796875,-1.2512205839157104,-0.03051757626235485,1.0375975370407104,100.0,145109.0,1.0
15:37:00.485783,198217.78125,180525.484375,231080.125,209079.03125,199592.6875,175502.0625,686270.375,200666.28125,0.110107421875,0.983154296875,-0.216064453125,-1.1596678495407104,0.03051757626235485,1.0986326932907104,100.0,145110.0,1.0
15:37:00.491397,198208.390625,180511.09375,231069.9375,209072.953125,199581.328125,175479.703125,686298.25,200660.734375,0.109375,0.983642578125,-0.216796875,-1.2207030057907104,0.1831054538488388,1.0070799589157104,100.0,145111.0,1.0
15:37:00.499472,198211.609375,180519.578125,231080.03125,209073.75,199591.703125,175510.90625,686314.75,200660.921875,0.1103515625,0.982421875,-0.215576171875,-1.0681151151657104,0.1831054538488388,1.0375975370407104,100.0,145112.0,1.0
15:37:00.499554,198216.984375,180527.265625,231084.140625,209073.671875,199596.890625,175530.84375,686286.125,200657.96875,0.111083984375,0.980224609375,-0.214599609375,-1.0986326932907104,0.1831054538488388,0.9765624403953552,100.0,145113.0,1.0
15:37:00.502018,198213.671875,180519.21875,231076.09375,209073.9375,199588.84375,175501.96875,686272.875,200662.078125,0.11328125,0.980224609375,-0.21533203125,-1.0070799589157104,0.2746581733226776,0.9460448622703552,100.0,145114.0,1.0
15:37:00.502082,198208.03125,180507.875,231076.28125,209074.921875,199580.4375,175475.328125,686293.375,200664.671875,0.11279296875,0.98291015625,-0.21630859375,-1.0070799589157104,0.4272460639476776,1.0681151151657104,100.0,145115.0,1.0
15:37:00.511405,198212.5,180514.125,231083.4375,209077.953125,199590.625,175500.8125,686312.9375,200664.40625,0.112060546875,0.98291015625,-0.215087890625,-0.9460448622703552,0.4577636420726776,0.9765624403953552,100.0,145116.0,1.0
15:37:00.537064,198215.1875,180521.90625,231087.359375,209075.90625,199597.953125,175526.828125,686272.5,200658.765625,0.110595703125,0.982421875,-0.218017578125,-0.9765624403953552,0.5798339247703552,1.0681151151657104,100.0,145117.0,1.0
15:37:00.537137,198215.8125,180519.140625,231081.203125,209074.203125,199592.421875,175506.0,686262.875,200660.296875,0.1103515625,0.9833984375,-0.220947265625,-0.8850097060203552,0.6408690810203552,1.0070799589157104,100.0,145118.0,1.0
15:37:00.537163,198217.0625,180513.859375,231077.53125,209083.0625,199590.1875,175481.140625,686274.0625,200671.203125,0.109130859375,0.98388671875,-0.2197265625,-0.9765624403953552,0.7019042372703552,0.9155272841453552,100.0,145119.0,1.0
15:37:00.538886,198214.46875,180512.515625,231075.109375,209078.3125,199590.625,175493.828125,686314.4375,200664.046875,0.108154296875,0.98291015625,-0.21728515625,-0.8544921278953552,0.6713866591453552,0.8850097060203552,100.0,145120.0,1.0
15:37:00.549495,198216.359375,180518.0625,231086.03125,209079.65625,199600.109375,175523.15625,686284.6875,200661.984375,0.107421875,0.98486328125,-0.21923828125,-0.8850097060203552,0.7629393935203552,0.9155272841453552,100.0,145121.0,1.0
15:37:00.549508,198219.125,180519.9375,231084.234375,209075.453125,199596.265625,175512.796875,686275.375,200661.28125,0.105712890625,0.984619140625,-0.217041015625,-0.8544921278953552,0.6713866591453552,0.8239745497703552,100.0,145122.0,1.0
15:37:00.549511,198215.640625,180512.34375,231077.0,209080.1875,199590.53125,175483.46875,686287.4375,200668.703125,0.104736328125,0.984375,-0.21875,-0.8850097060203552,0.7019042372703552,0.7629393935203552,100.0,145123.0,1.0
15:37:00.558185,198219.390625,180519.9375,231080.921875,209082.703125,199596.4375,175495.4375,686337.4375,200668.421875,0.10400390625,0.98193359375,-0.219482421875,-0.8850097060203552,0.7629393935203552,0.6408690810203552,100.0,145124.0,1.0
15:37:00.558192,198220.546875,180527.1875,231089.25,209085.296875,199604.9375,175527.71875,686310.4375,200664.765625,0.103515625,0.983154296875,-0.21875,-0.9155272841453552,0.7934569716453552,0.6408690810203552,100.0,145125.0,1.0
15:37:00.564504,198220.46875,180523.515625,231083.34375,209076.4375,199595.984375,175519.140625,686277.5625,200656.984375,0.104248046875,0.983154296875,-0.2177734375,-0.9460448622703552,0.7324218153953552,0.5798339247703552,100.0,145126.0,1.0
15:37:00.564580,198213.3125,180506.796875,231074.9375,209078.140625,199583.390625,175481.140625,686277.375,200664.046875,0.1015625,0.983642578125,-0.21728515625,-0.8850097060203552,0.6408690810203552,0.3662109076976776,100.0,145127.0,1.0
15:37:00.567064,198210.71875,180505.0,231068.59375,209073.125,199579.265625,175479.890625,686318.75,200658.859375,0.1015625,0.983154296875,-0.218017578125,-0.8544921278953552,0.4577636420726776,0.3051757514476776,100.0,145128.0,1.0
15:37:00.567125,198216.890625,180515.203125,231080.84375,209077.78125,199595.359375,175517.796875,686304.375,200661.8125,0.1025390625,0.981201171875,-0.2158203125,-0.8239745497703552,0.4272460639476776,0.3356933295726776,100.0,145129.0,1.0
15:37:00.570398,198215.015625,180514.84375,231075.5625,209066.875,199587.59375,175516.640625,686270.75,200650.71875,0.1025390625,0.979736328125,-0.21875,-0.9155272841453552,0.3967284858226776,0.1831054538488388,100.0,145130.0,1.0
15:37:00.570469,198203.921875,180500.265625,231059.203125,209065.4375,199574.625,175478.453125,686278.8125,200653.5,0.102783203125,0.978759765625,-0.218017578125,-0.9765624403953552,0.2441406100988388,0.2136230319738388,100.0,145131.0,1.0
15:37:00.582019,198206.875,180499.734375,231058.21875,209078.578125,199575.25,175472.28125,686306.5625,200657.515625,0.103759765625,0.978759765625,-0.219482421875,-0.8544921278953552,0.3051757514476776,0.2746581733226776,100.0,145132.0,1.0
15:37:00.582099,198209.921875,180507.25,231067.78125,209082.25,199587.5,175504.828125,686312.5,200657.96875,0.106201171875,0.97900390625,-0.220947265625,-0.7629393935203552,0.1831054538488388,0.3967284858226776,100.0,145133.0,1.0
15:37:00.584584,198210.265625,180509.921875,231071.984375,209072.953125,199585.890625,175514.046875,686274.5,200650.8125,0.1064453125,0.980224609375,-0.220458984375,-0.6713866591453552,0.1525878757238388,0.3967284858226776,100.0,145134.0,1.0
15:37:00.584665,198207.328125,180504.03125,231065.90625,209072.0625,199578.828125,175486.6875,686276.4375,200657.875,0.105712890625,0.980712890625,-0.22265625,-0.6408690810203552,0.1525878757238388,0.5187987685203552,100.0,145135.0,1.0
15:37:00.591691,198206.421875,180506.796875,231061.078125,209070.453125,199574.890625,175473.265625,686297.375,200656.890625,0.106201171875,0.98193359375,-0.22216796875,-0.6103515028953552,-0.03051757626235485,0.6103515028953552,100.0,145136.0,1.0
15:37:00.599517,198215.546875,180522.890625,231078.421875,209075.8125,199592.421875,175508.859375,686330.375,200661.640625,0.10546875,0.9814453125,-0.221923828125,-0.6103515028953552,0.03051757626235485,0.5798339247703552,100.0,145137.0,1.0
15:37:00.599598,198219.296875,180531.109375,231083.609375,209073.125,199598.671875,175528.703125,686284.0,200657.515625,0.10546875,0.980712890625,-0.22021484375,-0.6408690810203552,-0.0610351525247097,0.7019042372703552,100.0,145138.0,1.0
15:37:00.602007,198214.75,180519.9375,231070.734375,209070.53125,199587.5,175500.359375,686272.875,200657.703125,0.103759765625,0.98046875,-0.220703125,-0.7629393935203552,0.0,0.6103515028953552,100.0,145139.0,1.0
15:37:00.602073,198212.421875,180511.796875,231064.296875,209076.078125,199582.578125,175478.28125,686284.3125,200663.328125,0.1015625,0.9814453125,-0.223388671875,-0.7934569716453552,-0.0915527269244194,0.5493163466453552,100.0,145140.0,1.0
15:37:00.615189,198211.609375,180515.015625,231068.5,209073.3125,199588.296875,175499.640625,686325.1875,200658.328125,0.10107421875,0.984130859375,-0.2216796875,-0.7934569716453552,-0.0915527269244194,0.4882812201976776,100.0,145141.0,1.0
15:37:00.619612,198214.921875,180523.875,231080.03125,209071.34375,199595.546875,175525.03125,686292.3125,200653.3125,0.100341796875,0.98583984375,-0.224853515625,-0.7934569716453552,-0.1525878757238388,0.3356933295726776,100.0,145142.0,1.0
15:37:00.619673,198213.765625,180520.296875,231075.109375,209068.921875,199588.390625,175505.734375,686280.5,200654.390625,0.099365234375,0.98828125,-0.220703125,-0.8544921278953552,-0.2441406100988388,0.3051757514476776,100.0,145143.0,1.0
15:37:00.625854,198211.34375,180511.890625,231066.890625,209075.546875,199581.6875,175478.71875,686287.375,200662.609375,0.100341796875,0.9892578125,-0.222412109375,-0.9155272841453552,-0.4882812201976776,0.3051757514476776,100.0,145144.0,1.0
15:37:00.625922,198218.3125,180518.59375,231074.21875,209080.28125,199591.25,175499.296875,686329.1875,200664.046875,0.102783203125,0.990966796875,-0.222412109375,-1.0375975370407104,-0.5798339247703552,0.2746581733226776,100.0,145145.0,1.0
15:37:00.627751,198219.578125,180525.578125,231082.359375,209077.6875,199600.640625,175530.765625,686291.3125,200659.75,0.1005859375,0.98876953125,-0.220947265625,-1.0375975370407104,-0.6103515028953552,0.2746581733226776,100.0,145146.0,1.0
