Timestamp,Fz,FC3,FCz,FC4,Cz,C3,C4
15:39:46.176733,197768.609375,182185.140625,230134.375,210184.90625,199599.203125,177383.28125,686115.8125,199741.015625,0.0869140625,0.9755859375,-0.25244140625,-1.4953612089157104,-0.0915527269244194,0.6103515028953552,100.0,186561.0,1.0
15:39:46.176754,197766.09375,182182.46875,230131.15625,210183.125,199597.421875,177388.109375,686162.625,199734.125,0.087646484375,0.975341796875,-0.255126953125,-1.4648436307907104,-0.1831054538488388,0.6713866591453552,100.0,186562.0,1.0
15:39:46.176762,197758.765625,182178.703125,230131.15625,210178.734375,199598.671875,177410.8125,686130.4375,199725.1875,0.088134765625,0.974609375,-0.25439453125,-1.4038084745407104,-0.1220703050494194,0.7019042372703552,100.0,186563.0,1.0
15:39:46.179015,197745.359375,182162.796875,230115.59375,210159.15625,199580.609375,177389.984375,686106.5625,199708.734375,0.087890625,0.976318359375,-0.256103515625,-1.4648436307907104,-0.1220703050494194,0.7934569716453552,100.0,186564.0,1.0
15:39:46.190399,197730.6875,182139.71875,230099.5,210152.09375,199562.546875,177342.421875,686099.0,199707.390625,0.0869140625,0.975830078125,-0.25439453125,-1.4648436307907104,-0.1831054538488388,0.6103515028953552,100.0,186565.0,1.0
15:39:46.193399,197734.1875,182142.5,230100.3125,210152.09375,199562.203125,177341.34375,686120.0625,199704.796875,0.0869140625,0.976318359375,-0.252197265625,-1.4343260526657104,-0.1220703050494194,0.6713866591453552,100.0,186566.0,1.0
15:39:46.193425,197744.734375,182156.09375,230117.203125,210162.015625,199581.5,177382.296875,686116.125,199710.875,0.089599609375,0.974853515625,-0.25390625,-1.4648436307907104,-0.1525878757238388,0.6408690810203552,100.0,186567.0,1.0
15:39:46.199042,197748.3125,182160.109375,230117.65625,210159.421875,199580.078125,177384.34375,686124.3125,199705.609375,0.090087890625,0.9765625,-0.255126953125,-1.4953612089157104,-0.1525878757238388,0.6408690810203552,100.0,186568.0,1.0
15:39:46.207163,197741.25,182149.375,230104.609375,210162.640625,199568.0,177349.125,686110.875,199710.703125,0.089111328125,0.974365234375,-0.259033203125,-1.5258787870407104,-0.1220703050494194,0.6713866591453552,100.0,186569.0,1.0
15:39:46.207181,197739.640625,182149.203125,230100.765625,210159.515625,199564.703125,177342.328125,686129.625,199707.03125,0.090087890625,0.974853515625,-0.2587890625,-1.4953612089157104,-0.1525878757238388,0.7629393935203552,100.0,186570.0,1.0
15:39:46.215905,197748.3125,182163.421875,230116.9375,210166.125,199584.1875,177384.34375,686144.6875,199713.46875,0.09033203125,0.975341796875,-0.25732421875,-1.4953612089157104,-0.0915527269244194,0.7934569716453552,100.0,186571.0,1.0
15:39:46.215914,197749.734375,182167.984375,230118.734375,210160.59375,199585.078125,177394.890625,686117.5,199709.09375,0.091552734375,0.974609375,-0.256591796875,-1.5258787870407104,-0.1220703050494194,0.9155272841453552,100.0,186572.0,1.0
15:39:46.228000,197741.515625,182156.265625,230106.03125,210156.828125,199571.84375,177359.9375,686110.4375,199710.515625,0.0908203125,0.975341796875,-0.25634765625,-1.4343260526657104,-0.0915527269244194,0.9155272841453552,100.0,186573.0,1.0
15:39:46.230340,197735.875,182149.375,230098.171875,210151.375,199561.65625,177340.890625,686116.625,199705.609375,0.09033203125,0.974853515625,-0.253662109375,-1.4648436307907104,-0.0915527269244194,0.9460448622703552,100.0,186574.0,1.0
15:39:46.232756,197745.0,182163.5,230112.46875,210158.4375,199575.609375,177378.0,686140.5625,199706.234375,0.089111328125,0.974365234375,-0.25439453125,-1.4343260526657104,-0.0610351525247097,1.0070799589157104,100.0,186575.0,1.0
15:39:46.235192,197749.828125,182171.46875,230118.109375,210156.390625,199580.25,177399.453125,686116.4375,199699.703125,0.088623046875,0.975830078125,-0.25244140625,-1.4648436307907104,-0.03051757626235485,1.0070799589157104,100.0,186576.0,1.0
15:39:46.237985,197749.109375,182167.265625,230112.828125,210158.53125,199573.453125,177374.6875,686114.1875,199704.796875,0.087890625,0.978271484375,-0.25341796875,-1.4648436307907104,-0.0915527269244194,0.9460448622703552,100.0,186577.0,1.0
15:39:46.241697,197746.15625,182161.890625,230106.21875,210163.265625,199566.75,177351.984375,686109.4375,199708.015625,0.08837890625,0.97900390625,-0.255615234375,-1.5869139432907104,-0.1220703050494194,0.9155272841453552,100.0,186578.0,1.0
15:39:46.255531,197747.40625,182166.375,230110.59375,210161.921875,199573.015625,177376.125,686150.0625,199703.734375,0.089599609375,0.977783203125,-0.253173828125,-1.5258787870407104,-0.0610351525247097,0.9460448622703552,100.0,186579.0,1.0
15:39:46.255618,197755.1875,182178.703125,230124.09375,210164.875,199586.25,177408.390625,686120.6875,199705.421875,0.09033203125,0.97802734375,-0.255615234375,-1.5563963651657104,-0.1220703050494194,1.0070799589157104,100.0,186580.0,1.0
15:39:46.255649,197759.03125,182179.421875,230123.640625,210166.9375,199585.0,177392.65625,686121.625,199711.0625,0.091552734375,0.97607421875,-0.255615234375,-1.5563963651657104,-0.1525878757238388,1.0070799589157104,100.0,186581.0,1.0
15:39:46.260324,197758.046875,182174.59375,230121.140625,210173.734375,199581.328125,177368.15625,686111.0625,199719.46875,0.09375,0.97412109375,-0.25537109375,-1.5869139432907104,-0.1525878757238388,1.0070799589157104,100.0,186582.0,1.0
15:39:46.260409,197757.78125,182176.375,230124.984375,210170.875,199584.90625,177383.546875,686143.625,199715.078125,0.094482421875,0.97509765625,-0.253662109375,-1.5563963651657104,-0.0915527269244194,0.9460448622703552,100.0,186583.0,1.0
15:39:46.260437,197759.75,182183.625,230134.015625,210170.421875,199594.828125,177414.5625,686109.8125,199713.375,0.0947265625,0.973388671875,-0.2529296875,-1.6174315214157104,-0.0610351525247097,0.9155272841453552,100.0,186584.0,1.0
15:39:46.262875,197761.71875,182183.265625,230130.078125,210167.734375,199591.34375,177402.578125,686114.1875,199712.671875,0.09423828125,0.971923828125,-0.254638671875,-1.5563963651657104,0.0915527269244194,1.0070799589157104,100.0,186585.0,1.0
15:39:46.272728,197762.078125,182177.28125,230126.328125,210179.09375,199589.28125,177374.328125,686111.3125,199726.796875,0.093017578125,0.9716796875,-0.256591796875,-1.5869139432907104,0.2136230319738388,1.0375975370407104,100.0,186586.0,1.0
15:39:46.275959,197763.59375,182178.890625,230127.046875,210178.65625,199590.53125,177382.828125,686140.125,199725.0,0.09326171875,0.969970703125,-0.2529296875,-1.4648436307907104,0.2441406100988388,0.9460448622703552,100.0,186587.0,1.0
15:39:46.276005,197762.796875,182181.296875,230133.21875,210178.296875,199599.5625,177412.421875,686112.125,199722.59375,0.09130859375,0.9716796875,-0.2578125,-1.4953612089157104,0.3051757514476776,0.9155272841453552,100.0,186588.0,1.0
15:39:46.279046,197760.90625,182179.6875,230127.671875,210170.609375,199592.953125,177404.375,686114.625,199716.78125,0.09228515625,0.97216796875,-0.261474609375,-1.5258787870407104,0.2746581733226776,0.8544921278953552,100.0,186589.0,1.0
15:39:46.291559,197754.46875,182168.515625,230119.984375,210176.0625,199584.015625,177369.234375,686108.1875,199726.25,0.09130859375,0.97314453125,-0.2587890625,-1.3732908964157104,0.3662109076976776,0.9765624403953552,100.0,186590.0,1.0
15:39:46.294652,197757.15625,182171.828125,230122.84375,210176.59375,199586.0625,177371.46875,686138.0625,199725.09375,0.0888671875,0.9755859375,-0.257568359375,-1.3732908964157104,0.3356933295726776,0.8850097060203552,100.0,186591.0,1.0
15:39:46.294672,197764.84375,182184.25,230137.234375,210186.0625,199604.65625,177412.875,686136.6875,199729.65625,0.090576171875,0.974853515625,-0.255615234375,-1.1901854276657104,0.4272460639476776,0.9155272841453552,100.0,186592.0,1.0
15:39:46.296532,197765.109375,182185.234375,230133.65625,210178.296875,199599.828125,177413.765625,686119.125,199720.71875,0.09326171875,0.97412109375,-0.2578125,-1.1291502714157104,0.4272460639476776,0.8850097060203552,100.0,186593.0,1.0
15:39:46.304087,197758.234375,182171.46875,230121.0625,210181.515625,199589.375,177377.375,686101.25,199727.234375,0.093505859375,0.97509765625,-0.2568359375,-1.1596678495407104,0.3662109076976776,0.7934569716453552,100.0,186594.0,1.0
15:39:46.314619,197756.625,182167.890625,230117.203125,210178.015625,199585.078125,177366.28125,686116.3125,199723.9375,0.09423828125,0.97509765625,-0.2578125,-1.0986326932907104,0.3662109076976776,0.7019042372703552,100.0,186595.0,1.0
15:39:46.314664,197758.59375,182175.578125,230128.296875,210180.265625,199596.171875,177400.53125,686143.125,199722.765625,0.091064453125,0.975341796875,-0.25732421875,-1.0986326932907104,0.4272460639476776,0.5798339247703552,100.0,186596.0,1.0
15:39:46.317097,197761.453125,182181.296875,230134.015625,210176.765625,199595.984375,177412.15625,686120.375,199716.515625,0.09033203125,0.978759765625,-0.256591796875,-1.1596678495407104,0.4882812201976776,0.4577636420726776,100.0,186597.0,1.0
15:39:46.317132,197757.875,182173.96875,230126.0625,210177.390625,199586.609375,177381.578125,686118.8125,199722.40625,0.089111328125,0.98046875,-0.2568359375,-1.1596678495407104,0.3662109076976776,0.2746581733226776,100.0,186598.0,1.0
15:39:46.322762,197756.0,182170.03125,230118.015625,210175.78125,199581.0625,177364.765625,686119.4375,199722.5,0.086669921875,0.978515625,-0.257080078125,-1.2207030057907104,0.2441406100988388,0.1525878757238388,100.0,186599.0,1.0
15:39:46.333341,197756.171875,182175.484375,230124.546875,210174.171875,199590.0,177393.28125,686141.0,199718.65625,0.08740234375,0.9794921875,-0.253173828125,-1.2817381620407104,0.3051757514476776,0.0915527269244194,100.0,186600.0,1.0
15:39:46.333396,197756.703125,182180.046875,230129.640625,210168.359375,199592.328125,177411.796875,686116.125,199712.671875,0.084716796875,0.980224609375,-0.25537109375,-1.4038084745407104,0.3356933295726776,0.0,100.0,186601.0,1.0
15:39:46.335882,197753.140625,182172.625,230121.328125,210169.078125,199583.5625,177385.328125,686115.8125,199716.0625,0.08837890625,0.978271484375,-0.254638671875,-1.4648436307907104,0.1831054538488388,0.0,100.0,186602.0,1.0
15:39:46.335922,197750.1875,182166.09375,230115.15625,210173.734375,199577.21875,177362.078125,686106.3125,199719.46875,0.087646484375,0.977294921875,-0.25537109375,-1.4038084745407104,0.1525878757238388,-0.2136230319738388,100.0,186603.0,1.0
15:39:46.345401,197756.0,182174.859375,230123.828125,210177.84375,199587.5,177389.359375,686140.375,199719.1875,0.087158203125,0.97607421875,-0.256103515625,-1.4343260526657104,0.1525878757238388,-0.2441406100988388,100.0,186604.0,1.0
15:39:46.358650,197756.984375,182179.953125,230129.640625,210179.8125,199593.484375,177413.40625,686107.9375,199713.03125,0.08837890625,0.975341796875,-0.254638671875,-1.4038084745407104,0.1220703050494194,-0.3051757514476776,100.0,186605.0,1.0
15:39:46.358691,197759.03125,182179.15625,230125.4375,210180.078125,199587.59375,177394.890625,686113.5625,199715.265625,0.08740234375,0.974853515625,-0.258056640625,-1.3732908964157104,-0.03051757626235485,-0.2136230319738388,100.0,186606.0,1.0
15:39:46.359687,197752.859375,182167.984375,230114.890625,210180.53125,199576.765625,177361.71875,686122.0625,199719.375,0.08935546875,0.974365234375,-0.25439453125,-1.4343260526657104,0.0,-0.1525878757238388,100.0,186607.0,1.0
15:39:46.359715,197753.578125,182168.609375,230118.109375,210176.6875,199577.65625,177373.890625,686159.5,199713.828125,0.090576171875,0.974365234375,-0.252685546875,-1.3732908964157104,0.03051757626235485,-0.0610351525247097,100.0,186608.0,1.0
15:39:46.361505,197760.28125,182177.28125,230129.640625,210181.78125,199590.265625,177407.40625,686127.125,199714.546875,0.09033203125,0.97607421875,-0.25341796875,-1.3732908964157104,0.03051757626235485,-0.0610351525247097,100.0,186609.0,1.0
15:39:46.365227,197762.703125,182178.609375,230125.078125,210178.921875,199585.359375,177397.671875,686115.8125,199714.28125,0.091796875,0.974853515625,-0.253173828125,-1.3732908964157104,0.0610351525247097,0.0,100.0,186610.0,1.0
15:39:46.371610,197758.234375,182168.515625,230116.765625,210184.28125,199577.65625,177365.296875,686095.75,199722.59375,0.091064453125,0.976806640625,-0.255859375,-1.1901854276657104,0.03051757626235485,0.0915527269244194,100.0,186611.0,1.0
15:39:46.379601,197755.375,182166.1875,230113.71875,210178.015625,199575.703125,177368.515625,686137.0625,199714.90625,0.092041015625,0.97509765625,-0.2548828125,-1.2207030057907104,0.0610351525247097,0.3051757514476776,100.0,186612.0,1.0
15:39:46.379646,197759.578125,182174.859375,230126.328125,210181.0625,199588.84375,177403.390625,686119.0,199714.546875,0.092041015625,0.97412109375,-0.251708984375,-1.2817381620407104,0.1220703050494194,0.4272460639476776,100.0,186613.0,1.0
15:39:46.387215,197759.484375,182174.6875,230123.921875,210172.84375,199582.671875,177396.421875,686113.125,199706.953125,0.092529296875,0.975341796875,-0.253662109375,-1.3732908964157104,0.1220703050494194,0.6103515028953552,100.0,186614.0,1.0
15:39:46.387272,197753.40625,182164.3125,230116.140625,210174.890625,199573.453125,177362.890625,686094.0625,199713.734375,0.09033203125,0.97705078125,-0.251708984375,-1.3732908964157104,0.1525878757238388,0.7324218153953552,100.0,186615.0,1.0
15:39:46.389188,197754.5625,182165.75,230116.140625,210174.359375,199573.453125,177362.53125,686129.5625,199711.953125,0.08935546875,0.977294921875,-0.2509765625,-1.4343260526657104,0.1220703050494194,0.9155272841453552,100.0,186616.0,1.0
15:39:46.425315,197763.0625,182179.328125,230130.53125,210181.328125,199591.875,177404.109375,686137.0,199716.875,0.088134765625,0.978759765625,-0.25048828125,-1.5258787870407104,0.1220703050494194,0.9155272841453552,100.0,186617.0,1.0
15:39:46.445205,197768.6875,182187.375,230135.984375,210177.3125,199593.9375,177413.21875,686118.6875,199713.46875,0.089599609375,0.9775390625,-0.251953125,-1.5563963651657104,0.0610351525247097,1.0375975370407104,100.0,186618.0,1.0
15:39:46.445254,197766.28125,182179.953125,230129.453125,210182.578125,199587.5,177381.578125,686112.6875,199722.0625,0.08544921875,0.978271484375,-0.252197265625,-1.5258787870407104,0.0610351525247097,1.0986326932907104,100.0,186619.0,1.0
15:39:46.445274,197766.28125,182177.984375,230125.796875,210182.21875,199583.46875,177371.109375,686124.9375,199720.265625,0.086181640625,0.97705078125,-0.251953125,-1.4953612089157104,0.0915527269244194,1.0681151151657104,100.0,186620.0,1.0
15:39:46.456236,197770.84375,182186.03125,230136.171875,210182.671875,199595.359375,177404.015625,686135.4375,199717.765625,0.085693359375,0.9775390625,-0.25048828125,-1.4343260526657104,0.0610351525247097,0.9765624403953552,100.0,186621.0,1.0
15:39:46.456275,197771.015625,182187.109375,230137.953125,210175.078125,199592.859375,177411.96875,686112.25,199708.203125,0.085693359375,0.976318359375,-0.25146484375,-1.4953612089157104,0.0610351525247097,0.9460448622703552,100.0,186622.0,1.0
15:39:46.456287,197767.53125,182179.953125,230131.421875,210176.859375,199584.90625,177383.0,686121.4375,199714.71875,0.087158203125,0.97607421875,-0.2529296875,-1.4953612089157104,-0.0610351525247097,1.0070799589157104,100.0,186623.0,1.0
15:39:46.456297,197766.1875,182177.0,230127.84375,210179.0,199581.5,177366.546875,686140.5625,199718.125,0.0888671875,0.975830078125,-0.254150390625,-1.4648436307907104,-0.0915527269244194,1.0070799589157104,100.0,186624.0,1.0
15:39:46.456307,197771.90625,182186.484375,230138.125,210182.21875,199594.296875,177398.46875,686155.5625,199720.0,0.08837890625,0.974365234375,-0.255126953125,-1.4953612089157104,-0.1220703050494194,0.8544921278953552,100.0,186625.0,1.0
15:39:46.457851,197775.671875,182194.0,230145.734375,210179.546875,199599.5625,177420.375,686123.75,199715.796875,0.09033203125,0.97314453125,-0.25341796875,-1.4953612089157104,-0.0915527269244194,0.8850097060203552,100.0,186626.0,1.0
15:39:46.460253,197773.4375,182188.265625,230138.046875,210180.078125,199592.859375,177395.4375,686122.6875,199720.265625,0.0908203125,0.97119140625,-0.2548828125,-1.4953612089157104,-0.03051757626235485,0.8544921278953552,100.0,186627.0,1.0
15:39:46.462754,197770.390625,182181.5625,230132.3125,210185.984375,199587.140625,177371.921875,686118.375,199726.4375,0.090576171875,0.972412109375,-0.25537109375,-1.4648436307907104,0.0,0.8239745497703552,100.0,186628.0,1.0
15:39:46.465345,197774.765625,182188.8125,230138.3125,210187.765625,199595.984375,177396.953125,686154.0625,199725.453125,0.093505859375,0.97265625,-0.255126953125,-1.3122557401657104,0.0,0.7629393935203552,100.0,186629.0,1.0
15:39:46.467711,197773.875,182191.140625,230142.25,210183.390625,199600.734375,177420.28125,686115.6875,199719.375,0.093994140625,0.9716796875,-0.257568359375,-1.2207030057907104,0.0610351525247097,0.7019042372703552,100.0,186630.0,1.0
15:39:46.470259,197773.703125,182186.9375,230137.0625,210181.875,199595.09375,177401.25,686115.375,199721.609375,0.095703125,0.9716796875,-0.25634765625,-1.1596678495407104,0.0915527269244194,0.6713866591453552,100.0,186631.0,1.0
15:39:46.475228,197775.125,182182.109375,230133.84375,210201.890625,199591.15625,177375.3125,686105.8125,199732.0625,0.097412109375,0.9736328125,-0.25634765625,-1.0681151151657104,0.2136230319738388,0.7019042372703552,100.0,186632.0,1.0
15:39:46.477805,197774.6875,182184.078125,230133.578125,210204.484375,199592.234375,177388.375,686135.8125,199725.1875,0.095458984375,0.972900390625,-0.256103515625,-1.0070799589157104,0.3051757514476776,0.7324218153953552,100.0,186633.0,1.0
15:39:46.480221,197777.0,182192.296875,230141.96875,210207.171875,199601.53125,177420.46875,686104.8125,199721.703125,0.09521484375,0.97216796875,-0.25634765625,-1.0681151151657104,0.3967284858226776,0.7629393935203552,100.0,186634.0,1.0
15:39:46.482817,197776.921875,182192.296875,230138.21875,210203.421875,199595.71875,177409.296875,686111.6875,199717.3125,0.09423828125,0.973876953125,-0.254638671875,-1.0070799589157104,0.5493163466453552,0.7629393935203552,100.0,186635.0,1.0
15:39:46.485220,197773.25,182182.734375,230131.34375,210210.203125,199589.28125,177378.265625,686110.0,199725.625,0.092041015625,0.973388671875,-0.25146484375,-0.8544921278953552,0.6103515028953552,0.6713866591453552,100.0,186636.0,1.0
15:39:46.488304,197776.921875,182187.734375,230138.3125,210207.265625,199594.921875,177388.28125,686145.5,199725.453125,0.093994140625,0.9736328125,-0.254150390625,-0.8850097060203552,0.6408690810203552,0.6103515028953552,100.0,186637.0,1.0
15:39:46.488338,197775.9375,182192.921875,230146.359375,210203.59375,199605.640625,177420.734375,686137.4375,199723.9375,0.0947265625,0.972900390625,-0.256591796875,-0.8544921278953552,0.6713866591453552,0.5187987685203552,100.0,186638.0,1.0
15:39:46.490227,197774.40625,182193.015625,230144.125,210194.5625,199600.109375,177414.5625,686124.5625,199717.859375,0.09326171875,0.97509765625,-0.2578125,-0.7629393935203552,0.6713866591453552,0.5798339247703552,100.0,186639.0,1.0
15:39:46.492759,197773.875,182185.40625,230139.65625,210202.4375,199597.0625,177384.890625,686105.25,199732.34375,0.0908203125,0.97705078125,-0.257568359375,-0.7934569716453552,0.6713866591453552,0.6408690810203552,100.0,186640.0,1.0
15:39:46.495225,197773.875,182183.53125,230134.109375,210197.0625,199592.953125,177380.40625,686128.25,199726.609375,0.09033203125,0.977294921875,-0.254150390625,-0.7629393935203552,0.7019042372703552,0.5493163466453552,100.0,186641.0,1.0
15:39:46.502123,197778.796875,182192.46875,230145.1875,210198.859375,199605.828125,177416.53125,686118.8125,199726.171875,0.08935546875,0.975830078125,-0.2568359375,-0.8239745497703552,0.7019042372703552,0.4882812201976776,100.0,186642.0,1.0
15:39:46.502150,197781.46875,182196.59375,230147.078125,210193.765625,199604.125,177421.984375,686108.4375,199719.90625,0.09033203125,0.97705078125,-0.257568359375,-0.8239745497703552,0.7019042372703552,0.4272460639476776,100.0,186643.0,1.0
15:39:46.504574,197778.4375,182188.71875,230137.859375,210197.0625,199595.71875,177389.078125,686108.375,199727.515625,0.091064453125,0.975830078125,-0.258544921875,-0.7324218153953552,0.6408690810203552,0.4577636420726776,100.0,186644.0,1.0
15:39:46.504599,197778.796875,182186.578125,230135.0,210198.046875,199594.109375,177378.890625,686120.4375,199729.03125,0.0888671875,0.977294921875,-0.2568359375,-0.7629393935203552,0.6103515028953552,0.3662109076976776,100.0,186645.0,1.0
15:39:46.516472,197786.390625,182199.265625,230150.375,210201.453125,199611.015625,177418.671875,686121.1875,199731.53125,0.087646484375,0.9775390625,-0.257568359375,-0.7629393935203552,0.7019042372703552,0.2441406100988388,100.0,186646.0,1.0
15:39:46.519540,197789.96875,182206.953125,230155.203125,210196.265625,199612.625,177436.109375,686104.1875,199725.453125,0.087158203125,0.9765625,-0.2548828125,-0.7629393935203552,0.5493163466453552,0.2136230319738388,100.0,186647.0,1.0
15:39:46.519564,197781.75,182195.0625,230141.96875,210195.375,199600.1875,177402.765625,686098.0,199728.9375,0.086181640625,0.977783203125,-0.25634765625,-0.7934569716453552,0.4577636420726776,0.0610351525247097,100.0,186648.0,1.0
15:39:46.524040,197778.171875,182186.03125,230133.84375,210195.90625,199591.96875,177380.140625,686106.0625,199729.828125,0.08642578125,0.976806640625,-0.25732421875,-0.9460448622703552,0.4272460639476776,0.0,100.0,186649.0,1.0
15:39:46.529538,197784.0625,182194.625,230142.609375,210197.6875,199603.5,177409.015625,686137.875,199731.265625,0.085693359375,0.97705078125,-0.257568359375,-0.9155272841453552,0.3356933295726776,0.0,100.0,186650.0,1.0
15:39:46.529547,197783.265625,182196.953125,230146.453125,210190.359375,199604.125,177426.640625,686111.125,199723.671875,0.08642578125,0.9755859375,-0.256591796875,-0.9155272841453552,0.2136230319738388,0.0610351525247097,100.0,186651.0,1.0
15:39:46.531544,197775.75,182186.21875,230134.734375,210184.109375,199591.609375,177397.578125,686105.25,199722.140625,0.086181640625,0.974853515625,-0.260986328125,-0.9765624403953552,0.3051757514476776,0.0915527269244194,100.0,186652.0,1.0
15:39:46.541478,197770.5625,182177.359375,230124.546875,210184.546875,199583.390625,177371.296875,686095.25,199724.734375,0.087890625,0.97265625,-0.260498046875,-0.9460448622703552,0.1831054538488388,0.0610351525247097,100.0,186653.0,1.0
15:39:46.545979,197769.046875,182180.40625,230127.140625,210179.359375,199587.3125,177391.59375,686142.5,199718.390625,0.087646484375,0.97314453125,-0.255126953125,-0.8544921278953552,0.03051757626235485,0.0,100.0,186654.0,1.0
15:39:46.545993,197769.9375,182186.125,230133.390625,210177.84375,199593.125,177417.875,686115.5,199713.5625,0.087890625,0.971923828125,-0.258056640625,-0.9155272841453552,0.0915527269244194,0.1525878757238388,100.0,186655.0,1.0
15:39:46.551489,197765.65625,182178.609375,230124.28125,210177.75,199582.3125,177397.40625,686107.75,199711.140625,0.08935546875,0.970947265625,-0.26025390625,-0.8850097060203552,0.0,0.3356933295726776,100.0,186656.0,1.0
15:39:46.558350,197757.15625,182166.28125,230112.921875,210182.046875,199571.3125,177363.875,686090.0625,199715.53125,0.089111328125,0.97216796875,-0.260498046875,-0.8850097060203552,-0.0610351525247097,0.3662109076976776,100.0,186657.0,1.0
15:39:46.558366,197758.953125,182169.5,230117.125,210182.046875,199576.859375,177378.53125,686139.9375,199714.453125,0.08837890625,0.9716796875,-0.25830078125,-0.9155272841453552,-0.0915527269244194,0.3967284858226776,100.0,186658.0,1.0
15:39:46.566158,197762.96875,182178.609375,230129.640625,210185.0,199589.375,177413.40625,686121.6875,199713.734375,0.08837890625,0.973388671875,-0.2587890625,-0.9460448622703552,-0.1525878757238388,0.5187987685203552,100.0,186659.0,1.0
15:39:46.572105,197761.625,182176.5625,230124.546875,210178.203125,199582.21875,177401.875,686116.25,199708.90625,0.086669921875,0.9716796875,-0.260009765625,-0.8544921278953552,-0.1220703050494194,0.4882812201976776,100.0,186660.0,1.0
15:39:46.572222,197758.40625,182169.3125,230118.8125,210185.171875,199576.328125,177371.296875,686098.75,199718.65625,0.0859375,0.972900390625,-0.260986328125,-0.8850097060203552,-0.1525878757238388,0.4882812201976776,100.0,186661.0,1.0
15:39:46.579792,197760.015625,182173.875,230121.140625,210185.890625,199578.5625,177378.796875,686134.125,199716.6875,0.085693359375,0.97265625,-0.259521484375,-0.8544921278953552,-0.1220703050494194,0.4577636420726776,100.0,186662.0,1.0
15:39:46.579863,197762.515625,182182.734375,230130.796875,210188.84375,199591.4375,177414.296875,686117.375,199715.4375,0.083740234375,0.975830078125,-0.259521484375,-0.9155272841453552,-0.3051757514476776,0.4882812201976776,100.0,186663.0,1.0
15:39:46.582943,197765.828125,182185.046875,230131.609375,210183.484375,199589.90625,177413.578125,686119.1875,199712.3125,0.08203125,0.97802734375,-0.25927734375,-1.0375975370407104,-0.3662109076976776,0.4272460639476776,100.0,186664.0,1.0
15:39:46.598291,197759.390625,182172.984375,230121.0625,210186.34375,199580.34375,177378.171875,686100.75,199721.078125,0.083251953125,0.979248046875,-0.25830078125,-1.2207030057907104,-0.4577636420726776,0.3967284858226776,100.0,186665.0,1.0
15:39:46.598304,197752.515625,182167.984375,230113.359375,210176.953125,199571.84375,177369.234375,686127.9375,199712.046875,0.083740234375,0.9794921875,-0.260498046875,-1.3122557401657104,-0.6103515028953552,0.4577636420726776,100.0,186666.0,1.0
15:39:46.600776,197756.796875,182175.125,230125.34375,210181.234375,199584.8125,177404.109375,686129.375,199714.09375,0.0859375,0.9794921875,-0.261962890625,-1.3427733182907104,-0.6713866591453552,0.4882812201976776,100.0,186667.0,1.0
15:39:46.600785,197760.90625,182178.703125,230126.515625,210176.953125,199584.375,177410.8125,686115.6875,199708.015625,0.0859375,0.9775390625,-0.260498046875,-1.4648436307907104,-0.7324218153953552,0.5493163466453552,100.0,186668.0,1.0
15:39:46.606439,197756.4375,182168.609375,230117.296875,210179.453125,199576.59375,177379.34375,686095.125,199713.828125,0.086669921875,0.978515625,-0.26318359375,-1.5563963651657104,-0.7629393935203552,0.5493163466453552,100.0,186669.0,1.0
15:39:46.609275,197757.15625,182167.796875,230115.875,210180.890625,199576.234375,177371.109375,686121.8125,199716.515625,0.0869140625,0.9794921875,-0.2626953125,-1.5869139432907104,-0.8850097060203552,0.5798339247703552,100.0,186670.0,1.0
15:39:46.611570,197764.125,182179.953125,230129.453125,210186.15625,199590.71875,177407.953125,686140.5625,199718.65625,0.08837890625,0.978515625,-0.261962890625,-1.6479490995407104,-0.8239745497703552,0.6103515028953552,100.0,186671.0,1.0
15:39:46.619140,197772.796875,182190.78125,230139.296875,210187.140625,199598.046875,177427.078125,686109.25,199717.765625,0.08935546875,0.9765625,-0.262451171875,-1.6784666776657104,-0.8544921278953552,0.8239745497703552,100.0,186672.0,1.0
15:39:46.623393,197771.828125,182185.046875,230132.046875,210189.015625,199592.6875,177400.53125,686109.5625,199724.734375,0.090576171875,0.975830078125,-0.261474609375,-1.8310545682907104,-0.7934569716453552,0.6103515028953552,100.0,186673.0,1.0
15:39:46.623462,197769.578125,182180.5,230124.984375,210190.546875,199587.5,177381.03125,686115.25,199727.6875,0.09130859375,0.97802734375,-0.263427734375,-1.8615721464157104,-0.6713866591453552,0.6103515028953552,100.0,186674.0,1.0
15:39:46.630869,197769.578125,182184.703125,230130.265625,210189.640625,199596.078125,177407.859375,686145.9375,199726.34375,0.089599609375,0.976318359375,-0.26416015625,-1.7700194120407104,-0.7019042372703552,0.5493163466453552,100.0,186675.0,1.0
15:39:46.630940,197771.28125,182190.328125,230137.953125,210189.203125,199602.078125,177429.859375,686125.1875,199725.09375,0.0908203125,0.97265625,-0.2626953125,-1.8615721464157104,-0.6713866591453552,0.5493163466453552,100.0,186676.0,1.0
15:39:46.632868,197771.015625,182184.703125,230133.390625,210191.609375,199596.4375,177405.625,686113.125,199730.546875,0.092041015625,0.975341796875,-0.261962890625,-1.8615721464157104,-0.5493163466453552,0.5187987685203552,100.0,186677.0,1.0
15:39:46.639105,197768.328125,182178.796875,230128.46875,210195.546875,199591.078125,177379.78125,686091.9375,199736.453125,0.09326171875,0.9736328125,-0.259765625,-1.9226073026657104,-0.4272460639476776,0.4577636420726776,100.0,186678.0,1.0
15:39:46.645861,197776.296875,182189.875,230139.65625,210198.671875,199602.703125,177406.515625,686136.375,199738.6875,0.09326171875,0.97265625,-0.259765625,-1.8920897245407104,-0.4272460639476776,0.5187987685203552,100.0,186679.0,1.0
15:39:46.645927,197780.140625,182197.578125,230148.234375,210198.9375,199612.625,177435.671875,686103.375,199737.4375,0.0966796875,0.973876953125,-0.260498046875,-1.9531248807907104,-0.3662109076976776,0.6408690810203552,100.0,186680.0,1.0
15:39:46.651534,197776.828125,182192.75,230137.953125,210191.515625,199602.15625,177416.09375,686104.0625,199731.984375,0.096435546875,0.972900390625,-0.259765625,-1.8615721464157104,-0.2136230319738388,0.6408690810203552,100.0,186681.0,1.0
15:39:46.667185,197776.65625,182186.390625,230132.3125,210199.21875,199598.5,177389.078125,686092.9375,199743.515625,0.09423828125,0.9736328125,-0.25830078125,-1.8920897245407104,-0.1220703050494194,0.7019042372703552,100.0,186682.0,1.0
15:39:46.667254,197779.515625,182192.390625,230137.421875,210198.671875,199605.640625,177403.390625,686139.3125,199743.15625,0.0947265625,0.972900390625,-0.25634765625,-1.8615721464157104,0.0,0.6408690810203552,100.0,186683.0,1.0
15:39:46.669630,197786.578125,182205.703125,230154.046875,210205.03125,199622.1875,177441.390625,686117.0625,199745.03125,0.09423828125,0.972412109375,-0.258544921875,-1.9531248807907104,0.1831054538488388,0.5798339247703552,100.0,186684.0,1.0
15:39:46.669695,197789.96875,182207.9375,230153.953125,210204.390625,199618.609375,177434.328125,686109.875,199742.34375,0.0947265625,0.972900390625,-0.2587890625,-1.8310545682907104,0.2746581733226776,0.5493163466453552,100.0,186685.0,1.0
15:39:46.696559,197783.078125,182194.984375,230142.515625,210211.1875,199607.703125,177398.390625,686099.625,199746.546875,0.09375,0.973876953125,-0.256103515625,-1.8615721464157104,0.2746581733226776,0.5187987685203552,100.0,186686.0,1.0
15:39:46.699170,197785.59375,182197.390625,230148.5,210209.046875,199606.71875,177403.390625,686135.9375,199741.359375,0.093505859375,0.974853515625,-0.255615234375,-1.9531248807907104,0.3967284858226776,0.5493163466453552,100.0,186687.0,1.0
15:39:46.701524,197795.875,182211.96875,230167.015625,210216.015625,199625.40625,177446.3125,686131.1875,199747.796875,0.09423828125,0.977783203125,-0.25732421875,-1.9836424589157104,0.4272460639476776,0.5187987685203552,100.0,186688.0,1.0
15:39:46.704158,197796.671875,182212.234375,230161.375,210208.25,199620.21875,177443.171875,686113.75,199741.71875,0.093017578125,0.9775390625,-0.25732421875,-1.9531248807907104,0.5493163466453552,0.4577636420726776,100.0,186689.0,1.0
15:39:46.710254,197794.4375,182203.03125,230153.78125,210214.5,199614.140625,177410.546875,686092.75,199752.8125,0.091552734375,0.978515625,-0.255615234375,-1.8920897245407104,0.5493163466453552,0.4577636420726776,100.0,186690.0,1.0
15:39:46.712785,197796.59375,182204.90625,230154.671875,210214.953125,199615.21875,177408.75,686110.875,199752.984375,0.092041015625,0.977783203125,-0.25634765625,-1.8920897245407104,0.5798339247703552,0.4577636420726776,100.0,186691.0,1.0
15:39:46.715266,197800.078125,182214.640625,230164.78125,210217.625,199627.734375,177444.78125,686120.25,199751.203125,0.091064453125,0.9775390625,-0.258056640625,-2.075195074081421,0.6408690810203552,0.4577636420726776,100.0,186692.0,1.0
15:39:46.717742,197799.453125,182215.28125,230162.546875,210206.90625,199621.296875,177446.484375,686097.3125,199740.109375,0.09130859375,0.978515625,-0.2568359375,-1.9836424589157104,0.6713866591453552,0.5493163466453552,100.0,186693.0,1.0
15:39:46.720291,197795.421875,182205.078125,230152.703125,210208.953125,199611.90625,177412.953125,686094.6875,199747.625,0.091552734375,0.97705078125,-0.253173828125,-1.9836424589157104,0.7934569716453552,0.4882812201976776,100.0,186694.0,1.0
15:39:46.722745,197794.078125,182202.9375,230147.875,210210.390625,199609.046875,177401.15625,686111.6875,199750.84375,0.0888671875,0.9765625,-0.25439453125,-2.044677495956421,0.7019042372703552,0.3356933295726776,100.0,186695.0,1.0
15:39:46.725236,197795.875,182210.453125,230156.90625,210212.359375,199621.46875,177434.953125,686134.75,199751.015625,0.08984375,0.97607421875,-0.257080078125,-2.044677495956421,0.7629393935203552,0.4272460639476776,100.0,186696.0,1.0
15:39:46.727718,197795.15625,182215.8125,230159.59375,210206.0,199622.1875,177450.15625,686108.8125,199742.078125,0.08935546875,0.975341796875,-0.254150390625,-1.9836424589157104,0.7629393935203552,0.3356933295726776,100.0,186697.0,1.0
15:39:46.730896,197790.59375,182207.765625,230149.125,210203.765625,199612.796875,177421.546875,686103.4375,199744.9375,0.089111328125,0.975341796875,-0.255859375,-1.8615721464157104,0.6713866591453552,0.3051757514476776,100.0,186698.0,1.0
15:39:46.730916,197791.40625,182204.71875,230144.484375,210207.890625,199608.0625,177402.9375,686110.6875,199748.515625,0.088623046875,0.97314453125,-0.2548828125,-1.8920897245407104,0.6713866591453552,0.2441406100988388,100.0,186699.0,1.0
15:39:46.732754,197797.484375,182214.828125,230154.84375,210214.765625,199619.421875,177433.34375,686144.25,199749.859375,0.08837890625,0.974853515625,-0.25244140625,-1.8310545682907104,0.5798339247703552,0.3051757514476776,100.0,186700.0,1.0
15:39:46.739646,197800.25,182221.796875,230161.375,210221.203125,199623.96875,177455.78125,686113.75,199744.5,0.086669921875,0.972900390625,-0.2509765625,-1.8005369901657104,0.5187987685203552,0.2441406100988388,100.0,186701.0,1.0
15:39:46.739665,197796.140625,182214.921875,230151.09375,210217.359375,199613.6875,177429.3125,686112.875,199743.328125,0.0859375,0.972900390625,-0.25390625,-1.8005369901657104,0.4882812201976776,0.2746581733226776,100.0,186702.0,1.0
15:39:46.749842,197791.765625,182207.3125,230141.703125,210216.5625,199605.203125,177401.15625,686119.8125,199746.734375,0.08642578125,0.97412109375,-0.2529296875,-1.7700194120407104,0.3967284858226776,0.2136230319738388,100.0,186703.0,1.0
15:39:46.749950,197795.25,182215.984375,230147.078125,210213.515625,199611.734375,177423.5,686141.375,199744.046875,0.0859375,0.97509765625,-0.2529296875,-1.6174315214157104,0.3662109076976776,0.3051757514476776,100.0,186704.0,1.0
15:39:46.759347,197803.03125,182226.890625,230160.65625,210216.640625,199627.28125,177456.765625,686106.5625,199747.171875,0.085693359375,0.97607421875,-0.252685546875,-1.6479490995407104,0.3662109076976776,0.2136230319738388,100.0,186705.0,1.0
15:39:46.805886,197806.25,182227.171875,230159.765625,210214.40625,199624.25,177443.984375,686118.3125,199748.4375,0.085693359375,0.974365234375,-0.252197265625,-1.5869139432907104,0.3051757514476776,0.1831054538488388,100.0,186706.0,1.0
15:39:46.805915,197795.515625,182210.796875,230145.46875,210212.4375,199607.796875,177406.078125,686101.75,199748.703125,0.086181640625,0.97314453125,-0.254638671875,-1.5869139432907104,0.3051757514476776,0.2746581733226776,100.0,186707.0,1.0
15:39:46.808475,197797.21875,182215.09375,230148.0625,210209.859375,199609.484375,177417.421875,686142.375,199744.578125,0.08740234375,0.974609375,-0.25341796875,-1.4953612089157104,0.2746581733226776,0.3662109076976776,100.0,186708.0,1.0
15:39:46.808498,197804.8125,182227.875,230165.671875,210215.484375,199626.390625,177458.46875,686113.9375,199747.453125,0.086181640625,0.9755859375,-0.250244140625,-1.4648436307907104,0.1831054538488388,0.2136230319738388,100.0,186709.0,1.0
15:39:46.810814,197805.96875,182228.421875,230165.125,210208.328125,199623.171875,177451.21875,686109.0,199743.609375,0.087158203125,0.9755859375,-0.250732421875,-1.4953612089157104,0.1220703050494194,0.2136230319738388,100.0,186710.0,1.0
15:39:46.810831,197802.484375,182220.1875,230156.734375,210214.859375,199617.453125,177417.78125,686102.8125,199754.515625,0.086669921875,0.9755859375,-0.24951171875,-1.4343260526657104,0.03051757626235485,0.2746581733226776,100.0,186711.0,1.0
15:39:46.813948,197804.359375,182224.296875,230158.0625,210214.046875,199620.40625,177424.578125,686140.1875,199754.515625,0.084716796875,0.976318359375,-0.252197265625,-1.4343260526657104,0.0610351525247097,0.3051757514476776,100.0,186712.0,1.0
15:39:46.813959,197806.328125,182231.28125,230170.59375,210213.78125,199631.9375,177460.25,686134.75,199752.90625,0.08544921875,0.976318359375,-0.253173828125,-1.4038084745407104,0.03051757626235485,0.3051757514476776,100.0,186713.0,1.0
15:39:46.813963,197807.046875,182232.703125,230170.3125,210206.640625,199627.640625,177458.828125,686116.875,199746.375,0.087158203125,0.974853515625,-0.25341796875,-1.4038084745407104,-0.1220703050494194,0.2136230319738388,100.0,186714.0,1.0
15:39:46.817775,197806.59375,182226.71875,230165.671875,210216.734375,199625.578125,177428.25,686110.0625,199760.140625,0.0869140625,0.9765625,-0.25244140625,-1.3732908964157104,-0.1525878757238388,0.4272460639476776,100.0,186715.0,1.0
15:39:46.817789,197806.78125,182223.953125,230162.890625,210215.390625,199622.640625,177421.984375,686128.125,199758.71875,0.087158203125,0.977783203125,-0.253662109375,-1.3427733182907104,-0.2441406100988388,0.3051757514476776,100.0,186716.0,1.0
15:39:46.817793,197806.15625,182227.796875,230168.265625,210213.875,199630.859375,177452.65625,686125.25,199755.40625,0.088134765625,0.9765625,-0.2529296875,-1.3427733182907104,-0.3662109076976776,0.3051757514476776,100.0,186717.0,1.0
15:39:46.820853,197810.53125,182232.0,230172.28125,210211.015625,199632.296875,177461.5,686113.5,199751.921875,0.088134765625,0.977783203125,-0.254150390625,-1.4343260526657104,-0.4272460639476776,0.3051757514476776,100.0,186718.0,1.0
15:39:46.820866,197808.5625,182224.21875,230166.296875,210217.265625,199626.203125,177430.5625,686118.125,199763.359375,0.08740234375,0.976318359375,-0.251953125,-1.3732908964157104,-0.4272460639476776,0.3967284858226776,100.0,186719.0,1.0
15:39:46.822800,197802.75,182214.375,230157.53125,210212.171875,199614.3125,177410.8125,686125.8125,199754.953125,0.088623046875,0.976318359375,-0.25341796875,-1.3732908964157104,-0.4272460639476776,0.4577636420726776,100.0,186720.0,1.0
15:39:46.825210,197809.28125,182222.875,230174.34375,210217.890625,199627.546875,177445.40625,686128.125,199756.03125,0.090576171875,0.97314453125,-0.254638671875,-1.3427733182907104,-0.5187987685203552,0.4882812201976776,100.0,186721.0,1.0
15:39:46.828285,197815.890625,182232.703125,230185.515625,210220.84375,199633.28125,177464.28125,686101.0625,199754.953125,0.092041015625,0.9765625,-0.25439453125,-1.2207030057907104,-0.5493163466453552,0.5187987685203552,100.0,186722.0,1.0
15:39:46.828297,197813.484375,182226.890625,230177.5625,210220.765625,199624.328125,177435.390625,686103.875,199762.015625,0.0888671875,0.974853515625,-0.253662109375,-1.2207030057907104,-0.5493163466453552,0.4577636420726776,100.0,186723.0,1.0
15:39:46.830239,197810.53125,182219.5625,230168.703125,210222.28125,199616.640625,177411.171875,686104.5,199763.265625,0.089599609375,0.973876953125,-0.25244140625,-1.2817381620407104,-0.5187987685203552,0.4272460639476776,100.0,186724.0,1.0
15:39:46.832782,197814.46875,182226.890625,230173.984375,210222.90625,199626.921875,177439.515625,686135.0,199762.109375,0.091796875,0.973876953125,-0.255859375,-1.2817381620407104,-0.4882812201976776,0.2746581733226776,100.0,186725.0,1.0
15:39:46.838992,197817.0625,182233.875,230179.4375,210217.546875,199633.09375,177464.453125,686109.25,199756.125,0.09130859375,0.9736328125,-0.255126953125,-1.2512205839157104,-0.5187987685203552,0.3356933295726776,100.0,186726.0,1.0
15:39:46.841463,197812.40625,182227.703125,230169.875,210212.4375,199623.703125,177440.578125,686105.1875,199755.84375,0.09033203125,0.9736328125,-0.255126953125,-1.2207030057907104,-0.4882812201976776,0.3356933295726776,100.0,186727.0,1.0
15:39:46.844582,197807.859375,182218.84375,230162.453125,210215.578125,199615.84375,177411.34375,686089.125,199761.84375,0.089111328125,0.97412109375,-0.25634765625,-1.1596678495407104,-0.3967284858226776,0.3356933295726776,100.0,186728.0,1.0
15:39:46.844592,197814.46875,182228.328125,230171.03125,210217.1875,199624.953125,177435.390625,686143.625,199761.65625,0.08935546875,0.975341796875,-0.253173828125,-1.1596678495407104,-0.4272460639476776,0.3356933295726776,100.0,186729.0,1.0
15:39:46.846439,197820.375,182236.828125,230181.9375,210219.15625,199635.421875,177466.6875,686116.9375,199761.3125,0.08935546875,0.97412109375,-0.254150390625,-1.0986326932907104,-0.3356933295726776,0.3051757514476776,100.0,186730.0,1.0
15:39:46.857066,197819.75,182235.21875,230176.75,210215.125,199628.359375,177450.953125,686110.1875,199759.15625,0.09033203125,0.971435546875,-0.2548828125,-1.1596678495407104,-0.3662109076976776,0.3356933295726776,100.0,186731.0,1.0
15:39:46.857082,197820.8125,182232.34375,230174.25,210224.78125,199625.859375,177425.203125,686110.9375,199771.3125,0.091064453125,0.973876953125,-0.25634765625,-1.1291502714157104,-0.2441406100988388,0.3967284858226776,100.0,186732.0,1.0
15:39:46.859165,197816.796875,182229.40625,230173.625,210219.421875,199622.984375,177430.921875,686143.75,199763.09375,0.09130859375,0.9755859375,-0.255126953125,-1.0375975370407104,-0.3051757514476776,0.3662109076976776,100.0,186733.0,1.0
15:39:46.861601,197813.484375,182230.5625,230178.359375,210216.46875,199629.25,177458.46875,686107.0625,199756.484375,0.091064453125,0.973388671875,-0.254150390625,-1.0375975370407104,-0.2136230319738388,0.3051757514476776,100.0,186734.0,1.0
15:39:46.872235,197808.5625,182224.484375,230170.5,210205.46875,199619.59375,177445.40625,686106.6875,199746.828125,0.093017578125,0.975341796875,-0.2568359375,-1.0070799589157104,-0.1525878757238388,0.3662109076976776,100.0,186735.0,1.0
15:39:46.872242,197802.84375,182213.75,230164.6875,210208.15625,199609.40625,177411.96875,686103.375,199755.140625,0.092041015625,0.97607421875,-0.256103515625,-1.0375975370407104,-0.0610351525247097,0.3662109076976776,100.0,186736.0,1.0
15:39:46.874705,197800.78125,182214.203125,230163.171875,210203.6875,199607.171875,177412.78125,686142.0625,199750.3125,0.0908203125,0.976318359375,-0.257080078125,-1.0070799589157104,0.0,0.2746581733226776,100.0,186737.0,1.0
15:39:46.874759,197804.1875,182221.53125,230177.375,210207.4375,199621.296875,177449.078125,686126.625,199751.46875,0.09326171875,0.977783203125,-0.256591796875,-1.0070799589157104,0.0610351525247097,0.2746581733226776,100.0,186738.0,1.0
15:39:46.881527,197805.890625,182222.0625,230178.984375,210201.53125,199618.25,177448.8125,686108.125,199746.90625,0.092529296875,0.9775390625,-0.25830078125,-1.0070799589157104,0.1220703050494194,0.4882812201976776,100.0,186739.0,1.0
15:39:46.892151,197796.765625,182206.78125,230166.03125,210203.0625,199605.734375,177410.546875,686104.875,199753.34375,0.09228515625,0.9775390625,-0.257568359375,-0.8850097060203552,0.2136230319738388,0.4577636420726776,100.0,186740.0,1.0
15:39:46.892197,197800.609375,182209.1875,230170.046875,210207.4375,199606.71875,177407.40625,686121.875,199755.765625,0.0908203125,0.97607421875,-0.257568359375,-0.8850097060203552,0.2136230319738388,0.4272460639476776,100.0,186741.0,1.0
15:39:46.895753,197804.71875,182217.234375,230179.890625,210212.625,199619.78125,177442.8125,686132.9375,199755.3125,0.08984375,0.975830078125,-0.259521484375,-0.9460448622703552,0.3356933295726776,0.4882812201976776,100.0,186742.0,1.0
15:39:46.895812,197803.5625,182218.5,230178.359375,210207.078125,199615.578125,177448.546875,686111.3125,199744.671875,0.090576171875,0.97412109375,-0.258544921875,-0.9765624403953552,0.3662109076976776,0.4882812201976776,100.0,186743.0,1.0
15:39:46.904077,197802.125,182212.40625,230172.734375,210217.453125,199610.390625,177419.21875,686106.75,199753.890625,0.090576171875,0.975830078125,-0.259521484375,-1.0375975370407104,0.3662109076976776,0.6103515028953552,100.0,186744.0,1.0
15:39:46.908297,197797.296875,182204.8125,230165.9375,210218.078125,199604.9375,177402.3125,686110.0625,199752.90625,0.08984375,0.9755859375,-0.255859375,-1.0375975370407104,0.4577636420726776,0.6103515028953552,100.0,186745.0,1.0
15:39:46.908338,197792.203125,182204.984375,230165.40625,210212.625,199606.546875,177427.171875,686144.75,199744.671875,0.08935546875,0.97705078125,-0.255126953125,-1.1901854276657104,0.4577636420726776,0.6713866591453552,100.0,186746.0,1.0
15:39:46.917938,197792.203125,182209.015625,230166.390625,210207.34375,199605.296875,177441.75,686119.4375,199736.71875,0.0888671875,0.977294921875,-0.258056640625,-1.0375975370407104,0.4272460639476776,0.8544921278953552,100.0,186747.0,1.0
15:39:46.922212,197790.59375,182202.671875,230159.671875,210209.140625,199599.203125,177415.734375,686120.6875,199742.34375,0.088134765625,0.978271484375,-0.2578125,-1.1291502714157104,0.4577636420726776,0.6713866591453552,100.0,186748.0,1.0
15:39:46.922222,197793.640625,182202.125,230156.734375,210218.53125,199598.21875,177398.828125,686128.6875,199749.5,0.08935546875,0.978271484375,-0.256103515625,-1.0681151151657104,0.4577636420726776,0.7324218153953552,100.0,186749.0,1.0
15:39:46.927942,197802.3125,182215.546875,230168.796875,210225.5,199611.453125,177432.453125,686150.1875,199751.203125,0.088134765625,0.979736328125,-0.25634765625,-1.2207030057907104,0.3967284858226776,0.7324218153953552,100.0,186750.0,1.0
15:39:46.934642,197803.46875,182222.421875,230176.390625,210222.1875,199614.765625,177455.15625,686114.375,199742.34375,0.08837890625,0.97900390625,-0.2578125,-1.2207030057907104,0.4272460639476776,0.7019042372703552,100.0,186751.0,1.0
15:39:46.934668,197798.28125,182215.359375,230165.671875,210218.96875,199604.75,177429.671875,686114.875,199740.921875,0.087646484375,0.979248046875,-0.26220703125,-1.1901854276657104,0.3662109076976776,0.7629393935203552,100.0,186752.0,1.0
15:39:46.939570,197798.203125,182210.171875,230160.484375,210227.375,199601.890625,177406.15625,686114.375,199751.375,0.089111328125,0.97802734375,-0.2626953125,-1.2512205839157104,0.4577636420726776,0.7934569716453552,100.0,186753.0,1.0
15:39:46.939591,197799.265625,182214.5625,230163.34375,210228.71875,199607.875,177426.375,686136.5625,199750.3125,0.090576171875,0.9765625,-0.261474609375,-1.4038084745407104,0.4272460639476776,0.7934569716453552,100.0,186754.0,1.0
15:39:46.949056,197800.703125,182221.078125,230170.9375,210227.734375,199617.359375,177456.40625,686101.9375,199746.640625,0.088134765625,0.9775390625,-0.258544921875,-1.4648436307907104,0.3356933295726776,0.7934569716453552,100.0,186755.0,1.0
15:39:46.952089,197803.296875,182222.15625,230167.015625,210223.078125,199613.421875,177442.640625,686110.1875,199746.109375,0.087646484375,0.978271484375,-0.259765625,-1.4953612089157104,0.3356933295726776,0.7629393935203552,100.0,186756.0,1.0
15:39:46.952095,197799.359375,182213.21875,230159.5,210229.875,199606.8125,177411.265625,686092.625,199755.765625,0.08740234375,0.977294921875,-0.258056640625,-1.4953612089157104,0.4272460639476776,0.9460448622703552,100.0,186757.0,1.0
15:39:46.954138,197807.3125,182223.40625,230170.046875,210235.515625,199616.109375,177428.25,686133.6875,199761.03125,0.089111328125,0.978515625,-0.2568359375,-1.5258787870407104,0.3967284858226776,1.0070799589157104,100.0,186758.0,1.0
15:39:46.970370,197807.859375,182228.328125,230177.46875,210233.359375,199625.140625,177458.46875,686104.375,199758.53125,0.08935546875,0.977294921875,-0.2578125,-1.5563963651657104,0.3967284858226776,1.0070799589157104,100.0,186759.0,1.0
15:39:46.973494,197800.96875,182221.53125,230165.21875,210216.46875,199611.1875,177443.890625,686101.875,199745.125,0.088134765625,0.97607421875,-0.2587890625,-1.6479490995407104,0.4272460639476776,0.9460448622703552,100.0,186760.0,1.0
15:39:46.973513,197797.125,182212.140625,230158.0625,210222.640625,199603.765625,177411.609375,686097.9375,199756.03125,0.088134765625,0.977294921875,-0.26025390625,-1.6174315214157104,0.2746581733226776,0.9155272841453552,100.0,186761.0,1.0
15:39:46.975346,197796.5,182211.78125,230156.109375,210218.078125,199601.625,177411.078125,686117.6875,199752.0,0.087646484375,0.974853515625,-0.259033203125,-1.6174315214157104,0.2441406100988388,0.9765624403953552,100.0,186762.0,1.0
15:39:46.979208,197802.578125,182222.515625,230171.921875,210222.09375,199617.890625,177449.4375,686111.0625,199754.59375,0.08740234375,0.975341796875,-0.25634765625,-1.5869139432907104,0.2441406100988388,0.8850097060203552,100.0,186763.0,1.0
15:39:46.987160,197802.578125,182223.5,230171.65625,210213.078125,199612.4375,177446.75,686103.125,199746.015625,0.08447265625,0.974853515625,-0.2578125,-1.6784666776657104,0.3051757514476776,0.8239745497703552,100.0,186764.0,1.0
15:39:46.987177,197801.859375,182216.703125,230166.65625,210218.703125,199608.0625,177416.09375,686096.125,199755.9375,0.0888671875,0.97119140625,-0.2587890625,-1.5869139432907104,0.3662109076976776,0.8850097060203552,100.0,186765.0,1.0
15:39:46.989058,197806.59375,182220.640625,230167.1875,210218.96875,199608.953125,177413.40625,686119.3125,199756.65625,0.086181640625,0.97119140625,-0.259033203125,-1.5563963651657104,0.1525878757238388,0.8239745497703552,100.0,186766.0,1.0
15:39:46.995378,197813.390625,182231.015625,230180.875,210224.15625,199624.328125,177450.15625,686127.625,199759.703125,0.087646484375,0.97119140625,-0.25830078125,-1.4953612089157104,0.1831054538488388,0.8544921278953552,100.0,186767.0,1.0
15:39:46.999792,197812.140625,182229.671875,230176.75,210214.765625,199620.9375,177455.6875,686107.1875,199751.5625,0.087646484375,0.97314453125,-0.258056640625,-1.5258787870407104,0.1831054538488388,0.9155272841453552,100.0,186768.0,1.0
15:39:46.999804,197811.96875,182226.0,230170.5,210222.28125,199617.53125,177429.40625,686111.9375,199761.65625,0.08837890625,0.97216796875,-0.25537109375,-1.4953612089157104,0.2136230319738388,0.9155272841453552,100.0,186769.0,1.0
15:39:47.009705,197808.484375,182221.0,230163.96875,210220.21875,199611.28125,177413.046875,686117.5625,199759.421875,0.086669921875,0.972412109375,-0.257568359375,-1.4953612089157104,0.1831054538488388,0.9155272841453552,100.0,186770.0,1.0
15:39:47.013574,197812.140625,182228.859375,230173.171875,210219.859375,199622.8125,177446.125,686119.3125,199757.90625,0.08837890625,0.973388671875,-0.25830078125,-1.4038084745407104,0.2136230319738388,0.8544921278953552,100.0,186771.0,1.0
15:39:47.013646,197810.796875,182231.28125,230174.515625,210212.359375,199623.4375,177461.328125,686095.6875,199750.046875,0.08935546875,0.973388671875,-0.2568359375,-1.3427733182907104,-0.03051757626235485,0.7629393935203552,100.0,186772.0,1.0
15:39:47.022901,197804.8125,182222.34375,230164.328125,210207.96875,199612.359375,177432.09375,686093.875,199750.9375,0.08984375,0.973876953125,-0.259033203125,-1.1901854276657104,0.1220703050494194,0.7324218153953552,100.0,186773.0,1.0
15:39:47.029588,197804.28125,182219.296875,230161.015625,210212.984375,199608.421875,177411.078125,686099.25,199755.578125,0.090576171875,0.974365234375,-0.258056640625,-1.2512205839157104,0.03051757626235485,0.6713866591453552,100.0,186774.0,1.0
15:39:47.029604,197815.0,182232.078125,230174.15625,210220.140625,199623.703125,177441.484375,686134.9375,199760.953125,0.089111328125,0.9755859375,-0.2548828125,-1.2207030057907104,0.03051757626235485,0.7019042372703552,100.0,186775.0,1.0
15:39:47.032108,197816.171875,182235.390625,230178.640625,210216.921875,199628.625,177463.921875,686106.125,199755.84375,0.088623046875,0.974365234375,-0.259765625,-1.2207030057907104,0.0,0.7019042372703552,100.0,186776.0,1.0
15:39:47.032181,197810.625,182226.625,230168.0,210211.015625,199615.390625,177438.171875,686099.375,199752.8125,0.0888671875,0.97119140625,-0.258544921875,-1.2207030057907104,-0.03051757626235485,0.8239745497703552,100.0,186777.0,1.0
15:39:47.039166,197805.4375,182215.1875,230159.328125,210213.609375,199604.3125,177406.25,686084.6875,199754.78125,0.090087890625,0.9716796875,-0.25927734375,-1.1901854276657104,-0.0610351525247097,0.7629393935203552,100.0,186778.0,1.0
15:39:47.044537,197806.953125,182218.40625,230164.15625,210213.875,199609.765625,177423.0625,686129.5625,199753.53125,0.089111328125,0.972412109375,-0.25732421875,-1.0681151151657104,-0.03051757626235485,0.7019042372703552,100.0,186779.0,1.0
15:39:47.044566,197817.234375,182231.8125,230179.96875,210222.640625,199626.84375,177459.8125,686110.25,199759.25,0.089111328125,0.973388671875,-0.25634765625,-1.0986326932907104,-0.03051757626235485,0.6408690810203552,100.0,186780.0,1.0
15:39:47.056547,197813.484375,182226.890625,230170.765625,210215.75,199616.28125,177440.140625,686102.375,199753.34375,0.0908203125,0.973876953125,-0.257568359375,-1.1596678495407104,0.03051757626235485,0.6408690810203552,100.0,186781.0,1.0
15:39:47.061537,197807.21875,182215.359375,230158.96875,210219.15625,199606.0,177406.515625,686090.75,199759.15625,0.09033203125,0.973876953125,-0.25830078125,-1.1901854276657104,0.0610351525247097,0.5493163466453552,100.0,186782.0,1.0
15:39:47.061629,197809.734375,182218.9375,230160.9375,210217.09375,199608.953125,177417.875,686125.0,199756.125,0.088623046875,0.973388671875,-0.255126953125,-1.0375975370407104,-0.0610351525247097,0.5187987685203552,100.0,186783.0,1.0
15:39:47.061657,197817.421875,182232.96875,230178.1875,210223.890625,199627.546875,177457.84375,686111.9375,199762.28125,0.0908203125,0.974853515625,-0.255615234375,-1.1901854276657104,-0.1525878757238388,0.4882812201976776,100.0,186784.0,1.0
15:39:47.064208,197821.078125,182236.828125,230178.0,210221.390625,199627.8125,177454.265625,686122.4375,199761.9375,0.09033203125,0.975341796875,-0.255615234375,-1.1596678495407104,-0.1220703050494194,0.4577636420726776,100.0,186785.0,1.0
15:39:47.072929,197814.375,182223.859375,230168.984375,210225.140625,199617.8125,177416.359375,686100.125,199768.8125,0.0888671875,0.9755859375,-0.256591796875,-1.1291502714157104,-0.1220703050494194,0.3967284858226776,100.0,186786.0,1.0
15:39:47.075909,197816.4375,182225.828125,230172.375,210226.03125,199618.25,177418.765625,686125.8125,199765.859375,0.088134765625,0.9775390625,-0.25537109375,-1.1291502714157104,-0.0915527269244194,0.4577636420726776,100.0,186787.0,1.0
15:39:47.075979,197816.796875,182230.828125,230178.546875,210228.265625,199627.546875,177452.828125,686125.375,199764.515625,0.090087890625,0.9775390625,-0.255126953125,-1.0986326932907104,-0.0610351525247097,0.4577636420726776,100.0,186788.0,1.0
15:39:47.077821,197813.9375,182229.21875,230173.09375,210217.546875,199620.578125,177449.34375,686103.4375,199753.703125,0.091552734375,0.97607421875,-0.255615234375,-1.1291502714157104,-0.03051757626235485,0.3967284858226776,100.0,186789.0,1.0
15:39:47.092802,197811.25,182221.71875,230165.765625,210222.453125,199614.140625,177417.78125,686102.1875,199763.265625,0.091064453125,0.974853515625,-0.255126953125,-1.1901854276657104,-0.1525878757238388,0.3967284858226776,100.0,186790.0,1.0
15:39:47.095474,197814.828125,182225.109375,230164.953125,210223.890625,199614.40625,177415.015625,686122.6875,199763.890625,0.088623046875,0.9755859375,-0.258056640625,-1.1291502714157104,-0.0610351525247097,0.3662109076976776,100.0,186791.0,1.0
15:39:47.100351,197821.984375,182237.890625,230179.890625,210226.75,199630.40625,177455.328125,686139.3125,199763.71875,0.090087890625,0.974609375,-0.259765625,-1.1596678495407104,-0.0915527269244194,0.3662109076976776,100.0,186792.0,1.0
15:39:47.100421,197824.84375,182242.625,230187.03125,210223.0,199632.109375,177467.765625,686122.3125,199757.640625,0.09033203125,0.975830078125,-0.25830078125,-1.2512205839157104,-0.03051757626235485,0.4882812201976776,100.0,186793.0,1.0
15:39:47.100449,197822.25,182235.484375,230179.4375,210226.296875,199626.125,177439.515625,686124.625,199765.859375,0.089111328125,0.976806640625,-0.25634765625,-1.2817381620407104,-0.0610351525247097,0.4882812201976776,100.0,186794.0,1.0
15:39:47.104121,197827.796875,182239.59375,230179.96875,210235.25,199628.0,177431.375,686137.0,199773.015625,0.088623046875,0.978271484375,-0.257568359375,-1.3427733182907104,-0.03051757626235485,0.5798339247703552,100.0,186795.0,1.0
15:39:47.114238,197835.84375,182251.84375,230192.046875,210241.140625,199644.546875,177466.875,686164.625,199777.578125,0.08984375,0.977294921875,-0.25634765625,-1.4038084745407104,-0.0610351525247097,0.5493163466453552,100.0,186796.0,1.0
15:39:47.118554,197835.84375,182256.84375,230194.375,210235.0625,199645.4375,177484.390625,686129.5625,199769.703125,0.0927734375,0.978271484375,-0.25732421875,-1.4038084745407104,0.0,0.5798339247703552,100.0,186797.0,1.0
15:39:47.118610,197825.828125,182241.734375,230178.09375,210228.359375,199630.40625,177451.21875,686119.75,199768.375,0.0908203125,0.976806640625,-0.257568359375,-1.4343260526657104,0.0610351525247097,0.5187987685203552,100.0,186798.0,1.0
15:39:47.130985,197813.65625,182224.21875,230162.71875,210222.90625,199615.578125,177416.4375,686102.5,199764.34375,0.089599609375,0.975341796875,-0.26025390625,-1.4648436307907104,0.03051757626235485,0.5493163466453552,100.0,186799.0,1.0
15:39:47.131102,197809.46875,182221.359375,230161.203125,210216.921875,199615.484375,177431.28125,686127.625,199757.015625,0.0908203125,0.9765625,-0.26025390625,-1.4343260526657104,0.03051757626235485,0.5493163466453552,100.0,186800.0,1.0
15:39:47.155877,197804.28125,182219.390625,230161.46875,210209.046875,199614.59375,177448.984375,686091.6875,199746.828125,0.09130859375,0.975341796875,-0.256591796875,-1.4953612089157104,0.0610351525247097,0.5187987685203552,100.0,186801.0,1.0
15:39:47.155905,197798.90625,182212.40625,230152.265625,210203.234375,199601.890625,177424.9375,686083.25,199743.25,0.091064453125,0.976318359375,-0.260009765625,-1.4648436307907104,0.0,0.5798339247703552,100.0,186802.0,1.0
15:39:47.182086,197798.46875,182207.40625,230148.0625,210209.9375,199599.75,177400.34375,686090.5,199752.71875,0.08984375,0.978271484375,-0.25634765625,-1.5563963651657104,0.0610351525247097,0.4882812201976776,100.0,186803.0,1.0
15:39:47.182116,197802.3125,182214.203125,230155.03125,210207.796875,199606.546875,177419.21875,686129.5625,199751.375,0.09033203125,0.976318359375,-0.25537109375,-1.5258787870407104,0.0,0.6103515028953552,100.0,186804.0,1.0
15:39:47.185210,197803.921875,182219.203125,230165.21875,210208.328125,199614.765625,177448.984375,686100.625,199748.078125,0.091796875,0.976806640625,-0.258056640625,-1.6479490995407104,-0.03051757626235485,0.6408690810203552,100.0,186805.0,1.0
15:39:47.185239,197811.0625,182224.9375,230168.078125,210209.859375,199616.375,177442.640625,686104.5,199752.71875,0.090576171875,0.976806640625,-0.2587890625,-1.6784666776657104,-0.03051757626235485,0.7324218153953552,100.0,186806.0,1.0
15:39:47.185249,197808.296875,182215.90625,230161.828125,210216.640625,199612.078125,177411.078125,686088.8125,199762.375,0.090087890625,0.976318359375,-0.2578125,-1.5869139432907104,0.0610351525247097,0.7019042372703552,100.0,186807.0,1.0
15:39:47.188316,197809.28125,182219.46875,230163.4375,210213.609375,199611.28125,177418.671875,686127.75,199756.125,0.090087890625,0.973876953125,-0.254150390625,-1.5258787870407104,-0.0610351525247097,0.6713866591453552,100.0,186808.0,1.0
15:39:47.188348,197816.796875,182232.078125,230178.359375,210218.96875,199626.484375,177458.015625,686107.5,199759.0625,0.091064453125,0.973876953125,-0.256591796875,-1.5258787870407104,0.0610351525247097,0.6713866591453552,100.0,186809.0,1.0
15:39:47.190255,197817.78125,182231.640625,230173.890625,210213.34375,199619.6875,177450.953125,686099.4375,199753.53125,0.089111328125,0.97509765625,-0.256103515625,-1.4953612089157104,0.03051757626235485,0.7934569716453552,100.0,186810.0,1.0
15:39:47.192760,197811.34375,182217.59375,230163.609375,210220.765625,199608.515625,177412.6875,686084.3125,199759.421875,0.08740234375,0.97412109375,-0.257568359375,-1.5869139432907104,-0.03051757626235485,0.7324218153953552,100.0,186811.0,1.0
15:39:47.195254,197818.765625,182225.375,230175.421875,210228.265625,199615.03125,177419.296875,686123.8125,199763.984375,0.087890625,0.9736328125,-0.25732421875,-1.4953612089157104,0.0,0.7324218153953552,100.0,186812.0,1.0
15:39:47.197754,197825.828125,182238.609375,230192.84375,210239.0,199632.203125,177460.796875,686119.625,199766.046875,0.09130859375,0.97314453125,-0.25634765625,-1.4953612089157104,-0.0915527269244194,0.6103515028953552,100.0,186813.0,1.0
15:39:47.200241,197825.734375,182239.234375,230190.53125,210226.296875,199627.90625,177462.40625,686097.9375,199756.296875,0.092529296875,0.975830078125,-0.25390625,-1.4343260526657104,-0.1525878757238388,0.6408690810203552,100.0,186814.0,1.0
15:39:47.207916,197826.984375,182236.734375,230188.640625,210233.015625,199625.5,177435.671875,686086.75,199770.25,0.091064453125,0.974853515625,-0.255126953125,-1.3122557401657104,-0.1525878757238388,0.6103515028953552,100.0,186815.0,1.0
15:39:47.210389,197827.078125,182234.234375,230185.96875,210234.96875,199623.703125,177426.28125,686105.4375,199772.125,0.08984375,0.972412109375,-0.2529296875,-1.2817381620407104,-0.1525878757238388,0.6408690810203552,100.0,186816.0,1.0
15:39:47.212820,197833.328125,182244.234375,230196.96875,210244.90625,199638.453125,177464.71875,686117.3125,199775.25,0.092041015625,0.970703125,-0.253662109375,-1.2512205839157104,-0.1831054538488388,0.5798339247703552,100.0,186817.0,1.0
15:39:47.215438,197834.578125,182247.90625,230197.765625,210238.546875,199637.03125,177475.09375,686105.25,199767.828125,0.095703125,0.970703125,-0.258544921875,-1.3122557401657104,-0.2136230319738388,0.5493163466453552,100.0,186818.0,1.0
15:39:47.229665,197822.421875,182232.4375,230179.078125,210229.515625,199620.578125,177438.890625,686098.125,199766.125,0.094482421875,0.97119140625,-0.257080078125,-1.2817381620407104,-0.1525878757238388,0.6103515028953552,100.0,186819.0,1.0
15:39:47.229696,197814.109375,182222.0625,230166.109375,210224.6875,199608.6875,177417.25,686104.875,199762.921875,0.0947265625,0.970458984375,-0.257568359375,-1.2817381620407104,-0.0915527269244194,0.6713866591453552,100.0,186820.0,1.0
15:39:47.231607,197811.703125,182225.375,230169.515625,210222.28125,199613.875,177443.4375,686136.0625,199758.359375,0.093017578125,0.970947265625,-0.25439453125,-1.1596678495407104,0.0,0.6713866591453552,100.0,186821.0,1.0
15:39:47.234320,197804.71875,182222.15625,230165.484375,210209.9375,199607.875,177455.0625,686106.5,199745.5625,0.092041015625,0.970458984375,-0.256103515625,-1.1291502714157104,-0.0610351525247097,0.7629393935203552,100.0,186822.0,1.0
15:39:47.237780,197793.8125,182206.328125,230148.140625,210201.09375,199592.0625,177419.484375,686103.1875,199739.578125,0.093017578125,0.969482421875,-0.25830078125,-1.0681151151657104,0.03051757626235485,0.7934569716453552,100.0,186823.0,1.0
15:39:47.237810,197794.078125,182202.671875,230144.921875,210207.53125,199590.625,177397.125,686096.6875,199747.453125,0.090576171875,0.970703125,-0.257080078125,-1.0375975370407104,0.03051757626235485,0.7019042372703552,100.0,186824.0,1.0
15:39:47.237820,197791.21875,182203.828125,230144.65625,210199.65625,199594.203125,177415.734375,686119.8125,199738.6875,0.088134765625,0.969970703125,-0.2548828125,-1.0070799589157104,0.0915527269244194,0.6408690810203552,100.0,186825.0,1.0
15:39:47.240419,197795.328125,182212.765625,230153.515625,210197.15625,199603.6875,177444.15625,686095.75,199735.5625,0.088134765625,0.970947265625,-0.256591796875,-0.8239745497703552,0.2441406100988388,0.6103515028953552,100.0,186826.0,1.0
15:39:47.242870,197794.53125,182210.625,230148.6875,210196.171875,199597.421875,177425.03125,686101.5,199736.890625,0.08837890625,0.972412109375,-0.261962890625,-0.8239745497703552,0.1831054538488388,0.6103515028953552,100.0,186827.0,1.0
15:39:47.245435,197787.90625,182197.921875,230138.3125,210201.453125,199588.296875,177391.234375,686085.875,199744.765625,0.090576171875,0.97216796875,-0.2607421875,-0.7934569716453552,0.1220703050494194,0.4882812201976776,100.0,186828.0,1.0
15:39:47.248129,197793.71875,182208.390625,230146.171875,210203.953125,199597.78125,177415.109375,686123.375,199744.671875,0.0927734375,0.974365234375,-0.25830078125,-0.7629393935203552,0.1220703050494194,0.5493163466453552,100.0,186829.0,1.0
15:39:47.254339,197802.84375,182222.0625,230163.34375,210211.015625,199615.03125,177452.921875,686090.9375,199748.96875,0.093994140625,0.97705078125,-0.260498046875,-0.7629393935203552,0.0915527269244194,0.4577636420726776,100.0,186830.0,1.0
15:39:47.257294,197806.515625,182220.453125,230159.953125,210212.265625,199610.5625,177435.125,686103.25,199748.96875,0.093505859375,0.976806640625,-0.2607421875,-0.6103515028953552,0.0610351525247097,0.4882812201976776,100.0,186831.0,1.0
15:39:47.257325,197808.125,182216.890625,230156.375,210222.8125,199609.21875,177407.765625,686094.9375,199762.828125,0.093505859375,0.978515625,-0.26025390625,-0.6103515028953552,0.03051757626235485,0.4272460639476776,100.0,186832.0,1.0
15:39:47.259082,197815.546875,182226.09375,230163.515625,210225.234375,199616.46875,177421.8125,686135.0,199766.046875,0.092529296875,0.979736328125,-0.25927734375,-0.5493163466453552,0.0,0.2746581733226776,100.0,186833.0,1.0
15:39:47.263371,197816.25,182232.625,230171.03125,210223.078125,199625.765625,177456.59375,686107.0625,199761.484375,0.090576171875,0.982421875,-0.259033203125,-0.5798339247703552,0.0610351525247097,0.0915527269244194,100.0,186834.0,1.0
15:39:47.263392,197823.5,182241.296875,230173.890625,210221.46875,199626.484375,177459.8125,686108.0,199757.90625,0.088623046875,0.982666015625,-0.25830078125,-0.7629393935203552,0.0915527269244194,-0.03051757626235485,100.0,186835.0,1.0
15:39:47.272988,197827.515625,182241.5625,230173.890625,210235.515625,199629.609375,177438.265625,686107.3125,199773.546875,0.086181640625,0.98388671875,-0.256591796875,-0.7934569716453552,0.0,-0.1831054538488388,100.0,186836.0,1.0
15:39:47.277123,197832.890625,182247.28125,230175.953125,210239.0,199634.703125,177441.828125,686133.25,199775.078125,0.085205078125,0.986328125,-0.255126953125,-0.9155272841453552,-0.03051757626235485,-0.2136230319738388,100.0,186837.0,1.0
15:39:47.277152,197835.125,182253.890625,230187.125,210241.5,199649.71875,177477.0625,686139.6875,199777.125,0.0830078125,0.984375,-0.25634765625,-1.0070799589157104,-0.0610351525247097,-0.3967284858226776,100.0,186838.0,1.0
15:39:47.282967,197832.265625,182252.640625,230182.828125,210228.265625,199642.65625,177477.59375,686123.375,199764.171875,0.083984375,0.98095703125,-0.25341796875,-1.0681151151657104,-0.1220703050494194,-0.3967284858226776,100.0,186839.0,1.0
15:39:47.289570,197822.6875,182236.828125,230168.4375,210227.828125,199628.984375,177440.140625,686116.6875,199766.84375,0.085205078125,0.98095703125,-0.25634765625,-1.1901854276657104,-0.2441406100988388,-0.3967284858226776,100.0,186840.0,1.0
15:39:47.289609,197820.1875,182232.796875,230163.796875,210227.203125,199625.671875,177428.875,686129.3125,199766.3125,0.087158203125,0.979248046875,-0.259765625,-1.2817381620407104,-0.4272460639476776,-0.2746581733226776,100.0,186841.0,1.0
15:39:47.296457,197823.765625,182240.125,230175.6875,210232.5625,199639.984375,177463.296875,686151.625,199771.5,0.08837890625,0.977783203125,-0.256103515625,-1.2817381620407104,-0.4577636420726776,-0.2746581733226776,100.0,186842.0,1.0
15:39:47.303443,197823.046875,182242.546875,230175.421875,210225.671875,199638.90625,177473.390625,686120.0,199765.421875,0.08984375,0.97412109375,-0.255126953125,-1.2817381620407104,-0.4882812201976776,-0.2136230319738388,100.0,186843.0,1.0
15:39:47.303469,197814.5625,182228.5,230160.21875,210220.046875,199623.53125,177436.5625,686108.5625,199765.953125,0.092041015625,0.9736328125,-0.25439453125,-1.3122557401657104,-0.4577636420726776,-0.0915527269244194,100.0,186844.0,1.0
15:39:47.335956,197810.265625,182220.109375,230153.515625,210219.421875,199615.125,177418.40625,686112.0625,199765.859375,0.0927734375,0.971435546875,-0.25732421875,-1.2817381620407104,-0.4272460639476776,0.03051757626235485,100.0,186845.0,1.0
15:39:47.335982,197810.625,182224.03125,230161.5625,210218.875,199623.53125,177466.0625,686134.3125,199761.84375,0.091552734375,0.970458984375,-0.256591796875,-1.3427733182907104,-0.3356933295726776,0.2136230319738388,100.0,186846.0,1.0
15:39:47.338463,197806.78125,182223.859375,230160.9375,210210.484375,199620.578125,177483.859375,686106.875,199749.328125,0.091552734375,0.967529296875,-0.2587890625,-1.1901854276657104,-0.3967284858226776,0.3662109076976776,100.0,186847.0,1.0
15:39:47.338485,197799.171875,182212.59375,230147.703125,210203.421875,199607.078125,177447.015625,686108.375,199746.375,0.09033203125,0.968505859375,-0.255615234375,-1.0986326932907104,-0.3051757514476776,0.5187987685203552,100.0,186848.0,1.0
15:39:47.340417,197797.5625,182207.046875,230144.125,210207.796875,199600.734375,177417.515625,686113.0,199750.578125,0.09033203125,0.96875,-0.25634765625,-1.0375975370407104,-0.2441406100988388,0.6713866591453552,100.0,186849.0,1.0
15:39:47.342777,197803.203125,182216.890625,230153.78125,210209.3125,199611.734375,177441.203125,686153.25,199749.140625,0.0888671875,0.969482421875,-0.25341796875,-0.9460448622703552,-0.2746581733226776,0.6713866591453552,100.0,186850.0,1.0
15:39:47.345432,197807.5,182227.796875,230163.34375,210207.078125,199622.640625,177470.890625,686119.1875,199745.921875,0.087158203125,0.968505859375,-0.257080078125,-0.8544921278953552,-0.2441406100988388,0.7934569716453552,100.0,186851.0,1.0
15:39:47.350422,197809.1875,182227.078125,230158.875,210206.1875,199619.59375,177455.421875,686123.5625,199750.125,0.089599609375,0.969482421875,-0.255859375,-0.7934569716453552,-0.2136230319738388,0.8239745497703552,100.0,186852.0,1.0
15:39:47.352837,197810.09375,182223.234375,230155.296875,210216.640625,199618.796875,177431.109375,686113.125,199760.5,0.087890625,0.968994140625,-0.2529296875,-0.7629393935203552,-0.1831054538488388,0.8850097060203552,100.0,186853.0,1.0
15:39:47.357819,197813.9375,182226.546875,230159.59375,210221.03125,199622.90625,177444.15625,686150.75,199756.484375,0.084228515625,0.970703125,-0.25390625,-0.6713866591453552,-0.2441406100988388,1.0375975370407104,100.0,186854.0,1.0
15:39:47.360398,197813.9375,182230.109375,230166.5625,210220.671875,199629.34375,177470.71875,686119.8125,199750.75,0.083740234375,0.96923828125,-0.25537109375,-0.5493163466453552,-0.3356933295726776,1.1291502714157104,100.0,186855.0,1.0
15:39:47.362830,197815.0,182229.84375,230163.4375,210217.71875,199622.28125,177458.90625,686120.0,199746.1875,0.08251953125,0.969970703125,-0.255126953125,-0.4577636420726776,-0.3967284858226776,1.1291502714157104,100.0,186856.0,1.0
15:39:47.365382,197812.046875,182221.890625,230159.140625,210224.0625,199616.640625,177427.625,686107.1875,199755.578125,0.0830078125,0.96923828125,-0.257080078125,-0.3967284858226776,-0.4882812201976776,1.1596678495407104,100.0,186857.0,1.0
15:39:47.367924,197817.234375,182228.234375,230165.125,210224.25,199622.28125,177437.359375,686141.1875,199756.125,0.0859375,0.968994140625,-0.25830078125,-0.1831054538488388,-0.5187987685203552,1.2207030057907104,100.0,186858.0,1.0
15:39:47.373448,197827.34375,182242.28125,230180.953125,210230.765625,199641.234375,177478.484375,686130.4375,199762.28125,0.08935546875,0.96728515625,-0.257568359375,-0.1220703050494194,-0.4882812201976776,1.2817381620407104,100.0,186859.0,1.0
15:39:47.373464,197829.9375,182245.578125,230179.703125,210223.078125,199637.46875,177476.796875,686125.8125,199756.5625,0.0888671875,0.96337890625,-0.2548828125,0.0915527269244194,-0.4882812201976776,1.2207030057907104,100.0,186860.0,1.0
15:39:47.375421,197828.953125,182241.109375,230175.59375,210229.796875,199632.921875,177448.546875,686114.875,199768.453125,0.08984375,0.963623046875,-0.256591796875,0.2136230319738388,-0.5493163466453552,1.1596678495407104,100.0,186861.0,1.0
15:39:47.377818,197825.546875,182236.90625,230169.78125,210225.40625,199627.015625,177442.8125,686141.875,199764.96875,0.08984375,0.968505859375,-0.257568359375,0.2746581733226776,-0.6103515028953552,1.0681151151657104,100.0,186862.0,1.0
15:39:47.380359,197824.75,182239.953125,230176.125,210224.875,199634.4375,177472.5,686133.4375,199761.9375,0.08935546875,0.97265625,-0.257080078125,0.4577636420726776,-0.6103515028953552,1.0375975370407104,100.0,186863.0,1.0
15:39:47.387163,197827.796875,182243.609375,230177.203125,210220.21875,199634.796875,177478.140625,686120.375,199758.0,0.090087890625,0.97509765625,-0.25927734375,0.5798339247703552,-0.5493163466453552,0.9460448622703552,100.0,186864.0,1.0
15:39:47.387172,197823.046875,182233.328125,230166.296875,210223.0,199625.5,177443.890625,686119.3125,199766.125,0.090087890625,0.977783203125,-0.258544921875,0.4882812201976776,-0.6408690810203552,0.9155272841453552,100.0,186865.0,1.0
15:39:47.397086,197816.609375,182225.828125,230156.1875,210216.203125,199615.296875,177427.984375,686128.9375,199761.21875,0.09228515625,0.979248046875,-0.261962890625,0.6103515028953552,-0.6408690810203552,0.9765624403953552,100.0,186866.0,1.0
15:39:47.397113,197819.03125,182233.328125,230162.546875,210218.078125,199626.03125,177460.15625,686148.8125,199761.03125,0.093994140625,0.98095703125,-0.260498046875,0.5187987685203552,-0.7019042372703552,0.9155272841453552,100.0,186867.0,1.0
15:39:47.399111,197818.84375,182236.015625,230163.875,210212.171875,199624.6875,177470.53125,686126.0625,199752.90625,0.095947265625,0.98388671875,-0.26220703125,0.5493163466453552,-0.6713866591453552,1.0375975370407104,100.0,186868.0,1.0
15:39:47.402813,197809.46875,182222.6875,230149.21875,210207.265625,199610.46875,177435.21875,686120.6875,199754.0625,0.095458984375,0.98193359375,-0.257568359375,0.4882812201976776,-0.7019042372703552,0.9155272841453552,100.0,186869.0,1.0
15:39:47.412103,197796.140625,182209.28125,230131.515625,210198.9375,199593.671875,177403.84375,686109.0,199747.625,0.09716796875,0.981689453125,-0.259521484375,0.4272460639476776,-0.7934569716453552,0.9155272841453552,100.0,186870.0,1.0
15:39:47.412125,197795.15625,182212.59375,230136.875,210199.296875,199600.28125,177428.953125,686128.5,199743.78125,0.09765625,0.981689453125,-0.25830078125,0.1831054538488388,-0.6103515028953552,0.8239745497703552,100.0,186871.0,1.0
15:39:47.415804,197798.109375,182218.671875,230141.703125,210196.4375,199604.75,177450.78125,686103.625,199737.34375,0.09765625,0.98291015625,-0.259033203125,0.1220703050494194,-0.5187987685203552,0.9460448622703552,100.0,186872.0,1.0
15:39:47.415828,197792.65625,182207.5,230129.28125,210191.609375,199592.328125,177420.640625,686101.125,199736.265625,0.097900390625,0.984130859375,-0.259765625,0.03051757626235485,-0.5187987685203552,0.8850097060203552,100.0,186873.0,1.0
15:39:47.425259,197788.0,182198.828125,230122.21875,210193.484375,199585.703125,177392.75,686095.75,199738.6875,0.096923828125,0.985107421875,-0.2626953125,-0.2746581733226776,-0.4577636420726776,0.8544921278953552,100.0,186874.0,1.0
15:39:47.429609,197790.0625,182205.171875,230128.125,210190.546875,199593.40625,177414.828125,686127.625,199732.15625,0.099853515625,0.985595703125,-0.262451171875,-0.3356933295726776,-0.3356933295726776,0.7934569716453552,100.0,186875.0,1.0
15:39:47.429645,197799.09375,182219.125,230142.953125,210193.3125,199605.640625,177448.984375,686102.8125,199731.265625,0.09814453125,0.98486328125,-0.265380859375,-0.4882812201976776,-0.1525878757238388,0.7019042372703552,100.0,186876.0,1.0
15:39:47.439085,197800.078125,182218.671875,230139.390625,210191.25,199598.859375,177432.8125,686114.375,199730.640625,0.09716796875,0.984375,-0.26416015625,-0.6408690810203552,-0.1525878757238388,0.6713866591453552,100.0,186877.0,1.0
15:39:47.442091,197796.59375,182208.65625,230132.3125,210199.390625,199591.796875,177401.421875,686102.125,199737.703125,0.09521484375,0.984619140625,-0.26171875,-0.7629393935203552,-0.2136230319738388,0.6713866591453552,100.0,186878.0,1.0
15:39:47.442118,197797.390625,182210.171875,230133.65625,210196.53125,199594.828125,177412.875,686135.75,199733.328125,0.09375,0.98291015625,-0.264404296875,-0.8544921278953552,-0.1525878757238388,0.5798339247703552,100.0,186879.0,1.0
15:39:47.452089,197802.75,182219.390625,230148.234375,210197.0625,199608.78125,177447.015625,686120.1875,199734.125,0.091552734375,0.981689453125,-0.2626953125,-1.0681151151657104,-0.03051757626235485,0.5493163466453552,100.0,186880.0,1.0
15:39:47.452109,197804.359375,182219.921875,230146.890625,210190.984375,199604.578125,177435.9375,686114.1875,199730.453125,0.09130859375,0.9814453125,-0.263916015625,-1.1901854276657104,0.1220703050494194,0.3967284858226776,100.0,186881.0,1.0
15:39:47.454012,197805.078125,182214.015625,230144.5625,210202.078125,199600.1875,177405.71875,686094.9375,199743.421875,0.092041015625,0.980712890625,-0.264404296875,-1.4343260526657104,0.0610351525247097,0.3967284858226776,100.0,186882.0,1.0
15:39:47.457791,197812.671875,182221.359375,230150.203125,210207.796875,199607.703125,177417.96875,686132.0625,199746.828125,0.090087890625,0.978759765625,-0.262939453125,-1.5869139432907104,0.1525878757238388,0.2136230319738388,100.0,186883.0,1.0
15:39:47.467169,197817.59375,182230.734375,230162.1875,210211.015625,199621.46875,177455.78125,686114.375,199748.078125,0.09033203125,0.97998046875,-0.260986328125,-1.6784666776657104,0.0915527269244194,0.2746581733226776,100.0,186884.0,1.0
15:39:47.467243,197815.546875,182229.21875,230157.265625,210200.546875,199615.484375,177451.671875,686117.9375,199740.46875,0.091796875,0.978759765625,-0.26318359375,-1.7700194120407104,0.1220703050494194,0.2136230319738388,100.0,186885.0,1.0
15:39:47.471518,197811.25,182219.46875,230148.234375,210207.34375,199607.875,177418.859375,686114.25,199750.671875,0.08935546875,0.97802734375,-0.26513671875,-1.8615721464157104,0.1831054538488388,0.1220703050494194,100.0,186886.0,1.0
15:39:47.474140,197813.03125,182220.90625,230148.140625,210210.125,199606.359375,177417.0625,686138.125,199751.828125,0.089599609375,0.976806640625,-0.261474609375,-1.8920897245407104,0.0915527269244194,0.1220703050494194,100.0,186887.0,1.0
15:39:47.477699,197816.609375,182230.203125,230160.296875,210210.03125,199621.390625,177453.1875,686123.125,199752.90625,0.093017578125,0.9736328125,-0.2626953125,-1.9226073026657104,0.0610351525247097,0.2136230319738388,100.0,186888.0,1.0
15:39:47.488333,197814.375,182228.328125,230158.25,210198.765625,199617.1875,177454.171875,686113.5625,199743.875,0.091796875,0.97021484375,-0.26611328125,-2.044677495956421,0.1525878757238388,0.0915527269244194,100.0,186889.0,1.0
15:39:47.488343,197813.3125,182220.8125,230149.9375,210204.84375,199610.390625,177422.703125,686102.3125,199754.6875,0.09326171875,0.971435546875,-0.262939453125,-2.075195074081421,0.2136230319738388,0.1831054538488388,100.0,186890.0,1.0
15:39:47.490287,197811.96875,182218.671875,230147.4375,210205.828125,199606.8125,177410.8125,686109.0625,199754.59375,0.091796875,0.97021484375,-0.261962890625,-2.044677495956421,0.2746581733226776,0.2441406100988388,100.0,186891.0,1.0
15:39:47.494128,197813.65625,182226.546875,230157.53125,210205.46875,199618.515625,177446.3125,686143.5,199752.1875,0.091064453125,0.972412109375,-0.263916015625,-2.136230230331421,0.3967284858226776,0.3356933295726776,100.0,186892.0,1.0
15:39:47.524862,197814.015625,182230.203125,230159.5,210198.3125,199618.4375,177459.359375,686123.125,199742.890625,0.09228515625,0.971435546875,-0.262939453125,-2.105712652206421,0.3356933295726776,0.3051757514476776,100.0,186893.0,1.0
15:39:47.524879,197806.15625,182218.40625,230146.359375,210193.671875,199603.6875,177425.296875,686110.0,199741.359375,0.092529296875,0.971435546875,-0.2646484375,-2.136230230331421,0.3662109076976776,0.3356933295726776,100.0,186894.0,1.0
15:39:47.549750,197800.25,182211.96875,230136.703125,210196.34375,199594.03125,177401.25,686105.0625,199739.578125,0.090087890625,0.9716796875,-0.263671875,-2.105712652206421,0.3662109076976776,0.4272460639476776,100.0,186895.0,1.0
15:39:47.549785,197800.515625,182219.828125,230141.0,210207.265625,199601.359375,177426.015625,686141.375,199736.0,0.087890625,0.97119140625,-0.26318359375,-2.105712652206421,0.3662109076976776,0.4882812201976776,100.0,186896.0,1.0
15:39:47.572803,197809.015625,182230.46875,230152.96875,210214.5,199611.640625,177453.09375,686116.0,199735.46875,0.086669921875,0.9697265625,-0.264892578125,-2.105712652206421,0.2746581733226776,0.4577636420726776,100.0,186897.0,1.0
15:39:47.575913,197807.21875,182221.625,230145.734375,210212.625,199602.34375,177427.078125,686113.8125,199735.734375,0.084228515625,0.9716796875,-0.26513671875,-2.014159917831421,0.3051757514476776,0.3967284858226776,100.0,186898.0,1.0
15:39:47.582746,197803.375,182212.859375,230139.03125,210216.203125,199594.921875,177398.734375,686101.25,199738.859375,0.082275390625,0.970947265625,-0.264892578125,-2.105712652206421,0.1831054538488388,0.3051757514476776,100.0,186899.0,1.0
15:39:47.582814,197811.34375,182225.734375,230148.859375,210219.234375,199606.71875,177426.71875,686133.25,199740.46875,0.0810546875,0.971923828125,-0.262939453125,-2.136230230331421,0.1831054538488388,0.1831054538488388,100.0,186900.0,1.0
15:39:47.582842,197813.65625,182232.265625,230157.53125,210221.5625,199614.5,177455.78125,686106.875,199737.34375,0.08203125,0.972412109375,-0.26513671875,-2.197265386581421,0.0915527269244194,0.2746581733226776,100.0,186901.0,1.0
15:39:47.585860,197805.4375,182220.90625,230144.390625,210211.46875,199599.75,177430.296875,686113.8125,199729.46875,0.080810546875,0.973388671875,-0.266357421875,-2.227782964706421,0.03051757626235485,0.2441406100988388,100.0,186902.0,1.0
15:39:47.585921,197799.265625,182209.28125,230134.5625,210215.125,199589.640625,177397.125,686108.125,199734.65625,0.079345703125,0.974365234375,-0.266357421875,-2.227782964706421,-0.1220703050494194,0.3662109076976776,100.0,186903.0,1.0
15:39:47.589057,197799.359375,182214.640625,230138.3125,210214.046875,199592.6875,177411.96875,686132.4375,199729.203125,0.08154296875,0.974365234375,-0.266845703125,-2.227782964706421,-0.1525878757238388,0.2136230319738388,100.0,186904.0,1.0
15:39:47.589123,197802.3125,182221.078125,230149.578125,210217.265625,199602.96875,177443.890625,686101.875,199727.6875,0.084228515625,0.975341796875,-0.265625,-2.288818120956421,-0.3051757514476776,0.1525878757238388,100.0,186905.0,1.0
15:39:47.589164,197807.40625,182223.140625,230149.3125,210216.203125,199600.546875,177437.8125,686107.9375,199727.421875,0.08447265625,0.976318359375,-0.2666015625,-2.288818120956421,-0.3051757514476776,0.2746581733226776,100.0,186906.0,1.0
15:39:47.592169,197807.5,182217.421875,230144.21875,210227.640625,199596.96875,177409.921875,686096.75,199741.359375,0.087890625,0.976318359375,-0.265625,-2.319335699081421,-0.3662109076976776,0.2136230319738388,100.0,186907.0,1.0
15:39:47.592232,197811.0625,182222.609375,230146.625,210230.5,199600.375,177417.515625,686123.75,199740.390625,0.090087890625,0.97705078125,-0.262939453125,-2.349853277206421,-0.4882812201976776,0.3051757514476776,100.0,186908.0,1.0
15:39:47.594419,197811.0625,182225.015625,230156.28125,210229.25,199611.8125,177450.15625,686109.0625,199739.3125,0.0908203125,0.9765625,-0.2646484375,-2.380370855331421,-0.3967284858226776,0.4882812201976776,100.0,186909.0,1.0
15:39:47.599139,197806.953125,182223.40625,230151.984375,210218.25,199605.828125,177446.75,686112.5625,199731.984375,0.092529296875,0.9765625,-0.26025390625,-2.319335699081421,-0.4272460639476776,0.5187987685203552,100.0,186910.0,1.0
15:39:47.601725,197805.609375,182219.5625,230146.796875,210226.578125,199603.046875,177419.75,686098.5625,199747.53125,0.091064453125,0.97802734375,-0.2626953125,-2.380370855331421,-0.3967284858226776,0.4272460639476776,100.0,186911.0,1.0
15:39:47.604128,197809.28125,182222.515625,230147.96875,210226.84375,199604.75,177420.109375,686119.9375,199748.609375,0.092041015625,0.97509765625,-0.260986328125,-2.502441167831421,-0.3356933295726776,0.5798339247703552,100.0,186912.0,1.0
15:39:47.606510,197811.515625,182228.78125,230156.90625,210226.484375,199615.65625,177454.359375,686132.3125,199747.171875,0.091064453125,0.9755859375,-0.261962890625,-2.563476324081421,-0.3051757514476776,0.7019042372703552,100.0,186913.0,1.0
15:39:47.609066,197811.609375,182231.375,230155.03125,210216.828125,199611.734375,177457.390625,686106.3125,199735.28125,0.0908203125,0.97412109375,-0.26220703125,-2.532958745956421,-0.3356933295726776,0.7019042372703552,100.0,186914.0,1.0
15:39:47.611602,197808.296875,182222.609375,230148.59375,210223.265625,199606.8125,177428.25,686099.6875,199747.09375,0.091064453125,0.973876953125,-0.261474609375,-2.471923589706421,-0.2746581733226776,0.7019042372703552,100.0,186915.0,1.0
15:39:47.614097,197807.21875,182218.9375,230145.109375,210225.140625,199603.234375,177415.546875,686108.9375,199749.328125,0.0927734375,0.972412109375,-0.263427734375,-2.471923589706421,-0.1831054538488388,0.7629393935203552,100.0,186916.0,1.0
15:39:47.616606,197809.8125,182228.953125,230153.328125,210224.328125,199613.0625,177448.0,686121.1875,199746.1875,0.091796875,0.971435546875,-0.262451171875,-2.532958745956421,-0.0610351525247097,0.6713866591453552,100.0,186917.0,1.0
15:39:47.619092,197810.4375,182232.0,230155.828125,210218.703125,199613.6875,177460.25,686096.75,199738.859375,0.08935546875,0.96826171875,-0.258544921875,-2.563476324081421,-0.1220703050494194,0.6408690810203552,100.0,186918.0,1.0
15:39:47.621586,197799.890625,182216.609375,230144.390625,210212.71875,199598.140625,177423.59375,686106.4375,199735.90625,0.089111328125,0.96630859375,-0.257568359375,-2.410888433456421,-0.0610351525247097,0.6713866591453552,100.0,186919.0,1.0
15:39:47.624132,197798.90625,182213.390625,230144.125,210217.09375,199595.1875,177403.84375,686117.125,199741.28125,0.087890625,0.964111328125,-0.2626953125,-2.380370855331421,-0.03051757626235485,0.5493163466453552,100.0,186920.0,1.0
15:39:47.627133,197806.515625,182224.75,230154.046875,210219.78125,199609.9375,177437.359375,686135.0,199742.703125,0.088623046875,0.963134765625,-0.26123046875,-2.258300542831421,0.03051757626235485,0.4577636420726776,100.0,186921.0,1.0
15:39:47.627195,197815.890625,182239.6875,230164.953125,210223.171875,199620.40625,177465.96875,686111.9375,199742.265625,0.087890625,0.961181640625,-0.262939453125,-2.258300542831421,0.0,0.3662109076976776,100.0,186922.0,1.0
15:39:47.629102,197816.171875,182236.546875,230159.140625,210223.890625,199613.515625,177444.875,686110.9375,199744.40625,0.088623046875,0.96240234375,-0.25830078125,-1.9836424589157104,0.03051757626235485,0.3051757514476776,100.0,186923.0,1.0
15:39:47.632128,197808.296875,182224.296875,230146.890625,210223.359375,199602.078125,177414.484375,686102.75,199746.640625,0.089599609375,0.962890625,-0.260498046875,-1.7395018339157104,-0.0610351525247097,0.03051757626235485,100.0,186924.0,1.0
15:39:47.632190,197812.046875,182230.296875,230151.546875,210223.0,199609.21875,177434.234375,686140.5,199745.75,0.091796875,0.964599609375,-0.26025390625,-1.6174315214157104,0.03051757626235485,-0.1220703050494194,100.0,186925.0,1.0
15:39:47.634073,197814.640625,182238.78125,230162.890625,210224.875,199619.234375,177465.96875,686107.3125,199743.78125,0.0927734375,0.967041015625,-0.260009765625,-1.5563963651657104,0.0610351525247097,-0.2441406100988388,100.0,186926.0,1.0
15:39:47.636832,197808.75,182233.421875,230156.453125,210220.046875,199608.6875,177447.28125,686115.25,199738.859375,0.095947265625,0.968994140625,-0.2607421875,-1.4038084745407104,0.1831054538488388,-0.3662109076976776,100.0,186927.0,1.0
15:39:47.640847,197810.0,182229.40625,230155.390625,210233.359375,199606.71875,177423.0625,686113.3125,199754.0625,0.0966796875,0.97021484375,-0.260986328125,-1.3427733182907104,0.2746581733226776,-0.5798339247703552,100.0,186928.0,1.0
15:39:47.640903,197810.71875,182232.53125,230156.90625,210228.984375,199609.40625,177436.46875,686142.1875,199750.484375,0.095458984375,0.970703125,-0.260498046875,-1.2512205839157104,0.3662109076976776,-0.6408690810203552,100.0,186929.0,1.0
15:39:47.650879,197809.640625,182235.296875,230162.984375,210226.125,199615.390625,177465.625,686113.5,199746.640625,0.098876953125,0.971923828125,-0.259033203125,-0.9765624403953552,0.3662109076976776,-0.8850097060203552,100.0,186930.0,1.0
15:39:47.650948,197808.65625,182231.28125,230157.171875,210218.4375,199607.078125,177452.75,686103.25,199741.09375,0.09814453125,0.970703125,-0.258544921875,-0.9155272841453552,0.5493163466453552,-1.1291502714157104,100.0,186931.0,1.0
15:39:47.653611,197807.5,182222.34375,230151.984375,210226.484375,199603.234375,177419.84375,686093.0,199753.171875,0.098388671875,0.973388671875,-0.26025390625,-0.9765624403953552,0.7934569716453552,-1.2817381620407104,100.0,186932.0,1.0
15:39:47.653625,197813.65625,182229.671875,230155.828125,210230.859375,199608.953125,177428.6875,686125.25,199754.953125,0.09619140625,0.974365234375,-0.25927734375,-0.9765624403953552,0.8544921278953552,-1.4648436307907104,100.0,186933.0,1.0
15:39:47.665337,197814.109375,182234.671875,230162.890625,210231.75,199619.78125,177461.140625,686120.5625,199751.65625,0.09619140625,0.974853515625,-0.260986328125,-0.9155272841453552,1.0375975370407104,-1.6174315214157104,100.0,186934.0,1.0
15:39:47.668364,197812.328125,182233.875,230158.25,210222.546875,199613.515625,177457.484375,686118.9375,199741.640625,0.095947265625,0.975341796875,-0.2646484375,-0.9155272841453552,1.1901854276657104,-1.7700194120407104,100.0,186935.0,1.0
15:39:47.668374,197806.953125,182220.90625,230149.390625,210227.203125,199603.6875,177422.34375,686101.3125,199749.859375,0.095703125,0.976806640625,-0.26416015625,-0.9155272841453552,1.2817381620407104,-1.8005369901657104,100.0,186936.0,1.0
15:39:47.670205,197808.296875,182220.8125,230149.84375,210228.53125,199602.34375,177416.171875,686126.1875,199750.390625,0.09375,0.9775390625,-0.2587890625,-0.8239745497703552,1.2817381620407104,-1.9531248807907104,100.0,186937.0,1.0
15:39:47.680277,197810.796875,182225.375,230157.53125,210231.3125,199612.359375,177448.1875,686136.8125,199747.359375,0.095703125,0.978271484375,-0.26025390625,-0.9460448622703552,1.4343260526657104,-1.9836424589157104,100.0,186938.0,1.0
15:39:47.682723,197814.28125,182230.921875,230160.296875,210226.484375,199611.375,177457.578125,686103.25,199740.65625,0.093994140625,0.979248046875,-0.26171875,-0.9460448622703552,1.4038084745407104,-2.014159917831421,100.0,186939.0,1.0
15:39:47.687094,197811.25,182224.9375,230153.6875,210228.265625,199605.921875,177428.953125,686097.0,199748.34375,0.09130859375,0.979248046875,-0.260498046875,-0.9765624403953552,1.5258787870407104,-2.105712652206421,100.0,186940.0,1.0
15:39:47.687123,197806.15625,182219.203125,230145.90625,210226.296875,199598.9375,177413.40625,686114.4375,199746.015625,0.0888671875,0.97802734375,-0.257568359375,-1.0681151151657104,1.5869139432907104,-2.105712652206421,100.0,186941.0,1.0
15:39:47.696500,197808.03125,182226.1875,230154.9375,210228.265625,199609.40625,177444.96875,686147.0625,199744.5,0.08935546875,0.98095703125,-0.255126953125,-1.1596678495407104,1.6174315214157104,-2.044677495956421,100.0,186942.0,1.0
15:39:47.707781,197812.046875,182231.8125,230162.265625,210225.765625,199613.0625,177461.140625,686116.0,199741.1875,0.086669921875,0.982177734375,-0.259033203125,-1.2512205839157104,1.6174315214157104,-1.9836424589157104,100.0,186943.0,1.0
15:39:47.707797,197808.75,182224.21875,230153.15625,210224.328125,199604.3125,177433.25,686112.875,199745.125,0.083984375,0.982177734375,-0.26025390625,-1.4038084745407104,1.5869139432907104,-1.8005369901657104,100.0,186944.0,1.0
15:39:47.707798,197807.21875,182219.828125,230148.40625,210226.125,199599.75,177412.15625,686112.125,199748.96875,0.0830078125,0.9814453125,-0.25830078125,-1.4343260526657104,1.4953612089157104,-1.7089842557907104,100.0,186945.0,1.0
15:39:47.710999,197809.8125,182225.828125,230156.90625,210224.515625,199608.328125,177438.796875,686138.3125,199747.09375,0.079833984375,0.98193359375,-0.25830078125,-1.4648436307907104,1.5869139432907104,-1.6479490995407104,100.0,186946.0,1.0
15:39:47.711007,197815.453125,182235.5625,230167.1875,210223.265625,199618.609375,177466.515625,686112.25,199744.765625,0.0791015625,0.98046875,-0.256591796875,-1.6479490995407104,1.3732908964157104,-1.5258787870407104,100.0,186947.0,1.0
15:39:47.717738,197816.34375,182233.25,230161.640625,210223.0,199613.515625,177445.140625,686111.9375,199747.625,0.0771484375,0.97705078125,-0.2568359375,-1.6174315214157104,1.3122557401657104,-1.4038084745407104,100.0,186948.0,1.0
15:39:47.725780,197811.609375,182224.03125,230152.890625,210226.03125,199604.65625,177415.109375,686106.5625,199751.109375,0.077880859375,0.977294921875,-0.255859375,-1.6174315214157104,1.0986326932907104,-1.1901854276657104,100.0,186949.0,1.0
15:39:47.725787,197810.09375,182226.265625,230154.21875,210220.671875,199605.921875,177432.453125,686140.5625,199742.890625,0.076171875,0.978515625,-0.25537109375,-1.7089842557907104,1.0986326932907104,-1.0070799589157104,100.0,186950.0,1.0
15:39:47.727790,197813.21875,182234.3125,230163.609375,210219.234375,199613.515625,177462.21875,686102.0,199738.6875,0.0771484375,0.9775390625,-0.254150390625,-1.6784666776657104,0.8850097060203552,-0.8850097060203552,100.0,186951.0,1.0
15:39:47.735822,197815.890625,182236.015625,230161.640625,210217.265625,199609.671875,177450.328125,686114.8125,199739.046875,0.073974609375,0.978759765625,-0.255126953125,-1.7089842557907104,0.7934569716453552,-0.6408690810203552,100.0,186952.0,1.0
15:39:47.735832,197813.21875,182230.03125,230153.234375,210223.984375,199602.515625,177420.015625,686125.4375,199747.984375,0.07373046875,0.977294921875,-0.25439453125,-1.7089842557907104,0.5187987685203552,-0.4577636420726776,100.0,186953.0,1.0
15:39:47.742841,197813.484375,182231.015625,230152.4375,210219.953125,199602.96875,177428.15625,686153.25,199742.265625,0.073974609375,0.97900390625,-0.255859375,-1.8005369901657104,0.3356933295726776,-0.2136230319738388,100.0,186954.0,1.0
15:39:47.747067,197816.078125,182237.625,230162.625,210220.578125,199613.515625,177460.796875,686128.3125,199739.75,0.07421875,0.976806640625,-0.256591796875,-1.7395018339157104,0.2746581733226776,-0.03051757626235485,100.0,186955.0,1.0
15:39:47.747083,197818.84375,182239.5,230162.546875,210217.546875,199609.9375,177455.15625,686119.3125,199738.140625,0.07470703125,0.977294921875,-0.25439453125,-1.8310545682907104,0.1220703050494194,0.1831054538488388,100.0,186956.0,1.0
15:39:47.756592,197814.734375,182228.5,230154.046875,210223.4375,199602.96875,177421.09375,686094.6875,199747.09375,0.07470703125,0.978271484375,-0.254150390625,-1.8005369901657104,0.0,0.4882812201976776,100.0,186957.0,1.0
15:39:47.760847,197817.0625,182231.90625,230155.5625,210223.625,199605.203125,177424.578125,686126.4375,199747.09375,0.075927734375,0.977294921875,-0.25439453125,-1.8310545682907104,-0.2746581733226776,0.5493163466453552,100.0,186958.0,1.0
15:39:47.760858,197823.234375,182243.53125,230169.15625,210229.609375,199620.75,177463.109375,686123.5625,199750.046875,0.0771484375,0.97802734375,-0.25390625,-1.8920897245407104,-0.4882812201976776,0.7934569716453552,100.0,186959.0,1.0
15:39:47.770554,197822.25,182243.53125,230165.9375,210223.265625,199616.5625,177461.140625,686112.25,199742.96875,0.077880859375,0.976318359375,-0.25439453125,-1.8005369901657104,-0.5798339247703552,0.9765624403953552,100.0,186960.0,1.0
15:39:47.773295,197815.546875,182232.703125,230156.546875,210228.984375,199609.21875,177426.1875,686090.875,199752.625,0.0791015625,0.9755859375,-0.2529296875,-1.8005369901657104,-0.6408690810203552,1.1596678495407104,100.0,186961.0,1.0
15:39:47.773308,197820.453125,182235.296875,230162.71875,210233.90625,199612.265625,177423.5,686118.8125,199758.4375,0.08056640625,0.9755859375,-0.255859375,-1.8005369901657104,-0.7324218153953552,1.2207030057907104,100.0,186962.0,1.0
15:39:47.777845,197824.84375,182243.265625,230176.578125,210237.921875,199626.5625,177459.453125,686129.0,199759.609375,0.0791015625,0.975341796875,-0.257568359375,-1.7700194120407104,-0.8850097060203552,1.4343260526657104,100.0,186963.0,1.0
15:39:47.784107,197822.875,182244.328125,230177.5625,210230.140625,199624.875,177466.875,686102.5625,199751.203125,0.079833984375,0.9755859375,-0.257080078125,-1.7700194120407104,-0.9765624403953552,1.4648436307907104,100.0,186964.0,1.0
15:39:47.792240,197816.796875,182234.3125,230169.6875,210230.765625,199615.65625,177434.421875,686086.9375,199758.09375,0.081787109375,0.975341796875,-0.257080078125,-1.8310545682907104,-1.1596678495407104,1.5563963651657104,100.0,186965.0,1.0
15:39:47.792328,197813.9375,182227.96875,230165.21875,210231.046875,199610.125,177416.796875,686093.4375,199759.875,0.082763671875,0.97607421875,-0.25732421875,-1.8005369901657104,-1.1596678495407104,1.6479490995407104,100.0,186966.0,1.0
15:39:47.793368,197818.40625,182235.484375,230176.484375,210234.53125,199624.953125,177450.59375,686134.5625,199762.734375,0.086181640625,0.97412109375,-0.25927734375,-1.7395018339157104,-1.0986326932907104,1.6784666776657104,100.0,186967.0,1.0
15:39:47.793429,197820.8125,182242.0,230181.5,210229.703125,199630.234375,177469.375,686104.8125,199756.5625,0.08642578125,0.971923828125,-0.259033203125,-1.5563963651657104,-1.0681151151657104,1.8005369901657104,100.0,186968.0,1.0
15:39:47.800662,197816.4375,182235.296875,230173.625,210227.203125,199622.90625,177443.890625,686095.25,199759.609375,0.088623046875,0.97216796875,-0.25830078125,-1.6174315214157104,-1.0070799589157104,1.8615721464157104,100.0,186969.0,1.0
15:39:47.806625,197809.015625,182225.828125,230164.5,210225.046875,199611.90625,177418.5,686085.5,199758.09375,0.0888671875,0.97216796875,-0.26025390625,-1.6479490995407104,-0.9460448622703552,1.7700194120407104,100.0,186970.0,1.0
15:39:47.817100,197811.421875,182232.796875,230169.953125,210222.015625,199617.984375,177443.265625,686122.0625,199752.546875,0.08984375,0.972412109375,-0.25732421875,-1.5563963651657104,-0.9460448622703552,1.6784666776657104,100.0,186971.0,1.0
15:39:47.817127,197813.390625,182237.171875,230175.5,210221.46875,199622.453125,177464.28125,686098.4375,199744.765625,0.090576171875,0.973388671875,-0.2568359375,-1.4953612089157104,-0.8239745497703552,1.5869139432907104,100.0,186972.0,1.0
15:39:47.819598,197814.109375,182233.6875,230171.5625,210226.125,199615.75,177443.53125,686102.3125,199745.84375,0.091796875,0.975341796875,-0.256591796875,-1.4343260526657104,-0.7934569716453552,1.5869139432907104,100.0,186973.0,1.0
15:39:47.819622,197812.59375,182226.453125,230166.109375,210234.078125,199608.78125,177415.546875,686097.8125,199751.65625,0.09130859375,0.9716796875,-0.25634765625,-1.4343260526657104,-0.6713866591453552,1.5869139432907104,100.0,186974.0,1.0
15:39:47.829034,197811.0625,182228.421875,230165.765625,210227.015625,199609.21875,177431.546875,686128.0625,199742.625,0.090087890625,0.97119140625,-0.258056640625,-1.3732908964157104,-0.5798339247703552,1.3732908964157104,100.0,186975.0,1.0
15:39:47.833321,197812.765625,182236.375,230172.90625,210225.59375,199615.921875,177461.859375,686097.9375,199736.890625,0.091064453125,0.972412109375,-0.25732421875,-1.3732908964157104,-0.4577636420726776,1.4953612089157104,100.0,186976.0,1.0
15:39:47.833362,197811.703125,182232.890625,230165.046875,210220.671875,199606.90625,177445.234375,686096.75,199734.125,0.09228515625,0.975830078125,-0.26025390625,-1.2817381620407104,-0.4272460639476776,1.3732908964157104,100.0,186977.0,1.0
15:39:47.842798,197806.25,182223.765625,230156.28125,210224.78125,199599.203125,177413.140625,686089.9375,199741.453125,0.09130859375,0.97509765625,-0.26171875,-1.2512205839157104,-0.2746581733226776,1.1901854276657104,100.0,186978.0,1.0
15:39:47.847126,197806.59375,182226.546875,230157.359375,210223.171875,199600.109375,177421.359375,686133.875,199737.34375,0.09326171875,0.974609375,-0.25927734375,-1.2207030057907104,-0.2746581733226776,1.1291502714157104,100.0,186979.0,1.0
15:39:47.847179,197811.0625,182234.140625,230170.140625,210229.796875,199613.6875,177455.96875,686112.25,199740.65625,0.09130859375,0.973876953125,-0.260498046875,-1.2512205839157104,-0.2746581733226776,1.0070799589157104,100.0,186980.0,1.0
15:39:47.852914,197814.28125,182236.640625,230168.796875,210228.625,199612.4375,177450.953125,686109.6875,199741.546875,0.092529296875,0.97314453125,-0.260009765625,-1.2207030057907104,-0.0915527269244194,0.9155272841453552,100.0,186981.0,1.0
15:39:47.859870,197812.140625,182229.046875,230162.71875,210240.34375,199609.40625,177419.125,686091.1875,199756.03125,0.09375,0.97412109375,-0.260009765625,-1.1596678495407104,0.03051757626235485,0.9765624403953552,100.0,186982.0,1.0
15:39:47.859907,197813.9375,182231.453125,230163.609375,210241.40625,199612.171875,177421.09375,686130.9375,199755.578125,0.092529296875,0.974853515625,-0.26025390625,-1.1291502714157104,0.0610351525247097,0.8544921278953552,100.0,186983.0,1.0
15:39:47.886252,197823.9375,182246.828125,230182.125,210250.171875,199633.09375,177465.625,686117.5625,199761.65625,0.091796875,0.975341796875,-0.260498046875,-1.1901854276657104,0.2136230319738388,0.8850097060203552,100.0,186984.0,1.0
15:39:47.886346,197823.671875,182249.515625,230181.671875,210243.640625,199630.6875,177469.546875,686119.3125,199755.671875,0.089599609375,0.976806640625,-0.259765625,-1.2817381620407104,0.3051757514476776,0.7934569716453552,100.0,186985.0,1.0
15:39:47.910376,197823.234375,182245.140625,230176.390625,210256.171875,199627.8125,177443.53125,686114.625,199770.78125,0.08984375,0.976806640625,-0.25634765625,-1.2512205839157104,0.3662109076976776,0.7324218153953552,100.0,186986.0,1.0
15:39:47.915932,197822.15625,182243.265625,230173.984375,210261.4375,199627.546875,177437.28125,686136.0,199771.234375,0.087890625,0.977294921875,-0.257080078125,-1.2512205839157104,0.3662109076976776,0.7629393935203552,100.0,186987.0,1.0
15:39:47.915960,197829.3125,182256.84375,230189.546875,210271.546875,199646.15625,177480.546875,686138.875,199776.59375,0.087890625,0.978271484375,-0.255859375,-1.3122557401657104,0.3967284858226776,0.7324218153953552,100.0,186988.0,1.0
15:39:47.918033,197828.953125,182262.921875,230190.703125,210266.71875,199647.40625,177494.3125,686123.5625,199770.328125,0.08740234375,0.976806640625,-0.259765625,-1.3122557401657104,0.4882812201976776,0.7324218153953552,100.0,186989.0,1.0
15:39:47.920239,197817.328125,182246.828125,230173.09375,210261.34375,199632.109375,177457.21875,686127.6875,199769.265625,0.087646484375,0.9755859375,-0.26220703125,-1.3732908964157104,0.5187987685203552,0.7324218153953552,100.0,186990.0,1.0
15:39:47.922725,197808.921875,182235.03125,230159.765625,210255.09375,199620.578125,177433.15625,686120.0625,199765.5,0.087158203125,0.974853515625,-0.26123046875,-1.3427733182907104,0.5798339247703552,0.7324218153953552,100.0,186991.0,1.0
15:39:47.925240,197803.203125,182234.5,230158.78125,210248.03125,199621.203125,177453.546875,686136.1875,199757.375,0.087158203125,0.974609375,-0.258056640625,-1.3122557401657104,0.5493163466453552,0.7324218153953552,100.0,186992.0,1.0
15:39:47.928347,197798.640625,182232.796875,230157.984375,210235.25,199617.453125,177464.640625,686101.125,199744.046875,0.087646484375,0.9736328125,-0.257080078125,-1.3732908964157104,0.5187987685203552,0.7629393935203552,100.0,186993.0,1.0
15:39:47.928372,197800.703125,182229.671875,230153.78125,210237.296875,199612.171875,177439.6875,686095.4375,199750.9375,0.085693359375,0.975341796875,-0.257080078125,-1.4038084745407104,0.5493163466453552,0.7629393935203552,100.0,186994.0,1.0
15:39:47.930272,197798.90625,182222.96875,230147.078125,210240.078125,199603.6875,177414.125,686094.5,199752.625,0.087158203125,0.973876953125,-0.25732421875,-1.3732908964157104,0.5187987685203552,0.8239745497703552,100.0,186995.0,1.0
15:39:47.932737,197798.46875,182225.828125,230146.890625,210234.625,199604.9375,177434.328125,686133.3125,199742.078125,0.086669921875,0.973388671875,-0.254638671875,-1.3427733182907104,0.3356933295726776,0.9155272841453552,100.0,186996.0,1.0
15:39:47.935254,197803.03125,182235.390625,230153.953125,210233.71875,199610.5625,177461.140625,686111.0625,199733.40625,0.084716796875,0.972412109375,-0.25732421875,-1.3732908964157104,0.2746581733226776,1.0070799589157104,100.0,186997.0,1.0
15:39:47.937768,197808.5625,182237.625,230153.15625,210237.296875,199606.90625,177446.484375,686110.3125,199734.65625,0.085205078125,0.973876953125,-0.256591796875,-1.2817381620407104,0.3356933295726776,1.0070799589157104,100.0,186998.0,1.0
15:39:47.940258,197812.953125,182236.734375,230153.78125,210250.171875,199606.265625,177424.578125,686108.1875,199746.015625,0.08642578125,0.97265625,-0.258056640625,-1.3427733182907104,0.2136230319738388,0.9765624403953552,100.0,186999.0,1.0
15:39:47.942740,197815.890625,182242.625,230157.265625,210246.515625,199611.1875,177443.4375,686134.5625,199740.46875,0.085693359375,0.975341796875,-0.25732421875,-1.3427733182907104,0.2746581733226776,1.0986326932907104,100.0,187000.0,1.0
15:39:47.945802,197816.609375,182246.203125,230163.34375,210242.125,199616.46875,177469.640625,686106.5625,199733.671875,0.085693359375,0.9755859375,-0.258056640625,-1.2817381620407104,0.2746581733226776,1.0986326932907104,100.0,187001.0,1.0
15:39:47.945824,197825.109375,182253.09375,230166.5625,210245.25,199620.40625,177464.015625,686111.4375,199740.828125,0.084228515625,0.974853515625,-0.263427734375,-1.2207030057907104,0.2136230319738388,1.0681151151657104,100.0,187002.0,1.0
15:39:47.948291,197827.96875,182250.953125,230166.46875,210257.5,199621.203125,177438.265625,686104.625,199758.984375,0.084716796875,0.9765625,-0.262451171875,-1.1596678495407104,0.2441406100988388,1.1291502714157104,100.0,187003.0,1.0
15:39:47.948307,197835.84375,182258.90625,230176.046875,210261.0,199631.125,177451.40625,686137.1875,199763.71875,0.084228515625,0.976318359375,-0.261474609375,-1.2817381620407104,0.1220703050494194,1.0070799589157104,100.0,187004.0,1.0
15:39:47.975301,197838.34375,182266.140625,230187.484375,210261.625,199643.640625,177484.65625,686110.6875,199763.71875,0.08447265625,0.97412109375,-0.26171875,-1.3122557401657104,0.0915527269244194,0.9765624403953552,100.0,187005.0,1.0
15:39:47.977796,197838.421875,182265.875,230183.109375,210254.640625,199637.75,177476.96875,686107.5,199758.53125,0.08544921875,0.975341796875,-0.259033203125,-1.3427733182907104,0.03051757626235485,0.9155272841453552,100.0,187006.0,1.0
15:39:47.980855,197834.765625,182255.15625,230176.578125,210262.78125,199629.96875,177442.8125,686107.8125,199769.796875,0.084716796875,0.97265625,-0.2578125,-1.3122557401657104,-0.0610351525247097,0.9460448622703552,100.0,187007.0,1.0
15:39:47.980877,197835.5625,182252.921875,230177.109375,210262.515625,199630.859375,177438.796875,686138.0625,199769.53125,0.085205078125,0.973876953125,-0.260498046875,-1.2207030057907104,-0.0915527269244194,0.9765624403953552,100.0,187008.0,1.0
15:39:47.982785,197841.921875,182264.53125,230192.84375,210269.484375,199649.015625,177478.671875,686134.1875,199774.359375,0.0888671875,0.9716796875,-0.259765625,-1.3427733182907104,-0.1525878757238388,0.9765624403953552,100.0,187009.0,1.0
15:39:47.985370,197839.859375,182266.328125,230189.265625,210261.625,199645.171875,177481.359375,686104.375,199765.78125,0.090576171875,0.971435546875,-0.25830078125,-1.2512205839157104,-0.0915527269244194,1.0070799589157104,100.0,187010.0,1.0
15:39:47.987832,197831.09375,182252.734375,230175.953125,210264.5625,199634.34375,177446.125,686096.0625,199771.671875,0.0908203125,0.9716796875,-0.25732421875,-1.3122557401657104,-0.1220703050494194,1.1901854276657104,100.0,187011.0,1.0
15:39:47.993143,197828.6875,182248.796875,230169.421875,210260.453125,199629.34375,177434.140625,686123.9375,199768.1875,0.092529296875,0.97265625,-0.258056640625,-1.3732908964157104,-0.1525878757238388,1.2207030057907104,100.0,187012.0,1.0
15:39:47.995336,197830.921875,182255.15625,230177.65625,210262.15625,199640.34375,177468.65625,686139.9375,199767.296875,0.093017578125,0.973876953125,-0.258544921875,-1.3427733182907104,-0.1831054538488388,1.1291502714157104,100.0,187013.0,1.0
15:39:47.997710,197830.03125,182256.21875,230177.921875,210253.03125,199638.015625,177477.859375,686115.8125,199757.640625,0.092529296875,0.972900390625,-0.260498046875,-1.3122557401657104,0.0,1.1901854276657104,100.0,187014.0,1.0
15:39:48.000840,197827.34375,182246.125,230171.03125,210255.53125,199630.140625,177446.65625,686104.6875,199765.0625,0.091796875,0.9736328125,-0.262451171875,-1.2817381620407104,-0.03051757626235485,1.1291502714157104,100.0,187015.0,1.0
15:39:48.000872,197826.265625,182242.90625,230165.046875,210254.640625,199625.765625,177428.328125,686110.4375,199764.875,0.087646484375,0.97509765625,-0.2587890625,-1.2817381620407104,0.0610351525247097,1.0681151151657104,100.0,187016.0,1.0
15:39:48.002741,197823.046875,182245.671875,230167.375,210249.1875,199630.953125,177455.15625,686125.125,199758.265625,0.087158203125,0.97509765625,-0.26220703125,-1.3732908964157104,0.0,1.0070799589157104,100.0,187017.0,1.0
15:39:48.005217,197815.265625,182241.65625,230161.5625,210235.6875,199623.078125,177463.65625,686098.375,199741.28125,0.085693359375,0.9755859375,-0.261474609375,-1.2817381620407104,-0.03051757626235485,1.0070799589157104,100.0,187018.0,1.0
15:39:48.007728,197810.171875,182232.34375,230150.828125,210231.046875,199611.09375,177434.234375,686094.3125,199739.40625,0.086181640625,0.975830078125,-0.260498046875,-1.3427733182907104,0.0610351525247097,0.8239745497703552,100.0,187019.0,1.0
15:39:48.010233,197807.3125,182228.5,230143.9375,210229.703125,199602.15625,177410.90625,686087.625,199738.859375,0.088623046875,0.974365234375,-0.260009765625,-1.3427733182907104,0.03051757626235485,0.7934569716453552,100.0,187020.0,1.0
15:39:48.017161,197805.796875,182232.796875,230146.890625,210224.609375,199605.015625,177433.703125,686141.25,199729.65625,0.08837890625,0.975341796875,-0.2626953125,-1.4953612089157104,0.0610351525247097,0.7934569716453552,100.0,187021.0,1.0
15:39:48.017170,197807.21875,182235.484375,230152.890625,210220.046875,199610.390625,177457.75,686121.9375,199723.9375,0.08837890625,0.97509765625,-0.263671875,-1.3732908964157104,-0.1525878757238388,0.8544921278953552,100.0,187022.0,1.0
15:39:48.023469,197809.1875,182235.75,230150.375,210219.78125,199606.625,177441.921875,686118.0625,199726.53125,0.088623046875,0.97509765625,-0.262939453125,-1.4953612089157104,-0.1220703050494194,0.8544921278953552,100.0,187023.0,1.0
15:39:48.023482,197803.5625,182225.46875,230141.53125,210229.25,199598.9375,177410.90625,686115.5,199733.5,0.08984375,0.976318359375,-0.26220703125,-1.4648436307907104,-0.2746581733226776,0.8239745497703552,100.0,187024.0,1.0
15:39:48.030852,197812.765625,182238.875,230151.359375,210243.296875,199611.1875,177434.6875,686149.9375,199739.3125,0.09033203125,0.97607421875,-0.26416015625,-1.5258787870407104,-0.2136230319738388,0.7019042372703552,100.0,187025.0,1.0
15:39:48.030862,197816.796875,182243.890625,230165.125,210249.375,199622.359375,177464.90625,686111.4375,199740.65625,0.09130859375,0.978515625,-0.26318359375,-1.5258787870407104,-0.2136230319738388,0.7324218153953552,100.0,187026.0,1.0
15:39:48.040812,197817.15625,182242.984375,230163.875,210247.046875,199617.453125,177452.296875,686113.9375,199740.03125,0.090087890625,0.978515625,-0.26123046875,-1.5869139432907104,-0.1525878757238388,0.7324218153953552,100.0,187027.0,1.0
15:39:48.040822,197812.671875,182233.78125,230155.75,210253.390625,199611.546875,177418.859375,686118.0625,199751.015625,0.087646484375,0.976806640625,-0.2626953125,-1.6479490995407104,-0.1220703050494194,0.4272460639476776,100.0,187028.0,1.0
15:39:48.047164,197816.609375,182239.234375,230159.671875,210254.46875,199617.890625,177430.921875,686148.3125,199752.28125,0.0849609375,0.97607421875,-0.26123046875,-1.7395018339157104,-0.03051757626235485,0.3356933295726776,100.0,187029.0,1.0
15:39:48.047180,197815.890625,182242.09375,230165.21875,210251.34375,199626.484375,177460.703125,686122.3125,199747.984375,0.0869140625,0.977294921875,-0.25830078125,-1.8920897245407104,-0.0915527269244194,0.1831054538488388,100.0,187030.0,1.0
15:39:48.050942,197817.953125,182245.671875,230162.453125,210243.734375,199621.921875,177455.78125,686112.6875,199744.40625,0.086669921875,0.97900390625,-0.26171875,-1.9226073026657104,-0.1831054538488388,0.2136230319738388,100.0,187031.0,1.0
15:39:48.050961,197818.40625,182242.546875,230156.90625,210251.0625,199617.890625,177428.515625,686103.125,199756.390625,0.083984375,0.97900390625,-0.259521484375,-1.8920897245407104,-0.2441406100988388,0.0915527269244194,100.0,187032.0,1.0
15:39:48.065821,197822.25,182248.71875,230160.84375,210250.890625,199620.40625,177433.34375,686135.125,199755.671875,0.083251953125,0.977783203125,-0.258056640625,-1.8920897245407104,-0.2441406100988388,0.0610351525247097,100.0,187033.0,1.0
15:39:48.065836,197829.3125,182261.9375,230176.578125,210258.40625,199637.65625,177472.953125,686123.5625,199760.5,0.08251953125,0.9765625,-0.259033203125,-1.8920897245407104,-0.3356933295726776,0.0610351525247097,100.0,187034.0,1.0
15:39:48.067727,197838.078125,182271.421875,230183.546875,210259.296875,199641.671875,177484.125,686116.5,199761.390625,0.085205078125,0.978515625,-0.26025390625,-2.014159917831421,-0.4882812201976776,0.0610351525247097,100.0,187035.0,1.0
15:39:48.070234,197834.765625,182262.21875,230176.3125,210263.046875,199634.53125,177452.75,686103.625,199771.5,0.086181640625,0.976806640625,-0.25634765625,-2.044677495956421,-0.5187987685203552,0.1525878757238388,100.0,187036.0,1.0
15:39:48.074127,197828.953125,182255.234375,230170.765625,210257.328125,199627.375,177439.25,686118.5,199766.9375,0.087890625,0.974609375,-0.256103515625,-2.075195074081421,-0.5187987685203552,0.03051757626235485,100.0,187037.0,1.0
15:39:48.084712,197830.203125,182261.859375,230177.828125,210258.046875,199639.4375,177474.46875,686139.6875,199765.6875,0.089111328125,0.973388671875,-0.257080078125,-2.197265386581421,-0.6408690810203552,0.1220703050494194,100.0,187038.0,1.0
15:39:48.084767,197826.53125,182260.515625,230172.734375,210246.859375,199635.6875,177482.421875,686122.25,199753.4375,0.090087890625,0.974609375,-0.25537109375,-2.136230230331421,-0.6713866591453552,0.2136230319738388,100.0,187039.0,1.0
15:39:48.087170,197822.421875,182252.828125,230161.640625,210246.859375,199625.40625,177453.015625,686117.75,199757.8125,0.089111328125,0.9736328125,-0.254638671875,-2.166747808456421,-0.5798339247703552,0.3051757514476776,100.0,187040.0,1.0
15:39:48.087177,197820.71875,182249.34375,230154.21875,210245.875,199618.171875,177436.734375,686117.0625,199757.546875,0.091064453125,0.97412109375,-0.259033203125,-2.105712652206421,-0.4272460639476776,0.3051757514476776,100.0,187041.0,1.0
15:39:48.094150,197816.796875,182244.328125,230154.40625,210240.703125,199620.484375,177455.328125,686134.1875,199748.4375,0.090576171875,0.973876953125,-0.255859375,-2.166747808456421,-0.4272460639476776,0.4882812201976776,100.0,187042.0,1.0
15:39:48.102215,197812.859375,182243.96875,230153.953125,210230.140625,199616.640625,177468.203125,686112.25,199736.53125,0.09033203125,0.97265625,-0.258544921875,-2.166747808456421,-0.4272460639476776,0.6103515028953552,100.0,187043.0,1.0
15:39:48.102223,197809.375,182239.5,230145.015625,210227.28125,199606.71875,177443.265625,686109.0,199737.515625,0.090576171875,0.97412109375,-0.260986328125,-2.197265386581421,-0.3356933295726776,0.6408690810203552,100.0,187044.0,1.0
15:39:48.104184,197810.359375,182237.453125,230142.609375,210234.625,199601.984375,177420.46875,686109.5625,199744.671875,0.091552734375,0.974609375,-0.2587890625,-2.197265386581421,-0.2441406100988388,0.7934569716453552,100.0,187045.0,1.0
15:39:48.111887,197814.828125,182240.390625,230149.484375,210242.671875,199610.75,177443.625,686139.875,199743.78125,0.08935546875,0.97314453125,-0.2568359375,-2.227782964706421,-0.2746581733226776,1.0070799589157104,100.0,187046.0,1.0
15:39:48.127151,197814.734375,182244.421875,230154.140625,210241.859375,199614.765625,177468.203125,686106.25,199735.90625,0.08935546875,0.974609375,-0.258056640625,-2.197265386581421,-0.2136230319738388,0.9765624403953552,100.0,187047.0,1.0
15:39:48.127220,197812.328125,182239.234375,230147.875,210237.75,199607.875,177448.625,686109.4375,199736.890625,0.09033203125,0.97509765625,-0.255615234375,-2.166747808456421,-0.1220703050494194,1.0681151151657104,100.0,187048.0,1.0
15:39:48.130230,197810.984375,182232.96875,230145.28125,210247.578125,199604.390625,177423.15625,686116.6875,199748.875,0.088623046875,0.97412109375,-0.255859375,-2.258300542831421,-0.0915527269244194,1.0681151151657104,100.0,187049.0,1.0
15:39:48.130291,197816.4375,182240.75,230153.59375,210247.9375,199614.3125,177443.53125,686152.4375,199751.109375,0.087158203125,0.975341796875,-0.255126953125,-2.288818120956421,-0.0915527269244194,1.0681151151657104,100.0,187050.0,1.0
15:39:48.130321,197819.75,182249.78125,230163.875,210246.953125,199626.65625,177476.171875,686128.875,199750.21875,0.086181640625,0.975341796875,-0.25390625,-2.258300542831421,-0.1525878757238388,1.0986326932907104,100.0,187051.0,1.0
15:39:48.132798,197821.265625,182249.703125,230159.765625,210241.765625,199621.390625,177463.375,686124.1875,199747.71875,0.0888671875,0.9755859375,-0.25390625,-2.197265386581421,-0.1525878757238388,1.0986326932907104,100.0,187052.0,1.0
15:39:48.135324,197815.453125,182238.78125,230151.359375,210248.203125,199614.3125,177426.640625,686110.3125,199756.75,0.08642578125,0.974365234375,-0.255126953125,-2.166747808456421,-0.0915527269244194,1.0375975370407104,100.0,187053.0,1.0
15:39:48.142793,197816.4375,182242.453125,230152.4375,210246.953125,199615.484375,177431.640625,686139.25,199754.0625,0.089111328125,0.975830078125,-0.255126953125,-2.105712652206421,-0.2136230319738388,1.0681151151657104,100.0,187054.0,1.0
15:39:48.147121,197821.171875,182252.640625,230165.84375,210251.96875,199628.0,177467.578125,686112.5,199754.78125,0.088623046875,0.97509765625,-0.257568359375,-2.105712652206421,-0.1831054538488388,1.0070799589157104,100.0,187055.0,1.0
15:39:48.147189,197823.5,182256.9375,230165.484375,210246.15625,199625.3125,177465.53125,686109.0,199750.125,0.087646484375,0.973388671875,-0.256103515625,-2.105712652206421,-0.2136230319738388,0.9155272841453552,100.0,187056.0,1.0
15:39:48.154293,197819.296875,182246.390625,230157.625,210252.140625,199620.046875,177432.71875,686108.5625,199760.953125,0.0888671875,0.972412109375,-0.25634765625,-2.044677495956421,-0.0915527269244194,0.8850097060203552,100.0,187057.0,1.0
15:39:48.162153,197820.1875,182244.875,230157.4375,210250.890625,199620.671875,177429.40625,686138.0,199759.96875,0.0908203125,0.97314453125,-0.25634765625,-1.9531248807907104,-0.1831054538488388,0.9460448622703552,100.0,187058.0,1.0
15:39:48.162197,197821.53125,182252.015625,230165.484375,210252.671875,199631.578125,177463.828125,686130.1875,199758.359375,0.091064453125,0.9716796875,-0.25439453125,-1.9226073026657104,-0.1220703050494194,0.8239745497703552,100.0,187059.0,1.0
15:39:48.164434,197821.359375,182252.828125,230164.59375,210244.625,199627.734375,177466.328125,686107.75,199749.765625,0.0927734375,0.9716796875,-0.258544921875,-1.8615721464157104,-0.1525878757238388,0.8239745497703552,100.0,187060.0,1.0
15:39:48.177074,197820.1875,182247.109375,230159.765625,210248.921875,199621.5625,177437.453125,686097.0,199759.875,0.09228515625,0.971923828125,-0.256103515625,-1.8615721464157104,-0.1831054538488388,0.8239745497703552,100.0,187061.0,1.0
15:39:48.177098,197822.0625,182249.25,230158.421875,210249.1875,199620.578125,177432.265625,686116.625,199759.875,0.091064453125,0.9716796875,-0.259521484375,-1.8005369901657104,-0.1220703050494194,0.8239745497703552,100.0,187062.0,1.0
