Timestamp,Fz,FC3,FCz,FC4,Cz,C3,C4
12:01:32.807555,201987.984375,196915.5625,232717.515625,217632.953125,229649.4375,177270.890625,-705675.5625,183025.5625,-0.0078125,0.995361328125,-0.211669921875,-1.8005369901657104,0.4577636420726776,0.4577636420726776,93.33334350585938,56299.0,1.0
12:01:32.807566,201970.46875,196901.09375,232703.671875,217631.53125,229605.796875,177251.671875,-705677.125,183017.078125,-0.008544921875,0.993896484375,-0.21240234375,-1.8615721464157104,0.3051757514476776,0.5798339247703552,93.33334350585938,56300.0,1.0
12:01:32.810023,201979.40625,196914.40625,232705.0,217632.6875,229612.15625,177263.203125,-705678.25,183014.484375,-0.0087890625,0.993896484375,-0.2119140625,-1.8920897245407104,0.3051757514476776,0.6713866591453552,93.33334350585938,56301.0,1.0
12:01:32.810039,201997.46875,196926.828125,232716.890625,217636.265625,229651.9375,177280.09375,-705667.75,183024.40625,-0.009033203125,0.994873046875,-0.21240234375,-1.9531248807907104,0.1831054538488388,0.8239745497703552,93.33334350585938,56302.0,1.0
12:01:32.825693,201991.390625,196917.71875,232719.046875,217636.078125,229654.890625,177272.3125,-705668.6875,183027.0,-0.00927734375,0.993408203125,-0.212890625,-1.9836424589157104,0.1831054538488388,0.8239745497703552,93.33334350585938,56303.0,1.0
12:01:32.831936,201971.171875,196899.921875,232705.0,217633.578125,229610.359375,177250.765625,-705673.9375,183019.84375,-0.010986328125,0.99365234375,-0.213134765625,-2.075195074081421,0.0610351525247097,0.8850097060203552,93.33334350585938,56304.0,1.0
12:01:32.831946,201975.640625,196909.9375,232703.84375,217633.140625,229605.0,177258.015625,-705678.3125,183015.640625,-0.01220703125,0.99267578125,-0.210693359375,-2.166747808456421,-0.0610351525247097,0.8544921278953552,93.33334350585938,56305.0,1.0
12:01:32.831948,202000.5,196928.09375,232719.84375,217639.390625,229646.484375,177278.21875,-705676.6875,183025.921875,-0.0107421875,0.9921875,-0.21337890625,-2.197265386581421,-0.1525878757238388,0.9460448622703552,93.33334350585938,56306.0,1.0
12:01:32.833191,201999.96875,196925.9375,232725.21875,217637.6875,229659.984375,177277.5,-705677.75,183024.671875,-0.01025390625,0.992919921875,-0.2099609375,-2.227782964706421,-0.2746581733226776,1.0681151151657104,93.33334350585938,56307.0,1.0
12:01:32.836985,201979.3125,196907.25,232712.875,217635.640625,229619.390625,177255.953125,-705673.5625,183019.84375,-0.0068359375,0.98974609375,-0.210693359375,-2.288818120956421,-0.3356933295726776,1.0375975370407104,93.33334350585938,56308.0,1.0
12:01:32.846969,201975.015625,196908.859375,232704.828125,217632.15625,229603.65625,177257.03125,-705667.375,183014.125,-0.006591796875,0.9921875,-0.2119140625,-2.197265386581421,-0.4577636420726776,1.0986326932907104,93.33334350585938,56309.0,1.0
12:01:32.851271,201997.109375,196926.125,232716.265625,217636.53125,229640.84375,177275.71875,-705662.875,183020.203125,-0.004150390625,0.991455078125,-0.2119140625,-2.227782964706421,-0.5798339247703552,1.1901854276657104,93.33334350585938,56310.0,1.0
12:01:32.851291,202001.9375,196927.90625,232723.25,217635.015625,229663.203125,177277.953125,-705661.25,183023.15625,-0.00244140625,0.990478515625,-0.21337890625,-2.197265386581421,-0.5493163466453552,1.1291502714157104,93.33334350585938,56311.0,1.0
12:01:32.854079,201978.15625,196903.953125,232709.75,217630.09375,229623.765625,177249.78125,-705672.0625,183015.828125,-0.001953125,0.98876953125,-0.21240234375,-2.197265386581421,-0.4882812201976776,1.3122557401657104,93.33334350585938,56312.0,1.0
12:01:32.854100,201971.265625,196902.609375,232700.09375,217626.515625,229597.84375,177247.109375,-705673.375,183008.765625,0.000244140625,0.9873046875,-0.212646484375,-2.166747808456421,-0.4882812201976776,1.3427733182907104,93.33334350585938,56313.0,1.0
12:01:32.867208,201992.359375,196921.921875,232710.546875,217629.46875,229630.203125,177268.828125,-705667.3125,183016.359375,0.00146484375,0.98876953125,-0.213134765625,-2.105712652206421,-0.4577636420726776,1.4038084745407104,93.33334350585938,56314.0,1.0
12:01:32.870091,201998.359375,196925.21875,232718.234375,217628.21875,229658.015625,177275.1875,-705663.8125,183019.484375,0.00341796875,0.98828125,-0.21484375,-2.075195074081421,-0.3356933295726776,1.4343260526657104,93.33334350585938,56315.0,1.0
12:01:32.870162,201979.84375,196907.703125,232708.765625,217626.78125,229629.40625,177256.9375,-705674.1875,183015.640625,0.004150390625,0.987060546875,-0.216552734375,-2.044677495956421,-0.2136230319738388,1.4038084745407104,93.33334350585938,56316.0,1.0
12:01:32.881575,201969.03125,196903.671875,232698.484375,217625.625,229597.75,177251.046875,-705680.125,183010.1875,0.006591796875,0.985595703125,-0.215087890625,-1.8615721464157104,-0.1525878757238388,1.4343260526657104,93.33334350585938,56317.0,1.0
12:01:32.881653,201990.84375,196925.21875,232710.734375,217634.296875,229627.796875,177273.390625,-705670.875,183019.765625,0.007080078125,0.985107421875,-0.21533203125,-1.7089842557907104,-0.0915527269244194,1.3427733182907104,93.33334350585938,56318.0,1.0
12:01:32.885779,202005.15625,196933.453125,232721.8125,217636.078125,229663.65625,177284.03125,-705669.125,183027.265625,0.006591796875,0.98388671875,-0.2138671875,-1.6784666776657104,-0.0915527269244194,1.4953612089157104,93.33334350585938,56319.0,1.0
12:01:32.890024,201985.75,196913.609375,232712.78125,217630.28125,229640.671875,177263.296875,-705672.5625,183019.765625,0.005615234375,0.986328125,-0.21142578125,-1.5869139432907104,0.1831054538488388,1.4953612089157104,93.33334350585938,56320.0,1.0
12:01:32.890100,201967.59375,196900.734375,232697.3125,217624.015625,229597.390625,177248.09375,-705671.0,183009.03125,0.007080078125,0.98486328125,-0.210205078125,-1.4343260526657104,0.2441406100988388,1.3732908964157104,93.33334350585938,56321.0,1.0
12:01:32.895778,201981.28125,196914.859375,232702.328125,217625.265625,229612.515625,177263.921875,-705665.0625,183009.46875,0.005615234375,0.98388671875,-0.2099609375,-1.4038084745407104,0.3356933295726776,1.4343260526657104,93.33334350585938,56322.0,1.0
12:01:32.900619,201997.640625,196925.671875,232713.765625,217625.796875,229651.046875,177277.421875,-705667.125,183015.5625,0.003662109375,0.985107421875,-0.2099609375,-1.2512205839157104,0.4577636420726776,1.4038084745407104,93.33334350585938,56323.0,1.0
12:01:32.900699,201985.125,196910.921875,232709.203125,217622.40625,229641.296875,177262.484375,-705667.6875,183012.34375,0.003662109375,0.984619140625,-0.21142578125,-1.1596678495407104,0.6103515028953552,1.2512205839157104,93.33334350585938,56324.0,1.0
12:01:32.909564,201966.4375,196895.28125,232694.09375,217620.34375,229598.109375,177244.328125,-705667.5625,183005.90625,0.00341796875,0.984375,-0.212158203125,-1.0986326932907104,0.6408690810203552,1.2207030057907104,93.33334350585938,56325.0,1.0
12:01:32.915349,201973.140625,196906.1875,232693.828125,217619.28125,229602.3125,177255.421875,-705668.3125,183003.484375,0.002197265625,0.984130859375,-0.214599609375,-0.9765624403953552,0.6103515028953552,1.1901854276657104,93.33334350585938,56326.0,1.0
12:01:32.915417,201995.765625,196923.171875,232710.1875,217625.53125,229645.765625,177276.25,-705672.875,183016.0,0.002685546875,0.984130859375,-0.216796875,-0.9155272841453552,0.6408690810203552,1.0986326932907104,93.33334350585938,56327.0,1.0
12:01:32.916956,201989.953125,196915.5625,232712.6875,217626.609375,229649.796875,177269.375,-705665.625,183018.5,0.004150390625,0.983642578125,-0.21533203125,-0.7629393935203552,0.7629393935203552,0.9765624403953552,93.33334350585938,56328.0,1.0
12:01:32.932584,201964.203125,196891.875,232692.484375,217618.65625,229599.640625,177240.84375,-705661.75,183006.171875,0.005859375,0.987548828125,-0.2138671875,-0.6408690810203552,0.7324218153953552,0.7934569716453552,93.33334350585938,56329.0,1.0
12:01:32.932637,201968.3125,196901.796875,232688.5625,217617.21875,229594.09375,177248.09375,-705664.4375,183001.78125,0.005126953125,0.9892578125,-0.2138671875,-0.4882812201976776,0.7934569716453552,0.7934569716453552,93.33334350585938,56330.0,1.0
12:01:32.934997,201992.09375,196921.375,232703.125,217622.765625,229637.0,177271.6875,-705656.25,183014.578125,0.005615234375,0.98779296875,-0.21337890625,-0.5187987685203552,0.9155272841453552,0.7324218153953552,93.33334350585938,56331.0,1.0
12:01:32.935040,201991.65625,196917.09375,232707.234375,217620.4375,229649.171875,177269.453125,-705663.125,183016.359375,0.00390625,0.988037109375,-0.2138671875,-0.4272460639476776,0.8850097060203552,0.6103515028953552,93.33334350585938,56332.0,1.0
12:01:32.977772,201965.90625,196892.40625,232690.515625,217614.09375,229603.75,177241.296875,-705670.0625,183007.421875,0.001220703125,0.988525390625,-0.21728515625,-0.4272460639476776,1.0070799589157104,0.4882812201976776,93.33334350585938,56333.0,1.0
12:01:32.980217,201962.421875,196894.375,232684.53125,217614.265625,229588.1875,177243.171875,-705667.5,183004.375,0.00146484375,0.986328125,-0.218017578125,-0.3662109076976776,0.9155272841453552,0.6103515028953552,93.33334350585938,56334.0,1.0
12:01:32.980300,201983.515625,196911.09375,232696.25,217618.65625,229625.296875,177263.46875,-705662.9375,183012.78125,0.001953125,0.985107421875,-0.218017578125,-0.2136230319738388,0.9765624403953552,0.6103515028953552,93.33334350585938,56335.0,1.0
12:01:32.982718,201986.640625,196912.0,232702.5,217616.953125,229647.640625,177266.15625,-705660.6875,183015.734375,0.003662109375,0.987548828125,-0.21826171875,-0.1831054538488388,1.0681151151657104,0.5493163466453552,93.33334350585938,56336.0,1.0
12:01:32.989576,201967.78125,196892.5,232692.046875,217617.125,229612.421875,177243.890625,-705663.3125,183012.609375,0.004150390625,0.988525390625,-0.215576171875,-0.0915527269244194,1.0070799589157104,0.4882812201976776,93.33334350585938,56337.0,1.0
12:01:32.992071,201961.796875,196893.9375,232684.359375,217616.765625,229587.109375,177242.28125,-705673.5625,183006.796875,0.00146484375,0.9892578125,-0.21875,-0.0610351525247097,1.0070799589157104,0.3967284858226776,93.33334350585938,56338.0,1.0
12:01:32.994667,201984.5,196912.703125,232696.6875,217622.140625,229620.015625,177264.0,-705672.875,183014.390625,-0.00048828125,0.989990234375,-0.216796875,-0.0610351525247097,0.9765624403953552,0.3051757514476776,93.33334350585938,56339.0,1.0
12:01:32.997121,201994.25,196919.234375,232707.421875,217622.40625,229650.953125,177273.296875,-705664.125,183020.03125,-0.001953125,0.991943359375,-0.21875,-0.1220703050494194,0.9765624403953552,0.1831054538488388,93.33334350585938,56340.0,1.0
12:01:32.999539,201976.0,196901.796875,232698.65625,217621.0625,229623.421875,177252.828125,-705674.1875,183015.46875,-0.003173828125,0.991455078125,-0.217041015625,-0.0610351525247097,0.9765624403953552,0.1831054538488388,93.33334350585938,56341.0,1.0
12:01:33.002390,201964.65625,196893.9375,232687.296875,217620.53125,229589.4375,177243.984375,-705678.6875,183009.203125,-0.005126953125,0.9912109375,-0.217529296875,-0.03051757626235485,0.8239745497703552,0.1220703050494194,93.33334350585938,56342.0,1.0
12:01:33.004638,201982.796875,196910.5625,232694.71875,217624.28125,229613.3125,177262.84375,-705672.5625,183013.5,-0.005126953125,0.989501953125,-0.217041015625,0.0,0.7324218153953552,0.0915527269244194,93.33334350585938,56343.0,1.0
12:01:33.007056,201998.171875,196921.46875,232707.953125,217625.625,229649.703125,177275.8125,-705676.5,183021.546875,-0.0048828125,0.989013671875,-0.21826171875,0.0,0.6103515028953552,0.03051757626235485,93.33334350585938,56344.0,1.0
12:01:33.010317,201982.984375,196904.21875,232701.703125,217623.84375,229631.546875,177256.3125,-705676.5,183019.3125,-0.0068359375,0.987548828125,-0.21728515625,-0.0610351525247097,0.4882812201976776,0.0,93.33334350585938,56345.0,1.0
12:01:33.010365,201966.265625,196890.796875,232686.234375,217620.890625,229589.4375,177239.59375,-705677.625,183011.359375,-0.007568359375,0.99072265625,-0.21826171875,-0.03051757626235485,0.4272460639476776,-0.0915527269244194,93.33334350585938,56346.0,1.0
12:01:33.012083,201977.609375,196905.109375,232689.984375,217621.328125,229603.125,177254.890625,-705674.9375,183011.359375,-0.009033203125,0.988525390625,-0.22021484375,-0.03051757626235485,0.3051757514476776,-0.0610351525247097,93.33334350585938,56347.0,1.0
12:01:33.014442,201995.859375,196918.703125,232703.671875,217624.1875,229644.34375,177272.5,-705669.5625,183020.03125,-0.007080078125,0.98876953125,-0.22265625,0.0,0.1525878757238388,-0.03051757626235485,93.33334350585938,56348.0,1.0
12:01:33.016996,201987.1875,196908.5,232703.84375,217624.546875,229639.859375,177263.015625,-705672.125,183020.109375,-0.005859375,0.98828125,-0.218505859375,-0.03051757626235485,0.03051757626235485,-0.0610351525247097,93.33334350585938,56349.0,1.0
12:01:33.020013,201967.78125,196893.046875,232689.1875,217620.890625,229595.875,177244.0625,-705681.0625,183013.234375,-0.00341796875,0.99072265625,-0.2197265625,-0.0610351525247097,-0.03051757626235485,0.03051757626235485,93.33334350585938,56350.0,1.0
12:01:33.020076,201976.71875,196905.015625,232690.703125,217621.421875,229601.25,177257.296875,-705685.625,183011.53125,-0.00390625,0.99169921875,-0.2197265625,-0.0610351525247097,-0.0610351525247097,-0.03051757626235485,93.33334350585938,56351.0,1.0
12:01:33.021993,201999.96875,196920.125,232706.34375,217627.953125,229643.53125,177275.890625,-705681.0,183022.703125,-0.002685546875,0.990478515625,-0.220947265625,-0.0915527269244194,-0.1220703050494194,0.03051757626235485,93.33334350585938,56352.0,1.0
12:01:33.025033,201995.40625,196914.234375,232711.078125,217628.03125,229649.796875,177270.0,-705682.3125,183025.03125,-0.004638671875,0.993408203125,-0.2197265625,-0.2441406100988388,-0.2441406100988388,0.1220703050494194,93.33334350585938,56353.0,1.0
12:01:33.025091,201973.5,196893.390625,232696.875,217625.625,229605.71875,177245.3125,-705685.75,183019.125,-0.004150390625,0.990966796875,-0.22021484375,-0.3051757514476776,-0.3356933295726776,0.2746581733226776,93.33334350585938,56354.0,1.0
12:01:33.026992,201977.34375,196901.984375,232695.171875,217625.453125,229600.34375,177254.890625,-705679.8125,183015.828125,-0.00390625,0.9921875,-0.222412109375,-0.4272460639476776,-0.3051757514476776,0.2746581733226776,93.33334350585938,56355.0,1.0
12:01:33.037483,202001.125,196919.859375,232709.5625,217631.703125,229641.65625,177275.359375,-705670.375,183027.359375,-0.00146484375,0.989990234375,-0.224365234375,-0.4272460639476776,-0.2441406100988388,0.1525878757238388,93.33334350585938,56356.0,1.0
12:01:33.037497,201998.453125,196917.0,232713.046875,217628.84375,229655.515625,177272.140625,-705663.9375,183028.515625,-0.001708984375,0.992431640625,-0.2216796875,-0.4882812201976776,-0.3051757514476776,0.3967284858226776,93.33334350585938,56357.0,1.0
12:01:33.039555,201975.921875,196896.34375,232698.484375,217624.734375,229612.6875,177248.171875,-705673.125,183021.015625,-0.00146484375,0.991455078125,-0.221435546875,-0.5493163466453552,-0.3662109076976776,0.5187987685203552,93.33334350585938,56358.0,1.0
12:01:33.047075,201974.484375,196900.546875,232692.671875,217624.375,229597.9375,177252.828125,-705683.125,183016.984375,-0.00341796875,0.99267578125,-0.221435546875,-0.7019042372703552,-0.4272460639476776,0.5187987685203552,93.33334350585938,56359.0,1.0
12:01:33.055739,201995.765625,196919.859375,232705.09375,217628.125,229636.109375,177274.640625,-705676.6875,183024.046875,-0.002197265625,0.99365234375,-0.220947265625,-0.7934569716453552,-0.5187987685203552,0.6103515028953552,93.33334350585938,56360.0,1.0
12:01:33.055776,202002.375,196924.953125,232715.109375,217628.03125,229660.703125,177282.15625,-705666.625,183027.890625,-0.001953125,0.991943359375,-0.2216796875,-0.7934569716453552,-0.4577636420726776,0.6713866591453552,93.33334350585938,56361.0,1.0
12:01:33.055786,201979.671875,196902.875,232700.984375,217621.875,229621.09375,177255.25,-705666.4375,183017.515625,-0.003662109375,0.99267578125,-0.220703125,-0.9155272841453552,-0.5187987685203552,0.6713866591453552,93.33334350585938,56362.0,1.0
12:01:33.058806,201972.96875,196903.328125,232693.390625,217620.703125,229595.609375,177252.296875,-705669.125,183011.984375,-0.003173828125,0.9951171875,-0.218505859375,-1.0070799589157104,-0.5187987685203552,0.6103515028953552,93.33334350585938,56363.0,1.0
12:01:33.058823,201991.46875,196920.9375,232703.21875,217624.109375,229626.09375,177270.359375,-705670.1875,183017.96875,-0.001220703125,0.99072265625,-0.22119140625,-1.0986326932907104,-0.5493163466453552,0.6713866591453552,93.33334350585938,56364.0,1.0
12:01:33.068359,202000.40625,196924.421875,232710.90625,217622.234375,229655.15625,177277.421875,-705668.8125,183021.375,0.0009765625,0.991455078125,-0.22216796875,-1.1901854276657104,-0.5493163466453552,0.7324218153953552,93.33334350585938,56365.0,1.0
12:01:33.078915,201980.125,196901.359375,232699.734375,217618.46875,229626.015625,177253.1875,-705676.0,183014.84375,-0.00048828125,0.9912109375,-0.220947265625,-1.3122557401657104,-0.5187987685203552,0.7629393935203552,93.33334350585938,56366.0,1.0
12:01:33.078987,201967.953125,196895.0,232688.203125,217614.1875,229591.3125,177244.6875,-705682.4375,183006.34375,-0.001220703125,0.9921875,-0.222412109375,-1.4648436307907104,-0.4882812201976776,0.7019042372703552,93.33334350585938,56367.0,1.0
12:01:33.081465,201986.375,196913.15625,232695.171875,217614.625,229614.65625,177264.546875,-705680.75,183008.3125,-0.000732421875,0.990478515625,-0.2197265625,-1.5869139432907104,-0.4272460639476776,0.8239745497703552,93.33334350585938,56368.0,1.0
12:01:33.081537,202001.75,196925.40625,232708.9375,217617.578125,229652.921875,177277.328125,-705681.5,183015.46875,-0.001708984375,0.99169921875,-0.220947265625,-1.5563963651657104,-0.4272460639476776,0.7629393935203552,93.33334350585938,56369.0,1.0
12:01:33.087171,201989.140625,196911.453125,232707.859375,217618.921875,229640.046875,177262.9375,-705680.625,183015.90625,0.0009765625,0.991455078125,-0.2197265625,-1.6479490995407104,-0.3967284858226776,0.7934569716453552,93.33334350585938,56370.0,1.0
12:01:33.095619,201976.453125,196903.234375,232698.484375,217619.546875,229602.578125,177253.546875,-705679.5,183013.046875,0.0029296875,0.9912109375,-0.222900390625,-1.6174315214157104,-0.4272460639476776,0.8544921278953552,93.33334350585938,56371.0,1.0
12:01:33.095697,201991.46875,196922.71875,232705.453125,217624.734375,229617.96875,177272.671875,-705674.4375,183017.703125,0.002197265625,0.989990234375,-0.2216796875,-1.7395018339157104,-0.3967284858226776,0.7324218153953552,93.33334350585938,56372.0,1.0
12:01:33.102068,202012.390625,196937.03125,232721.09375,217630.09375,229661.140625,177289.84375,-705672.6875,183029.328125,0.002685546875,0.9892578125,-0.223388671875,-1.7700194120407104,-0.2746581733226776,0.8544921278953552,93.33334350585938,56373.0,1.0
12:01:33.106981,202004.078125,196927.8125,232722.4375,217630.359375,229658.28125,177279.109375,-705674.9375,183030.484375,0.004638671875,0.990478515625,-0.22265625,-1.8615721464157104,-0.2441406100988388,0.7629393935203552,93.33334350585938,56374.0,1.0
12:01:33.107064,201984.140625,196911.375,232707.421875,217627.328125,229612.953125,177259.53125,-705676.25,183022.703125,0.00537109375,0.991455078125,-0.22021484375,-1.9531248807907104,-0.0915527269244194,0.7934569716453552,93.33334350585938,56375.0,1.0
12:01:33.117104,201988.609375,196919.421875,232705.09375,217626.78125,229614.03125,177269.453125,-705676.4375,183020.921875,0.00390625,0.99365234375,-0.22021484375,-2.044677495956421,-0.0915527269244194,0.7324218153953552,93.33334350585938,56376.0,1.0
12:01:33.117130,202007.65625,196933.453125,232716.890625,217630.28125,229654.796875,177285.546875,-705669.8125,183031.296875,0.00341796875,0.9921875,-0.216796875,-2.044677495956421,0.03051757626235485,0.7324218153953552,93.33334350585938,56377.0,1.0
12:01:33.118170,202006.5,196929.609375,232721.8125,217630.8125,229664.09375,177283.234375,-705672.5,183033.4375,0.002197265625,0.993896484375,-0.218994140625,-2.105712652206421,0.1220703050494194,0.7324218153953552,93.33334350585938,56378.0,1.0
12:01:33.126283,201987.359375,196911.09375,232709.296875,217629.46875,229620.90625,177263.375,-705675.5625,183026.828125,0.00341796875,0.9921875,-0.216552734375,-2.136230230331421,0.1831054538488388,0.6408690810203552,93.33334350585938,56379.0,1.0
12:01:33.126297,201988.34375,196916.546875,232704.734375,217628.484375,229612.15625,177267.84375,-705668.75,183022.53125,0.002685546875,0.992431640625,-0.215576171875,-2.227782964706421,0.3051757514476776,0.6408690810203552,93.33334350585938,56380.0,1.0
12:01:33.136270,202010.15625,196932.921875,232717.34375,217635.1875,229651.046875,177287.15625,-705666.9375,183032.984375,0.0048828125,0.99267578125,-0.21875,-2.349853277206421,0.3662109076976776,0.6103515028953552,93.33334350585938,56381.0,1.0
12:01:33.136287,202010.515625,196929.15625,232722.078125,217634.390625,229664.90625,177284.5625,-705666.6875,183034.953125,0.003173828125,0.99267578125,-0.215087890625,-2.410888433456421,0.2441406100988388,0.4882812201976776,93.33334350585938,56382.0,1.0
12:01:33.139997,201987.1875,196904.03125,232705.1875,217629.296875,229618.3125,177255.953125,-705671.0625,183024.859375,0.00048828125,0.991943359375,-0.215087890625,-2.502441167831421,0.3051757514476776,0.4272460639476776,93.33334350585938,56383.0,1.0
12:01:33.140011,201981.640625,196905.734375,232695.171875,217624.8125,229597.21875,177256.578125,-705678.0625,183017.078125,-0.00048828125,0.990234375,-0.214599609375,-2.471923589706421,0.3356933295726776,0.4272460639476776,93.33334350585938,56384.0,1.0
12:01:33.145673,202000.234375,196921.828125,232703.75,217626.421875,229631.015625,177275.625,-705667.0625,183022.890625,0.000244140625,0.991455078125,-0.212890625,-2.563476324081421,0.2746581733226776,0.4577636420726776,93.33334350585938,56385.0,1.0
12:01:33.153759,202005.15625,196924.15625,232711.984375,217626.703125,229655.953125,177279.375,-705667.125,183026.734375,0.00048828125,0.991455078125,-0.213134765625,-2.593993902206421,0.3662109076976776,0.4272460639476776,93.33334350585938,56386.0,1.0
12:01:33.153768,201987.0,196905.90625,232702.953125,217625.796875,229621.625,177256.765625,-705663.9375,183021.71875,-0.000732421875,0.991943359375,-0.213623046875,-2.685546636581421,0.2746581733226776,0.4882812201976776,93.33334350585938,56387.0,1.0
12:01:33.159435,201979.046875,196906.453125,232694.015625,217624.46875,229593.90625,177255.15625,-705666.875,183015.28125,-0.003173828125,0.991455078125,-0.2158203125,-2.685546636581421,0.3662109076976776,0.4882812201976776,93.33334350585938,56388.0,1.0
12:01:33.163750,201998.171875,196924.6875,232703.046875,217627.40625,229624.75,177276.15625,-705666.125,183021.09375,-0.002197265625,0.990478515625,-0.21533203125,-2.746581792831421,0.3662109076976776,0.4577636420726776,93.33334350585938,56389.0,1.0
12:01:33.163764,202011.5,196936.671875,232715.375,217629.015625,229659.0,177290.203125,-705666.0,183029.40625,-0.001708984375,0.9912109375,-0.2158203125,-2.868652105331421,0.3967284858226776,0.4272460639476776,93.33334350585938,56390.0,1.0
12:01:33.169451,201990.3125,196914.5,232702.5,217621.6875,229628.25,177267.3125,-705666.875,183020.921875,-0.00341796875,0.990234375,-0.214111328125,-2.929687261581421,0.3967284858226776,0.5187987685203552,93.33334350585938,56391.0,1.0
12:01:33.195683,201976.09375,196907.4375,232689.71875,217616.859375,229592.921875,177259.890625,-705662.5,183012.96875,-0.00341796875,0.99169921875,-0.2138671875,-2.868652105331421,0.3356933295726776,0.4577636420726776,93.33334350585938,56392.0,1.0
12:01:33.195695,201993.96875,196926.75,232698.921875,217622.046875,229618.9375,177281.796875,-705653.8125,183019.046875,-0.00439453125,0.9921875,-0.21142578125,-2.899169683456421,0.3967284858226776,0.4272460639476776,93.33334350585938,56393.0,1.0
12:01:33.195696,202003.359375,196930.59375,232705.625,217618.203125,229650.59375,177287.875,-705656.4375,183020.828125,-0.003173828125,0.99169921875,-0.2119140625,-2.929687261581421,0.2441406100988388,0.3967284858226776,93.33334350585938,56394.0,1.0
12:01:33.198249,201972.703125,196896.53125,232682.921875,217600.59375,229617.0625,177251.9375,-705665.25,183003.84375,-0.004638671875,0.989990234375,-0.21435546875,-2.899169683456421,0.1831054538488388,0.3967284858226776,93.33334350585938,56395.0,1.0
12:01:33.205170,201947.390625,196875.421875,232660.921875,217591.03125,229568.34375,177228.234375,-705669.4375,182990.4375,-0.00390625,0.98779296875,-0.2119140625,-2.990722417831421,0.1831054538488388,0.5493163466453552,93.33334350585938,56396.0,1.0
12:01:33.205187,201958.65625,196888.125,232663.15625,217593.4375,229579.515625,177241.828125,-705668.6875,182991.234375,-0.00341796875,0.9892578125,-0.212646484375,-2.899169683456421,0.1220703050494194,0.6408690810203552,93.33334350585938,56397.0,1.0
12:01:33.205190,201973.59375,196896.96875,232673.0,217594.421875,229615.734375,177252.734375,-705672.4375,182997.765625,-0.0029296875,0.989501953125,-0.213134765625,-2.716064214706421,0.0915527269244194,0.6408690810203552,93.33334350585938,56398.0,1.0
12:01:33.205192,201962.59375,196885.171875,232670.859375,217592.8125,229609.640625,177238.796875,-705668.9375,182995.4375,-0.00244140625,0.98974609375,-0.21240234375,-2.746581792831421,0.0610351525247097,0.7019042372703552,93.33334350585938,56399.0,1.0
12:01:33.207715,201952.140625,196876.953125,232665.3125,217597.28125,229574.234375,177227.34375,-705672.25,182995.625,-0.0009765625,0.989013671875,-0.212890625,-2.685546636581421,0.03051757626235485,0.7324218153953552,93.33334350585938,56400.0,1.0
12:01:33.207764,201967.421875,196895.453125,232672.90625,217604.34375,229584.609375,177247.46875,-705669.375,183000.984375,-0.0009765625,0.98681640625,-0.2109375,-2.624511480331421,-0.0610351525247097,0.7934569716453552,93.33334350585938,56401.0,1.0
12:01:33.209668,201992.09375,196914.9375,232688.734375,217609.265625,229627.96875,177269.375,-705662.25,183013.046875,-0.002685546875,0.98876953125,-0.212890625,-2.471923589706421,-0.03051757626235485,0.8544921278953552,93.33334350585938,56402.0,1.0
12:01:33.237015,201989.6875,196911.375,232694.1875,217609.984375,229637.71875,177265.875,-705667.9375,183015.90625,-0.002685546875,0.986083984375,-0.212158203125,-2.380370855331421,-0.0610351525247097,1.0681151151657104,93.33334350585938,56403.0,1.0
12:01:33.240085,201969.65625,196893.9375,232680.515625,217607.5625,229594.984375,177245.046875,-705674.125,183008.578125,-0.001953125,0.986328125,-0.212646484375,-2.380370855331421,-0.1831054538488388,1.0070799589157104,93.33334350585938,56404.0,1.0
12:01:33.240099,201970.46875,196899.125,232676.125,217605.78125,229583.984375,177250.5,-705675.75,183001.96875,-0.001953125,0.987548828125,-0.210205078125,-2.227782964706421,-0.1831054538488388,1.0681151151657104,93.33334350585938,56405.0,1.0
12:01:33.251937,201990.125,196912.53125,232686.046875,217607.921875,229620.203125,177267.140625,-705667.75,183008.046875,-0.00244140625,0.988525390625,-0.20947265625,-2.166747808456421,-0.1831054538488388,1.1291502714157104,93.33334350585938,56406.0,1.0
12:01:33.254425,201992.90625,196913.15625,232693.203125,217609.078125,229638.96875,177269.1875,-705659.5625,183011.078125,-0.00146484375,0.98876953125,-0.21044921875,-2.075195074081421,-0.1831054538488388,1.1291502714157104,93.33334350585938,56407.0,1.0
12:01:33.256963,201970.015625,196890.359375,232678.984375,217606.140625,229597.671875,177243.4375,-705661.5,183002.953125,0.0,0.989501953125,-0.211669921875,-2.105712652206421,-0.2746581733226776,1.1901854276657104,93.33334350585938,56408.0,1.0
12:01:33.259434,201968.5,196894.5625,232675.328125,217606.140625,229581.578125,177246.578125,-705664.1875,182999.375,-0.000244140625,0.989501953125,-0.21044921875,-1.8920897245407104,-0.1525878757238388,1.2512205839157104,93.33334350585938,56409.0,1.0
12:01:33.262450,201993.890625,196916.546875,232692.21875,217614.890625,229620.90625,177269.375,-705663.625,183009.75,0.0,0.98974609375,-0.21435546875,-1.8005369901657104,-0.1831054538488388,1.3427733182907104,93.33334350585938,56410.0,1.0
12:01:33.264431,202001.125,196920.3125,232701.25,217615.15625,229646.65625,177275.53125,-705657.125,183014.390625,-0.000244140625,0.989501953125,-0.21435546875,-1.8005369901657104,-0.2746581733226776,1.4343260526657104,93.33334350585938,56411.0,1.0
12:01:33.266915,201981.28125,196899.484375,232691.328125,217613.734375,229612.6875,177253.0,-705661.125,183010.375,0.00244140625,0.986328125,-0.21044921875,-1.6784666776657104,-0.2136230319738388,1.2817381620407104,93.33334350585938,56412.0,1.0
12:01:33.269399,201974.125,196899.5625,232684.0,217615.4375,229588.015625,177251.671875,-705669.375,183007.6875,0.001708984375,0.985595703125,-0.2109375,-1.6174315214157104,-0.0915527269244194,1.2207030057907104,93.33334350585938,56413.0,1.0
12:01:33.271938,201995.859375,196919.234375,232695.53125,217622.5,229618.9375,177272.234375,-705666.5,183015.90625,0.001953125,0.9853515625,-0.211669921875,-1.6174315214157104,0.0,1.3427733182907104,93.33334350585938,56414.0,1.0
12:01:33.274465,202012.296875,196929.25,232710.8125,217627.859375,229654.0,177284.75,-705655.6875,183026.640625,0.005126953125,0.985107421875,-0.214111328125,-1.3427733182907104,-0.03051757626235485,1.2512205839157104,93.33334350585938,56415.0,1.0
12:01:33.277516,201997.015625,196911.546875,232705.0,217629.203125,229630.125,177266.78125,-705664.4375,183025.5625,0.007080078125,0.987060546875,-0.213623046875,-1.1291502714157104,0.0610351525247097,1.2512205839157104,93.33334350585938,56416.0,1.0
12:01:33.277524,201980.125,196899.921875,232687.578125,217622.578125,229589.4375,177251.671875,-705674.375,183013.5,0.008544921875,0.986572265625,-0.21435546875,-0.8850097060203552,0.0915527269244194,1.1596678495407104,93.33334350585938,56417.0,1.0
12:01:33.279435,201995.046875,196915.84375,232693.5625,217624.546875,229611.796875,177269.640625,-705679.375,183017.078125,0.008544921875,0.985107421875,-0.21435546875,-0.8544921278953552,0.3356933295726776,1.2207030057907104,93.33334350585938,56418.0,1.0
12:01:33.283759,202012.484375,196930.859375,232709.828125,217629.828125,229654.0,177288.59375,-705678.125,183028.4375,0.011962890625,0.986083984375,-0.214599609375,-0.7324218153953552,0.3967284858226776,1.3122557401657104,93.33334350585938,56419.0,1.0
12:01:33.283763,201996.125,196914.9375,232702.5,217625.171875,229637.1875,177271.25,-705677.6875,183023.515625,0.01025390625,0.983154296875,-0.2109375,-0.6408690810203552,0.5493163466453552,1.2817381620407104,93.33334350585938,56420.0,1.0
12:01:33.293182,201976.265625,196899.296875,232685.6875,217619.8125,229592.921875,177254.609375,-705687.6875,183015.5625,0.010986328125,0.981689453125,-0.213623046875,-0.4882812201976776,0.6408690810203552,1.1596678495407104,93.33334350585938,56421.0,1.0
12:01:33.297574,201986.640625,196911.453125,232686.671875,217620.34375,229603.75,177269.734375,-705688.125,183015.015625,0.00830078125,0.9833984375,-0.2158203125,-0.4272460639476776,0.7324218153953552,1.1291502714157104,93.33334350585938,56422.0,1.0
12:01:33.297582,202003.984375,196924.59375,232699.015625,217620.53125,229642.90625,177286.265625,-705680.875,183021.8125,0.007080078125,0.9853515625,-0.21484375,-0.2136230319738388,0.7629393935203552,0.9765624403953552,93.33334350585938,56423.0,1.0
12:01:33.322003,201989.6875,196910.921875,232694.546875,217614.625,229636.109375,177274.203125,-705678.5,183016.71875,0.006591796875,0.985595703125,-0.213623046875,-0.1220703050494194,0.8850097060203552,0.7629393935203552,93.33334350585938,56424.0,1.0
12:01:33.352506,201967.59375,196891.25,232677.734375,217610.78125,229589.34375,177252.203125,-705679.5625,183008.5,0.003662109375,0.986328125,-0.213623046875,-0.0915527269244194,0.8850097060203552,0.5493163466453552,93.33334350585938,56425.0,1.0
12:01:33.352535,201974.484375,196901.4375,232676.84375,217612.390625,229591.671875,177263.5625,-705676.0625,183007.234375,0.001953125,0.985595703125,-0.213623046875,-0.1220703050494194,0.9765624403953552,0.3356933295726776,93.33334350585938,56426.0,1.0
12:01:33.354428,201993.171875,196915.65625,232687.75,217613.734375,229630.5625,177278.40625,-705676.375,183013.765625,-0.002685546875,0.987548828125,-0.213623046875,-0.1525878757238388,0.8544921278953552,0.1525878757238388,93.33334350585938,56427.0,1.0
12:01:33.363196,201988.171875,196909.125,232691.140625,217611.140625,229638.890625,177273.125,-705677.6875,183015.28125,-0.00244140625,0.98828125,-0.213623046875,-0.2136230319738388,0.8239745497703552,-0.1220703050494194,93.33334350585938,56428.0,1.0
12:01:33.365675,201969.390625,196891.515625,232680.234375,217611.3125,229597.84375,177252.5625,-705675.4375,183011.984375,-0.00390625,0.990234375,-0.2119140625,-0.2441406100988388,0.7324218153953552,-0.3967284858226776,93.33334350585938,56429.0,1.0
12:01:33.368256,201973.328125,196900.375,232678.359375,217613.734375,229588.71875,177259.4375,-705678.3125,183009.03125,-0.005126953125,0.989990234375,-0.2119140625,-0.3662109076976776,0.6408690810203552,-0.7019042372703552,93.33334350585938,56430.0,1.0
12:01:33.370701,202001.484375,196920.84375,232696.25,217623.921875,229632.53125,177282.78125,-705672.4375,183022.796875,-0.002685546875,0.994140625,-0.2119140625,-0.3356933295726776,0.5187987685203552,-0.6713866591453552,93.33334350585938,56431.0,1.0
12:01:33.375663,202003.359375,196921.296875,232704.109375,217624.640625,229652.65625,177285.109375,-705672.875,183028.078125,0.0,0.9951171875,-0.213134765625,-0.3967284858226776,0.3356933295726776,-0.7629393935203552,93.33334350585938,56432.0,1.0
12:01:33.378144,201982.703125,196901.09375,232691.234375,217622.9375,229613.140625,177261.328125,-705667.5625,183022.171875,0.000732421875,0.995849609375,-0.214111328125,-0.5187987685203552,0.2746581733226776,-0.7324218153953552,93.33334350585938,56433.0,1.0
12:01:33.380699,201978.859375,196901.4375,232683.09375,217621.421875,229591.59375,177259.796875,-705665.8125,183016.71875,0.002685546875,0.998046875,-0.21484375,-0.6103515028953552,0.3051757514476776,-0.6713866591453552,93.33334350585938,56434.0,1.0
12:01:33.388201,201996.125,196914.765625,232690.25,217621.0625,229621.625,177275.53125,-705670.625,183020.921875,0.0029296875,0.997802734375,-0.21533203125,-0.6713866591453552,0.3356933295726776,-0.5187987685203552,93.33334350585938,56435.0,1.0
12:01:33.390741,202002.921875,196919.0625,232698.921875,217620.53125,229648.09375,177281.890625,-705671.5,183025.390625,0.003662109375,0.997802734375,-0.21435546875,-0.8850097060203552,0.3662109076976776,-0.4272460639476776,93.33334350585938,56436.0,1.0
12:01:33.396955,201984.046875,196898.578125,232688.109375,217618.03125,229613.9375,177258.375,-705663.75,183022.4375,0.00244140625,1.0,-0.214111328125,-0.9765624403953552,0.4882812201976776,-0.3967284858226776,93.33334350585938,56437.0,1.0
12:01:33.399578,201970.90625,196891.703125,232674.078125,217613.734375,229581.21875,177249.703125,-705661.6875,183014.84375,0.001708984375,0.997314453125,-0.2158203125,-1.1291502714157104,0.4882812201976776,-0.2441406100988388,93.33334350585938,56438.0,1.0
12:01:33.401972,201986.90625,196905.828125,232679.96875,217615.25,229608.03125,177267.578125,-705662.25,183017.25,-0.002197265625,0.996826171875,-0.214599609375,-1.2512205839157104,0.4882812201976776,0.0,93.33334350585938,56439.0,1.0
12:01:33.408310,201997.90625,196915.21875,232691.78125,217614.71875,229640.671875,177279.828125,-705666.4375,183020.203125,-0.002685546875,0.99609375,-0.216552734375,-1.3427733182907104,0.3967284858226776,-0.03051757626235485,93.33334350585938,56440.0,1.0
12:01:33.410660,201982.359375,196897.78125,232685.15625,217612.484375,229616.4375,177259.984375,-705667.5,183016.09375,-0.003173828125,0.99609375,-0.2158203125,-1.5258787870407104,0.3967284858226776,0.1220703050494194,93.33334350585938,56441.0,1.0
12:01:33.413881,201970.640625,196891.515625,232675.140625,217612.484375,229582.640625,177250.953125,-705671.625,183012.15625,-0.0068359375,0.994384765625,-0.2158203125,-1.6479490995407104,0.3967284858226776,0.2746581733226776,93.33334350585938,56442.0,1.0
12:01:33.413892,201986.734375,196908.6875,232682.125,217616.0625,229605.53125,177270.625,-705663.9375,183015.5625,-0.006591796875,0.991455078125,-0.216552734375,-1.6479490995407104,0.1831054538488388,0.4577636420726776,93.33334350585938,56443.0,1.0
12:01:33.415693,201999.96875,196916.90625,232690.796875,217615.609375,229640.3125,177281.34375,-705661.4375,183020.390625,-0.009521484375,0.99169921875,-0.214111328125,-1.7089842557907104,0.1525878757238388,0.5187987685203552,93.33334350585938,56444.0,1.0
12:01:33.418832,201985.390625,196902.875,232684.4375,217612.578125,229624.046875,177265.703125,-705663.75,183016.453125,-0.0107421875,0.99267578125,-0.211669921875,-1.8005369901657104,0.0610351525247097,0.5798339247703552,93.33334350585938,56445.0,1.0
12:01:33.418851,201968.40625,196888.125,232670.578125,217610.6875,229582.921875,177248.984375,-705670.8125,183010.640625,-0.011962890625,0.992919921875,-0.210205078125,-1.9531248807907104,-0.0915527269244194,0.6713866591453552,93.33334350585938,56446.0,1.0
12:01:33.420685,201979.046875,196898.21875,232676.21875,217614.453125,229598.828125,177263.203125,-705670.25,183014.65625,-0.0146484375,0.9931640625,-0.2119140625,-1.9836424589157104,-0.2746581733226776,0.7934569716453552,93.33334350585938,56447.0,1.0
12:01:33.423837,201998.71875,196916.203125,232690.25,217617.046875,229640.671875,177282.515625,-705666.75,183022.625,-0.01513671875,0.9921875,-0.213623046875,-2.136230230331421,-0.4882812201976776,0.9155272841453552,93.33334350585938,56448.0,1.0
12:01:33.423849,201994.0625,196913.515625,232691.328125,217614.984375,229638.609375,177276.4375,-705668.125,183021.453125,-0.013916015625,0.99365234375,-0.2119140625,-2.105712652206421,-0.6713866591453552,0.8544921278953552,93.33334350585938,56449.0,1.0
12:01:33.425757,201976.265625,196897.953125,232680.953125,217615.515625,229597.84375,177258.734375,-705672.6875,183018.859375,-0.013427734375,0.991943359375,-0.21240234375,-2.166747808456421,-0.8544921278953552,0.8850097060203552,93.33334350585938,56450.0,1.0
12:01:33.428174,201980.75,196906.1875,232680.59375,217615.078125,229598.828125,177267.140625,-705676.5,183016.546875,-0.00927734375,0.991943359375,-0.218017578125,-2.166747808456421,-0.9765624403953552,0.8544921278953552,93.33334350585938,56451.0,1.0
12:01:33.432001,202003.546875,196923.265625,232692.75,217617.578125,229639.421875,177287.34375,-705672.75,183024.765625,-0.006591796875,0.989990234375,-0.214599609375,-2.258300542831421,-1.1901854276657104,0.9155272841453552,93.33334350585938,56452.0,1.0
12:01:33.433766,202000.953125,196919.59375,232694.546875,217613.203125,229646.125,177283.671875,-705669.8125,183022.171875,-0.004638671875,0.990478515625,-0.21533203125,-2.227782964706421,-1.1291502714157104,0.8544921278953552,93.33334350585938,56453.0,1.0
12:01:33.433825,201978.78125,196900.90625,232680.15625,217609.078125,229601.421875,177259.0,-705665.1875,183013.765625,-0.002685546875,0.98974609375,-0.214111328125,-2.288818120956421,-1.2512205839157104,1.0070799589157104,93.33334350585938,56454.0,1.0
12:01:33.435713,201977.53125,196906.0,232676.3125,217608.1875,229590.953125,177264.1875,-705668.6875,183008.9375,-0.0009765625,0.988525390625,-0.21435546875,-2.258300542831421,-1.1901854276657104,1.0986326932907104,93.33334350585938,56455.0,1.0
12:01:33.438808,201999.25,196922.546875,232688.5625,217613.109375,229629.140625,177283.234375,-705670.25,183018.15625,0.001708984375,0.988037109375,-0.213134765625,-2.258300542831421,-1.0986326932907104,1.0986326932907104,93.33334350585938,56456.0,1.0
12:01:33.438883,202001.125,196922.0,232694.453125,217612.484375,229649.703125,177285.90625,-705670.0625,183021.8125,0.0029296875,0.988037109375,-0.21240234375,-2.197265386581421,-1.0986326932907104,1.0375975370407104,93.33334350585938,56457.0,1.0
12:01:33.440751,201975.5625,196898.046875,232678.71875,217606.21875,229607.328125,177259.625,-705664.0,183012.96875,0.00439453125,0.987548828125,-0.21337890625,-2.227782964706421,-1.1291502714157104,1.1596678495407104,93.33334350585938,56458.0,1.0
12:01:33.448809,201969.125,196897.515625,232669.875,217602.921875,229584.53125,177257.921875,-705665.5,183006.171875,0.006591796875,0.98681640625,-0.2119140625,-2.105712652206421,-1.0986326932907104,1.2817381620407104,93.33334350585938,56459.0,1.0
12:01:33.448886,201992.1875,196916.90625,232684.171875,217609.703125,229621.359375,177280.546875,-705664.25,183015.640625,0.008544921875,0.988037109375,-0.2099609375,-2.075195074081421,-0.8850097060203552,1.3732908964157104,93.33334350585938,56460.0,1.0
12:01:33.458835,202001.75,196923.171875,232695.34375,217611.5,229649.609375,177288.953125,-705660.5,183020.03125,0.008056640625,0.986083984375,-0.212646484375,-2.014159917831421,-0.7934569716453552,1.3732908964157104,93.33334350585938,56461.0,1.0
12:01:33.458926,201981.1875,196899.484375,232683.375,217607.75,229614.828125,177262.390625,-705660.875,183013.5,0.00830078125,0.9873046875,-0.21435546875,-1.8920897245407104,-0.5493163466453552,1.4648436307907104,93.33334350585938,56462.0,1.0
12:01:33.461402,201970.546875,196894.203125,232671.203125,217605.6875,229583.984375,177254.609375,-705674.5625,183006.609375,0.0078125,0.98583984375,-0.21533203125,-1.8310545682907104,-0.3967284858226776,1.4648436307907104,93.33334350585938,56463.0,1.0
12:01:33.461474,201989.953125,196911.8125,232679.96875,217608.640625,229611.96875,177274.375,-705672.5625,183011.71875,0.00927734375,0.986328125,-0.21435546875,-1.8005369901657104,-0.2746581733226776,1.4038084745407104,93.33334350585938,56464.0,1.0
12:01:33.471438,202003.0,196920.9375,232692.484375,217609.703125,229647.015625,177285.8125,-705663.9375,183018.59375,0.0078125,0.985595703125,-0.214111328125,-1.7089842557907104,-0.1525878757238388,1.4038084745407104,93.33334350585938,56465.0,1.0
12:01:33.471740,201987.71875,196905.109375,232687.125,217609.078125,229624.046875,177267.40625,-705661.75,183015.46875,0.007080078125,0.985107421875,-0.216796875,-1.6174315214157104,-0.1220703050494194,1.4038084745407104,93.33334350585938,56466.0,1.0
12:01:33.473839,201974.3125,196896.796875,232675.234375,217607.65625,229585.78125,177257.484375,-705665.375,183007.421875,0.007080078125,0.98583984375,-0.215087890625,-1.5258787870407104,0.0,1.3122557401657104,93.33334350585938,56467.0,1.0
12:01:33.473908,201990.125,196913.15625,232681.484375,217610.25,229605.53125,177275.8125,-705662.875,183009.65625,0.006591796875,0.98486328125,-0.212890625,-1.4038084745407104,0.2136230319738388,1.2512205839157104,93.33334350585938,56468.0,1.0
12:01:33.480766,202006.9375,196925.578125,232694.90625,217613.28125,229643.53125,177288.953125,-705668.0,183018.421875,0.005126953125,0.984619140625,-0.212890625,-1.3122557401657104,0.3051757514476776,1.2207030057907104,93.33334350585938,56469.0,1.0
12:01:33.491730,201990.75,196908.6875,232688.734375,217609.078125,229628.875,177271.0625,-705676.1875,183015.828125,0.00439453125,0.983642578125,-0.212890625,-1.3122557401657104,0.4577636420726776,1.0375975370407104,93.33334350585938,56470.0,1.0
12:01:33.491822,201975.203125,196898.21875,232675.6875,217607.65625,229587.828125,177256.40625,-705680.375,183010.8125,0.00634765625,0.98486328125,-0.21337890625,-1.0986326932907104,0.4577636420726776,0.9155272841453552,93.33334350585938,56471.0,1.0
12:01:33.493625,201987.453125,196913.328125,232678.984375,217610.0625,229598.109375,177271.96875,-705677.0625,183011.265625,0.006591796875,0.986328125,-0.215087890625,-1.0070799589157104,0.6103515028953552,0.8544921278953552,93.33334350585938,56472.0,1.0
12:01:33.500223,202006.9375,196928.359375,232692.578125,217614.625,229638.96875,177288.59375,-705661.0625,183020.390625,0.006591796875,0.98828125,-0.215087890625,-0.8850097060203552,0.6408690810203552,0.7324218153953552,93.33334350585938,56473.0,1.0
12:01:33.500313,201997.109375,196916.734375,232690.703125,217611.3125,229636.375,177276.078125,-705657.75,183016.984375,0.006103515625,0.988525390625,-0.213134765625,-0.8850097060203552,0.7019042372703552,0.7324218153953552,93.33334350585938,56474.0,1.0
12:01:33.510966,201977.25,196898.21875,232678.0,217610.15625,229592.921875,177254.609375,-705663.75,183009.65625,0.0048828125,0.990966796875,-0.215576171875,-0.8850097060203552,0.7629393935203552,0.6713866591453552,93.33334350585938,56475.0,1.0
12:01:33.515123,201981.8125,196907.703125,232676.03125,217610.15625,229591.671875,177265.53125,-705662.6875,183006.96875,0.005126953125,0.987548828125,-0.215087890625,-0.7934569716453552,0.9155272841453552,0.5187987685203552,93.33334350585938,56476.0,1.0
12:01:33.515218,202002.734375,196923.4375,232688.109375,217613.109375,229632.359375,177284.84375,-705660.1875,183016.8125,0.00439453125,0.987060546875,-0.2158203125,-0.7629393935203552,0.9460448622703552,0.3967284858226776,93.33334350585938,56477.0,1.0
12:01:33.518874,201997.640625,196917.8125,232689.359375,217609.53125,229640.3125,177280.71875,-705657.6875,183017.34375,0.004638671875,0.9873046875,-0.216552734375,-0.6713866591453552,1.0375975370407104,0.3356933295726776,93.33334350585938,56478.0,1.0
12:01:33.518962,201974.75,196895.71875,232672.734375,217606.21875,229595.515625,177256.9375,-705660.3125,183008.671875,0.00390625,0.986328125,-0.21826171875,-0.5798339247703552,1.0681151151657104,0.3356933295726776,93.33334350585938,56479.0,1.0
12:01:33.529505,201972.703125,196899.75,232666.375,217602.640625,229582.203125,177260.78125,-705663.8125,183001.875,0.005126953125,0.989990234375,-0.218017578125,-0.4577636420726776,1.1291502714157104,0.3662109076976776,93.33334350585938,56480.0,1.0
12:01:33.536263,201994.421875,196917.8125,232679.4375,217607.46875,229621.625,177281.4375,-705663.625,183010.8125,0.003662109375,0.989501953125,-0.214599609375,-0.4272460639476776,1.1596678495407104,0.2441406100988388,93.33334350585938,56481.0,1.0
12:01:33.536325,201997.28125,196917.0,232685.609375,217605.515625,229639.234375,177281.796875,-705656.3125,183011.71875,0.00341796875,0.98974609375,-0.216796875,-0.4272460639476776,1.1901854276657104,0.3662109076976776,93.33334350585938,56482.0,1.0
12:01:33.542644,201976.0,196893.9375,232669.515625,217600.859375,229596.5,177253.453125,-705657.6875,183003.578125,0.0029296875,0.990966796875,-0.216064453125,-0.3967284858226776,1.3122557401657104,0.3051757514476776,93.33334350585938,56483.0,1.0
12:01:33.542720,201969.484375,196892.953125,232660.296875,217596.5625,229573.96875,177253.1875,-705668.6875,182997.234375,0.000732421875,0.991943359375,-0.218017578125,-0.3967284858226776,1.2512205839157104,0.2746581733226776,93.33334350585938,56484.0,1.0
12:01:33.550560,201993.53125,196913.421875,232674.609375,217603.8125,229611.078125,177275.8125,-705662.875,183007.953125,-0.000732421875,0.99072265625,-0.22021484375,-0.3051757514476776,1.1901854276657104,0.2136230319738388,93.33334350585938,56485.0,1.0
12:01:33.550600,202001.9375,196918.703125,232685.15625,217606.84375,229640.40625,177282.25,-705652.8125,183015.203125,-0.001220703125,0.98876953125,-0.220458984375,-0.3051757514476776,1.1291502714157104,0.1220703050494194,93.33334350585938,56486.0,1.0
12:01:33.556375,201980.03125,196897.78125,232673.53125,217604.875,229608.21875,177258.734375,-705656.5625,183009.65625,-0.00390625,0.98974609375,-0.21875,-0.3662109076976776,1.0070799589157104,0.0610351525247097,93.33334350585938,56487.0,1.0
12:01:33.556456,201968.859375,196893.046875,232661.375,217602.828125,229577.28125,177253.1875,-705659.4375,183003.390625,-0.004150390625,0.988525390625,-0.21728515625,-0.2746581733226776,0.9155272841453552,0.0610351525247097,93.33334350585938,56488.0,1.0
12:01:33.565658,201988.703125,196909.3125,232670.765625,217605.859375,229604.734375,177271.15625,-705668.375,183009.46875,-0.005126953125,0.988525390625,-0.21435546875,-0.3051757514476776,0.7934569716453552,0.1220703050494194,93.33334350585938,56489.0,1.0
12:01:33.573146,202000.59375,196916.734375,232682.828125,217607.296875,229639.78125,177282.15625,-705668.5625,183016.1875,-0.005126953125,0.988037109375,-0.215087890625,-0.2746581733226776,0.7934569716453552,0.1831054538488388,93.33334350585938,56490.0,1.0
12:01:33.573175,201984.3125,196898.140625,232677.296875,217605.78125,229617.96875,177263.296875,-705664.1875,183012.609375,-0.005615234375,0.987548828125,-0.216552734375,-0.1525878757238388,0.6713866591453552,0.1831054538488388,93.33334350585938,56491.0,1.0
12:01:33.573186,201969.03125,196888.390625,232662.8125,217603.453125,229579.609375,177249.875,-705668.375,183005.71875,-0.0048828125,0.98876953125,-0.216552734375,-0.2746581733226776,0.5493163466453552,0.0610351525247097,93.33334350585938,56492.0,1.0
12:01:33.576949,201983.421875,196904.21875,232669.15625,217606.765625,229600.078125,177267.671875,-705666.625,183009.296875,-0.0048828125,0.9892578125,-0.21826171875,-0.1831054538488388,0.3662109076976776,0.1220703050494194,93.33334350585938,56493.0,1.0
12:01:33.580696,202001.21875,196918.34375,232683.375,217608.1875,229640.578125,177286.09375,-705663.0,183017.796875,-0.0048828125,0.9912109375,-0.21826171875,-0.3051757514476776,0.3051757514476776,0.2136230319738388,93.33334350585938,56494.0,1.0
12:01:33.586946,201985.03125,196904.65625,232677.296875,217602.203125,229626.8125,177272.234375,-705664.625,183013.328125,-0.004638671875,0.990478515625,-0.2177734375,-0.3051757514476776,0.2441406100988388,0.2441406100988388,93.33334350585938,56495.0,1.0
12:01:33.594989,201966.4375,196891.078125,232664.234375,217599.15625,229585.59375,177255.875,-705669.625,183005.71875,-0.005859375,0.98974609375,-0.21875,-0.2746581733226776,0.1525878757238388,0.3051757514476776,93.33334350585938,56496.0,1.0
12:01:33.595016,201979.671875,196906.265625,232668.96875,217603.265625,229597.84375,177272.40625,-705671.625,183007.421875,-0.006103515625,0.99365234375,-0.218017578125,-0.3967284858226776,-0.03051757626235485,0.4272460639476776,93.33334350585938,56497.0,1.0
12:01:33.597468,202003.0,196923.609375,232684.890625,217610.15625,229640.578125,177292.34375,-705672.875,183019.484375,-0.00390625,0.99365234375,-0.216064453125,-0.4577636420726776,-0.03051757626235485,0.5493163466453552,93.33334350585938,56498.0,1.0
12:01:33.597488,201992.546875,196912.078125,232683.375,217606.046875,229637.453125,177279.828125,-705674.4375,183016.453125,-0.00390625,0.992919921875,-0.219482421875,-0.5798339247703552,-0.0915527269244194,0.4882812201976776,93.33334350585938,56499.0,1.0
12:01:33.609483,201971.984375,196893.390625,232668.703125,217603.453125,229591.765625,177258.28125,-705671.0,183008.84375,-0.003662109375,0.994873046875,-0.222900390625,-0.7019042372703552,-0.2136230319738388,0.5798339247703552,93.33334350585938,56500.0,1.0
12:01:33.619339,201977.078125,196902.25,232667.09375,217603.0,229590.78125,177267.046875,-705670.4375,183006.25,-0.00244140625,0.99609375,-0.220703125,-0.7019042372703552,-0.2441406100988388,0.7019042372703552,93.33334350585938,56501.0,1.0
12:01:33.619352,201995.9375,196917.0,232677.640625,217603.90625,229629.3125,177283.3125,-705666.625,183012.609375,-0.001708984375,0.99609375,-0.218505859375,-0.9460448622703552,-0.2746581733226776,0.7324218153953552,93.33334350585938,56502.0,1.0
12:01:33.619356,201989.5,196910.03125,232677.640625,217596.921875,229636.375,177277.859375,-705668.5,183009.296875,-0.00244140625,0.995849609375,-0.2177734375,-1.0070799589157104,-0.2746581733226776,0.7934569716453552,93.33334350585938,56503.0,1.0
12:01:33.622705,201966.53125,196887.9375,232661.828125,217592.359375,229591.671875,177254.34375,-705663.9375,183002.0625,-0.00341796875,0.9951171875,-0.218994140625,-1.2512205839157104,-0.3662109076976776,0.9155272841453552,93.33334350585938,56504.0,1.0
12:01:33.622756,201965.359375,196894.921875,232655.921875,217590.046875,229580.40625,177261.6875,-705663.75,182996.6875,-0.001708984375,0.995849609375,-0.21875,-1.3732908964157104,-0.4272460639476776,0.9765624403953552,93.33334350585938,56505.0,1.0
12:01:33.629461,201984.046875,196911.09375,232665.84375,217590.578125,229616.359375,177280.546875,-705665.0,183001.421875,-0.001708984375,0.994384765625,-0.218017578125,-1.4038084745407104,-0.4882812201976776,0.9460448622703552,93.33334350585938,56506.0,1.0
12:01:33.639993,201984.765625,196909.84375,232670.9375,217587.453125,229635.21875,177280.359375,-705659.1875,183002.59375,-0.0009765625,0.994140625,-0.220703125,-1.5869139432907104,-0.4272460639476776,0.8850097060203552,93.33334350585938,56507.0,1.0
12:01:33.640017,201963.125,196887.140625,232657.703125,217584.671875,229596.328125,177253.71875,-705663.0,182997.234375,-0.001220703125,0.99365234375,-0.223388671875,-1.7395018339157104,-0.4272460639476776,0.9460448622703552,93.33334350585938,56508.0,1.0
12:01:33.642545,201957.9375,196887.140625,232650.203125,217584.3125,229574.0625,177252.828125,-705664.1875,182992.75,-0.000732421875,0.99560546875,-0.219482421875,-1.7395018339157104,-0.4272460639476776,1.0070799589157104,93.33334350585938,56509.0,1.0
12:01:33.642565,201978.15625,196904.296875,232660.390625,217586.546875,229605.796875,177272.5,-705664.8125,182997.234375,-0.000732421875,0.99169921875,-0.22119140625,-1.8310545682907104,-0.3662109076976776,1.0375975370407104,93.33334350585938,56510.0,1.0
12:01:33.667966,201983.875,196905.90625,232666.734375,217585.21875,229631.640625,177276.515625,-705669.625,182998.921875,0.0,0.991455078125,-0.2197265625,-1.9226073026657104,-0.3356933295726776,1.0681151151657104,93.33334350585938,56511.0,1.0
12:01:33.667994,201965.546875,196886.953125,232658.328125,217587.265625,229603.296875,177256.578125,-705673.1875,182997.9375,0.000732421875,0.9912109375,-0.220458984375,-2.044677495956421,-0.3051757514476776,1.1291502714157104,93.33334350585938,56512.0,1.0
12:01:33.699996,201956.609375,196883.390625,232649.3125,217588.96875,229573.96875,177252.375,-705672.875,182994.28125,0.00244140625,0.991455078125,-0.21826171875,-2.136230230331421,-0.3662109076976776,1.0681151151657104,93.33334350585938,56513.0,1.0
12:01:33.700011,201975.015625,196901.796875,232657.796875,217591.65625,229601.515625,177272.953125,-705663.5625,182999.1875,0.002685546875,0.9912109375,-0.221435546875,-2.136230230331421,-0.3356933295726776,1.0375975370407104,93.33334350585938,56514.0,1.0
12:01:33.721381,201986.109375,196907.609375,232668.34375,217589.421875,229635.03125,177282.78125,-705658.8125,183003.84375,0.005126953125,0.99072265625,-0.2216796875,-2.197265386581421,-0.2746581733226776,0.9460448622703552,93.33334350585938,56515.0,1.0
12:01:33.721413,201967.0625,196887.9375,232660.03125,217584.9375,229610.71875,177260.96875,-705665.1875,182997.40625,0.005126953125,0.98876953125,-0.2216796875,-2.197265386581421,-0.2746581733226776,1.0375975370407104,93.33334350585938,56516.0,1.0
12:01:33.724423,201954.375,196879.984375,232647.78125,217582.796875,229572.0,177248.8125,-705664.25,182989.8125,0.00439453125,0.98828125,-0.2216796875,-2.288818120956421,-0.1220703050494194,0.9460448622703552,93.33334350585938,56517.0,1.0
12:01:33.724450,201970.28125,196896.609375,232653.421875,217585.5625,229589.796875,177266.59375,-705662.375,182992.3125,0.00537109375,0.989013671875,-0.221923828125,-2.319335699081421,-0.0915527269244194,0.8544921278953552,93.33334350585938,56518.0,1.0
12:01:33.724458,201984.59375,196906.8125,232663.875,217586.546875,229627.53125,177279.203125,-705663.125,183000.265625,0.008056640625,0.9892578125,-0.218017578125,-2.319335699081421,-0.03051757626235485,0.8544921278953552,93.33334350585938,56519.0,1.0
12:01:33.726960,201967.515625,196889.90625,232657.171875,217579.84375,229613.9375,177261.328125,-705665.5,182994.015625,0.0087890625,0.990234375,-0.21728515625,-2.532958745956421,0.0915527269244194,0.8850097060203552,93.33334350585938,56520.0,1.0
12:01:33.729517,201948.28125,196871.9375,232638.9375,217574.484375,229566.828125,177240.40625,-705671.9375,182983.640625,0.007080078125,0.98974609375,-0.218505859375,-2.410888433456421,0.03051757626235485,0.7934569716453552,93.33334350585938,56521.0,1.0
12:01:33.731942,201958.125,196883.03125,232639.03125,217574.03125,229572.1875,177251.84375,-705663.1875,182980.59375,0.006591796875,0.98974609375,-0.217041015625,-2.380370855331421,0.1525878757238388,0.7934569716453552,93.33334350585938,56522.0,1.0
12:01:33.734437,201979.40625,196899.921875,232656.09375,217580.46875,229616.0,177270.796875,-705649.1875,182993.828125,0.005126953125,0.990478515625,-0.21630859375,-2.471923589706421,0.2136230319738388,0.7019042372703552,93.33334350585938,56523.0,1.0
12:01:33.736986,201975.46875,196895.28125,232660.390625,217581.546875,229619.125,177263.921875,-705655.25,182996.25,0.00634765625,0.988525390625,-0.2177734375,-2.502441167831421,0.2441406100988388,0.7629393935203552,93.33334350585938,56524.0,1.0
12:01:33.739449,201958.578125,196880.078125,232647.34375,217581.375,229575.5,177245.234375,-705664.1875,182991.140625,0.00439453125,0.9912109375,-0.2158203125,-2.471923589706421,0.2441406100988388,0.7629393935203552,93.33334350585938,56525.0,1.0
12:01:33.744526,201962.234375,196887.671875,232643.578125,217581.8125,229570.671875,177252.109375,-705666.0,182987.296875,0.004638671875,0.991943359375,-0.215087890625,-2.410888433456421,0.3356933295726776,0.6103515028953552,93.33334350585938,56526.0,1.0
12:01:33.747014,201984.046875,196902.609375,232656.28125,217587.453125,229610.0,177268.46875,-705666.5,182997.234375,0.00244140625,0.989990234375,-0.215576171875,-2.441406011581421,0.3662109076976776,0.6713866591453552,93.33334350585938,56527.0,1.0
12:01:33.749487,201982.4375,196898.9375,232661.015625,217586.46875,229620.90625,177265.078125,-705666.0625,182998.921875,0.004150390625,0.990234375,-0.216552734375,-2.471923589706421,0.3662109076976776,0.6713866591453552,93.33334350585938,56528.0,1.0
12:01:33.751976,201960.625,196878.375,232646.71875,217583.875,229577.375,177241.921875,-705663.125,182991.78125,0.004638671875,0.98876953125,-0.2158203125,-2.471923589706421,0.3662109076976776,0.4882812201976776,93.33334350585938,56529.0,1.0
12:01:33.754472,201959.546875,196882.21875,232641.4375,217582.0,229563.6875,177244.96875,-705662.75,182986.234375,0.00244140625,0.9892578125,-0.212646484375,-2.532958745956421,0.3662109076976776,0.4272460639476776,93.33334350585938,56530.0,1.0
12:01:33.756965,201981.8125,196897.328125,232654.671875,217587.265625,229602.21875,177264.8125,-705666.4375,182996.609375,0.00048828125,0.989990234375,-0.212646484375,-2.502441167831421,0.3356933295726776,0.3051757514476776,93.33334350585938,56531.0,1.0
12:01:33.760951,201981.640625,196893.75,232659.140625,217584.59375,229621.984375,177264.90625,-705670.25,182999.1875,0.000732421875,0.989990234375,-0.214111328125,-2.471923589706421,0.3967284858226776,0.3356933295726776,93.33334350585938,56532.0,1.0
12:01:33.761026,201959.015625,196872.203125,232645.640625,217580.390625,229582.28125,177242.8125,-705675.1875,182992.75,0.000732421875,0.989501953125,-0.2138671875,-2.441406011581421,0.3662109076976776,0.3356933295726776,93.33334350585938,56533.0,1.0
12:01:33.762593,201952.046875,196872.296875,232637.953125,217580.03125,229559.046875,177243.53125,-705675.8125,182986.40625,0.000244140625,0.98974609375,-0.211181640625,-2.410888433456421,0.3662109076976776,0.3662109076976776,93.33334350585938,56534.0,1.0
12:01:33.762614,201972.703125,196890.53125,232648.859375,217583.953125,229593.46875,177264.984375,-705669.125,182993.65625,-0.000244140625,0.990478515625,-0.211669921875,-2.502441167831421,0.2441406100988388,0.2746581733226776,93.33334350585938,56535.0,1.0
12:01:33.764518,201980.5625,196895.984375,232657.4375,217581.453125,229621.984375,177272.046875,-705671.625,182997.046875,-0.000732421875,0.98681640625,-0.213623046875,-2.441406011581421,0.2441406100988388,0.2136230319738388,93.33334350585938,56536.0,1.0
12:01:33.768257,201966.171875,196882.046875,232652.25,217580.734375,229595.25,177254.890625,-705675.5625,182994.546875,-0.002685546875,0.98876953125,-0.208984375,-2.410888433456421,0.1220703050494194,0.2746581733226776,93.33334350585938,56537.0,1.0
12:01:33.768337,201955.265625,196877.84375,232642.15625,217578.421875,229563.953125,177246.921875,-705673.375,182988.46875,-0.002685546875,0.98828125,-0.2099609375,-2.410888433456421,0.0915527269244194,0.3356933295726776,93.33334350585938,56538.0,1.0
12:01:33.769556,201971.625,196895.453125,232649.390625,217581.09375,229589.625,177266.421875,-705667.3125,182992.84375,-0.00244140625,0.9873046875,-0.211181640625,-2.349853277206421,0.1525878757238388,0.3356933295726776,93.33334350585938,56539.0,1.0
12:01:33.772031,201983.78125,196904.03125,232660.75,217582.984375,229624.3125,177277.5,-705665.375,182999.90625,-0.001953125,0.98828125,-0.2080078125,-2.258300542831421,0.03051757626235485,0.2441406100988388,93.33334350585938,56540.0,1.0
12:01:33.774961,201964.46875,196883.390625,232651.453125,217577.171875,229599.1875,177254.703125,-705665.5,182991.140625,-0.00244140625,0.9912109375,-0.209228515625,-2.227782964706421,-0.1525878757238388,0.3051757514476776,93.33334350585938,56541.0,1.0
12:01:33.774968,201950.078125,196873.375,232637.859375,217574.9375,229559.84375,177242.09375,-705668.5,182984.0,-0.003662109375,0.989990234375,-0.21044921875,-2.197265386581421,-0.2136230319738388,0.4272460639476776,93.33334350585938,56542.0,1.0
12:01:33.776960,201967.6875,196893.3125,232646.09375,217581.546875,229580.234375,177262.03125,-705673.3125,182989.984375,-0.00244140625,0.99169921875,-0.212646484375,-2.166747808456421,-0.2136230319738388,0.4882812201976776,93.33334350585938,56543.0,1.0
12:01:33.792650,201989.59375,196909.578125,232664.0625,217589.59375,229623.859375,177279.65625,-705668.0,183002.140625,-0.003173828125,0.990966796875,-0.210693359375,-2.136230230331421,-0.1831054538488388,0.5187987685203552,93.33334350585938,56544.0,1.0
12:01:33.792664,201982.265625,196900.015625,232665.671875,217591.828125,229620.015625,177269.453125,-705660.625,183005.359375,-0.001708984375,0.99072265625,-0.210205078125,-2.105712652206421,-0.2441406100988388,0.5493163466453552,93.33334350585938,56545.0,1.0
12:01:33.795760,201971.71875,196890.984375,232657.265625,217594.953125,229583.265625,177257.484375,-705658.125,183004.734375,-0.002197265625,0.990966796875,-0.21044921875,-2.105712652206421,-0.2441406100988388,0.5798339247703552,93.33334350585938,56546.0,1.0
12:01:33.795769,201984.59375,196905.28125,232662.71875,217600.40625,229593.375,177274.015625,-705660.1875,183008.140625,-0.00244140625,0.989501953125,-0.210693359375,-2.075195074081421,-0.3356933295726776,0.6408690810203552,93.33334350585938,56547.0,1.0
12:01:33.795771,202004.609375,196919.59375,232677.5625,217604.609375,229634.765625,177291.71875,-705657.75,183018.859375,-0.000732421875,0.990478515625,-0.210693359375,-2.014159917831421,-0.3051757514476776,0.7324218153953552,93.33334350585938,56548.0,1.0
12:01:33.800812,201985.21875,196898.578125,232666.296875,217590.484375,229625.03125,177270.4375,-705662.25,183007.0625,0.0,0.99072265625,-0.21044921875,-2.014159917831421,-0.3356933295726776,0.7629393935203552,93.33334350585938,56549.0,1.0
12:01:33.803159,201952.578125,196865.59375,232639.109375,217576.359375,229567.984375,177232.625,-705674.9375,182989.265625,0.0,0.989990234375,-0.20849609375,-2.014159917831421,-0.4577636420726776,0.7934569716453552,93.33334350585938,56550.0,1.0
12:01:33.818280,201955.625,196872.65625,232636.15625,217575.640625,229563.78125,177238.703125,-705676.0625,182984.796875,0.001220703125,0.990478515625,-0.20703125,-1.9226073026657104,-0.3051757514476776,0.8544921278953552,93.33334350585938,56551.0,1.0
12:01:33.823821,201973.328125,196886.515625,232645.28125,217575.109375,229599.90625,177255.15625,-705671.4375,182990.515625,0.0029296875,0.989990234375,-0.208251953125,-1.8615721464157104,-0.4882812201976776,0.8544921278953552,93.33334350585938,56552.0,1.0
12:01:33.823829,201965.71875,196877.03125,232643.21875,217568.578125,229606.609375,177247.640625,-705678.3125,182988.46875,0.004150390625,0.98828125,-0.210205078125,-1.8920897245407104,-0.4577636420726776,0.8850097060203552,93.33334350585938,56553.0,1.0
12:01:33.826316,201944.0,196856.734375,232628.5625,217566.265625,229563.15625,177224.484375,-705683.875,182983.09375,0.002685546875,0.98876953125,-0.210205078125,-1.7700194120407104,-0.3051757514476776,0.8850097060203552,93.33334350585938,56554.0,1.0
12:01:33.826324,201943.46875,196864.078125,232623.109375,217565.984375,229549.390625,177232.71875,-705684.3125,182979.4375,0.00341796875,0.98681640625,-0.211181640625,-1.6479490995407104,-0.3967284858226776,1.0070799589157104,93.33334350585938,56555.0,1.0
12:01:33.833966,201972.515625,196889.28125,232641.34375,217575.828125,229592.5625,177260.96875,-705675.0625,182993.390625,0.0029296875,0.98876953125,-0.210693359375,-1.5563963651657104,-0.3051757514476776,0.9460448622703552,93.33334350585938,56556.0,1.0
12:01:33.834051,201979.84375,196894.828125,232651.984375,217578.234375,229615.90625,177267.578125,-705674.625,182998.484375,0.00537109375,0.988525390625,-0.21044921875,-1.5258787870407104,-0.2746581733226776,1.0375975370407104,93.33334350585938,56557.0,1.0
12:01:33.843756,201961.609375,196878.203125,232643.5,217578.5,229580.046875,177247.375,-705679.0,182994.453125,0.00439453125,0.9892578125,-0.21044921875,-1.4953612089157104,-0.3356933295726776,1.0070799589157104,93.33334350585938,56558.0,1.0
12:01:33.843768,201961.703125,196883.5625,232640.28125,217581.1875,229560.828125,177250.328125,-705678.75,182991.5,0.004150390625,0.98779296875,-0.207763671875,-1.4648436307907104,-0.2746581733226776,0.9765624403953552,93.33334350585938,56559.0,1.0
12:01:33.845727,201987.453125,196906.0,232655.109375,217587.359375,229597.9375,177274.828125,-705678.25,183000.09375,0.005615234375,0.988037109375,-0.209228515625,-1.3122557401657104,-0.1831054538488388,1.0070799589157104,93.33334350585938,56560.0,1.0
12:01:33.879088,201995.40625,196910.03125,232665.125,217587.0,229629.5,177281.625,-705675.5625,183006.078125,0.004150390625,0.990478515625,-0.2109375,-1.2817381620407104,-0.0915527269244194,1.0375975370407104,93.33334350585938,56561.0,1.0
12:01:33.879164,201976.625,196889.640625,232659.59375,217586.375,229604.546875,177261.046875,-705671.875,183003.484375,0.00390625,0.989013671875,-0.21142578125,-1.3732908964157104,-0.03051757626235485,1.0070799589157104,93.33334350585938,56562.0,1.0
12:01:33.880574,201963.046875,196884.71875,232644.390625,217580.5625,229565.84375,177251.046875,-705673.3125,182990.515625,0.005615234375,0.98828125,-0.214599609375,-1.2817381620407104,0.0610351525247097,0.9765624403953552,93.33334350585938,56563.0,1.0
12:01:33.880585,201978.78125,196900.453125,232648.671875,217582.0,229585.15625,177267.765625,-705674.1875,182990.875,0.006103515625,0.98779296875,-0.21484375,-1.2207030057907104,0.1220703050494194,0.9765624403953552,93.33334350585938,56564.0,1.0
12:01:33.880589,201991.203125,196910.734375,232659.859375,217582.625,229620.28125,177281.265625,-705671.625,182997.859375,0.006591796875,0.9892578125,-0.21435546875,-1.1596678495407104,0.2136230319738388,0.8544921278953552,93.33334350585938,56565.0,1.0
12:01:33.884457,201974.9375,196894.203125,232656.375,217581.375,229603.75,177264.90625,-705669.75,182997.9375,0.006591796875,0.9892578125,-0.2119140625,-1.1901854276657104,0.2746581733226776,0.8544921278953552,93.33334350585938,56566.0,1.0
12:01:33.884470,201957.765625,196882.75,232641.53125,217578.328125,229563.25,177251.84375,-705674.4375,182991.59375,0.007080078125,0.986572265625,-0.21240234375,-1.1901854276657104,0.3051757514476776,0.8544921278953552,93.33334350585938,56567.0,1.0
12:01:33.884472,201970.734375,196898.5,232642.421875,217578.421875,229575.671875,177268.296875,-705673.5,182989.265625,0.00830078125,0.984130859375,-0.214599609375,-1.0681151151657104,0.4272460639476776,0.8544921278953552,93.33334350585938,56568.0,1.0
12:01:33.887537,201989.5,196910.203125,232657.4375,217583.609375,229618.046875,177282.953125,-705674.75,183000.453125,0.007568359375,0.984375,-0.217041015625,-1.0375975370407104,0.3356933295726776,0.8239745497703552,93.33334350585938,56569.0,1.0
12:01:33.887545,201979.578125,196899.75,232655.5625,217582.171875,229608.21875,177268.921875,-705681.0,182996.6875,0.007080078125,0.98583984375,-0.21630859375,-0.9155272841453552,0.4272460639476776,0.7324218153953552,93.33334350585938,56570.0,1.0
12:01:33.889453,201961.078125,196884.71875,232641.96875,217578.859375,229564.40625,177250.0625,-705687.25,182987.578125,0.0078125,0.98779296875,-0.215087890625,-0.7019042372703552,0.5798339247703552,0.7324218153953552,93.33334350585938,56571.0,1.0
12:01:33.891967,201969.125,196896.171875,232645.546875,217580.203125,229573.4375,177263.46875,-705692.8125,182987.75,0.006591796875,0.989013671875,-0.215576171875,-0.6103515028953552,0.5798339247703552,0.6713866591453552,93.33334350585938,56572.0,1.0
12:01:33.895668,201991.296875,196910.46875,232659.59375,217583.609375,229614.296875,177281.625,-705692.5,182996.328125,0.010009765625,0.989990234375,-0.2177734375,-0.6408690810203552,0.6713866591453552,0.7324218153953552,93.33334350585938,56573.0,1.0
12:01:33.906227,201983.515625,196900.546875,232659.140625,217581.375,229615.546875,177272.046875,-705693.5,182996.328125,0.009033203125,0.989501953125,-0.218017578125,-0.4272460639476776,0.7629393935203552,0.7019042372703552,93.33334350585938,56574.0,1.0
12:01:33.906247,201960.453125,196880.171875,232641.890625,217577.609375,229569.5,177248.8125,-705689.5,182989.53125,0.009521484375,0.9853515625,-0.2177734375,-0.3356933295726776,0.8850097060203552,0.7324218153953552,93.33334350585938,56575.0,1.0
12:01:33.908253,201962.59375,196887.9375,232638.125,217576.984375,229565.65625,177256.859375,-705679.9375,182987.921875,0.00830078125,0.98193359375,-0.215087890625,-0.2746581733226776,0.9765624403953552,0.5493163466453552,93.33334350585938,56576.0,1.0
12:01:33.915696,201984.59375,196904.21875,232651.625,217581.640625,229606.609375,177276.796875,-705673.8125,182998.203125,0.007080078125,0.981689453125,-0.217529296875,-0.2136230319738388,1.0681151151657104,0.4272460639476776,93.33334350585938,56577.0,1.0
12:01:33.923790,201981.375,196899.921875,232653.59375,217579.84375,229617.15625,177274.203125,-705672.5,182998.5625,0.0048828125,0.982666015625,-0.215576171875,-0.1220703050494194,1.0681151151657104,0.3051757514476776,93.33334350585938,56578.0,1.0
12:01:33.923808,201959.46875,196878.375,232638.390625,217576.890625,229574.421875,177250.5,-705675.4375,182992.21875,-0.00146484375,0.986328125,-0.215087890625,-0.03051757626235485,1.0986326932907104,0.1525878757238388,93.33334350585938,56579.0,1.0
12:01:33.926264,201957.3125,196883.46875,232632.765625,217573.59375,229559.21875,177253.453125,-705677.75,182986.40625,-0.00341796875,0.98828125,-0.2138671875,-0.0915527269244194,0.9155272841453552,-0.0915527269244194,93.33334350585938,56580.0,1.0
12:01:33.926270,201981.453125,196903.5,232648.59375,217580.734375,229600.078125,177276.703125,-705677.125,182997.671875,-0.004150390625,0.98876953125,-0.212646484375,-0.1525878757238388,0.9155272841453552,-0.1831054538488388,93.33334350585938,56581.0,1.0
12:01:33.932085,201988.875,196908.0625,232660.578125,217584.5,229628.78125,177284.296875,-705679.5625,183004.734375,-0.0068359375,0.99072265625,-0.21484375,-0.2746581733226776,0.7934569716453552,-0.4272460639476776,93.33334350585938,56582.0,1.0
12:01:33.939542,201969.203125,196888.296875,232652.4375,217582.890625,229595.078125,177263.921875,-705679.625,183000.796875,-0.007080078125,0.992431640625,-0.21630859375,-0.3356933295726776,0.6408690810203552,-0.4577636420726776,93.33334350585938,56583.0,1.0
12:01:33.946255,201964.5625,196888.21875,232645.8125,217583.15625,229569.953125,177261.234375,-705685.3125,182996.6875,-0.006103515625,0.9931640625,-0.217041015625,-0.3356933295726776,0.3356933295726776,-0.4882812201976776,93.33334350585938,56584.0,1.0
12:01:33.946265,201985.296875,196905.5625,232656.453125,217587.265625,229602.3125,177281.34375,-705683.6875,183003.671875,-0.00439453125,0.9970703125,-0.21630859375,-0.5798339247703552,0.2746581733226776,-0.6408690810203552,93.33334350585938,56585.0,1.0
12:01:33.953729,201997.28125,196915.125,232670.140625,217590.125,229637.8125,177292.34375,-705672.6875,183012.96875,-0.004150390625,0.99853515625,-0.21533203125,-0.7934569716453552,0.2441406100988388,-0.5798339247703552,93.33334350585938,56586.0,1.0
12:01:33.953741,201979.046875,196895.0,232660.65625,217588.15625,229608.125,177271.0625,-705666.75,183007.6875,-0.002685546875,0.99853515625,-0.21533203125,-0.8850097060203552,0.03051757626235485,-0.5187987685203552,93.33334350585938,56587.0,1.0
12:01:33.955627,201967.78125,196890.359375,232647.609375,217585.84375,229573.171875,177263.640625,-705667.5625,183000.71875,-0.00048828125,0.999267578125,-0.213623046875,-1.0681151151657104,-0.03051757626235485,-0.4577636420726776,93.33334350585938,56588.0,1.0
12:01:33.967500,201988.515625,196911.546875,232657.890625,217589.859375,229598.734375,177284.65625,-705670.25,183004.640625,-0.000244140625,1.001220703125,-0.217041015625,-1.1901854276657104,-0.1831054538488388,-0.4272460639476776,93.33334350585938,56589.0,1.0
12:01:33.967520,202002.296875,196920.484375,232669.875,217587.890625,229632.453125,177294.3125,-705668.5,183007.59375,0.002197265625,1.000732421875,-0.215576171875,-1.4038084745407104,-0.0610351525247097,-0.2441406100988388,93.33334350585938,56590.0,1.0
12:01:33.970011,201984.5,196902.15625,232662.1875,217584.140625,229611.53125,177275.359375,-705671.625,183001.609375,0.0029296875,0.999755859375,-0.217529296875,-1.5258787870407104,-0.0610351525247097,-0.1525878757238388,93.33334350585938,56591.0,1.0
12:01:33.970046,201965.359375,196889.546875,232647.078125,217580.5625,229569.5,177259.796875,-705674.3125,182992.75,-0.0009765625,0.999267578125,-0.2158203125,-1.7395018339157104,-0.1220703050494194,-0.03051757626235485,93.33334350585938,56592.0,1.0
12:01:33.975630,201975.46875,196902.421875,232648.140625,217579.140625,229582.640625,177273.65625,-705677.5,182992.671875,-0.00048828125,0.99658203125,-0.213623046875,-1.8310545682907104,-0.2136230319738388,0.0610351525247097,93.33334350585938,56593.0,1.0
12:01:33.981966,201990.3125,196911.90625,232659.5,217580.5625,229621.265625,177287.421875,-705677.25,183000.890625,-0.001708984375,0.996826171875,-0.21435546875,-2.044677495956421,-0.0915527269244194,0.2746581733226776,93.33334350585938,56594.0,1.0
12:01:33.989994,201978.59375,196897.953125,232656.28125,217578.78125,229614.203125,177274.640625,-705680.75,182999.640625,-0.003173828125,0.998046875,-0.21533203125,-2.166747808456421,-0.2136230319738388,0.3356933295726776,93.33334350585938,56595.0,1.0
12:01:33.990035,201962.328125,196885.0,232643.9375,217577.796875,229572.1875,177259.09375,-705686.6875,182995.0,-0.005615234375,0.996826171875,-0.21533203125,-2.288818120956421,-0.2136230319738388,0.4577636420726776,93.33334350585938,56596.0,1.0
12:01:33.996222,201972.34375,196897.234375,232644.390625,217578.0625,229576.5625,177268.5625,-705677.875,182994.359375,-0.0068359375,0.99853515625,-0.216552734375,-2.502441167831421,-0.3051757514476776,0.6713866591453552,93.33334350585938,56597.0,1.0
12:01:33.996235,201993.4375,196913.78125,232656.546875,217581.375,229616.359375,177286.0,-705665.6875,183004.015625,-0.005615234375,0.997314453125,-0.21435546875,-2.593993902206421,-0.3356933295726776,0.7934569716453552,93.33334350585938,56598.0,1.0
12:01:34.002040,201987.453125,196907.796875,232657.53125,217581.28125,229620.109375,177281.171875,-705663.75,183006.609375,-0.0078125,0.99658203125,-0.21533203125,-2.655029058456421,-0.4272460639476776,0.7934569716453552,93.33334350585938,56599.0,1.0
12:01:34.008767,201964.921875,196887.3125,232641.53125,217580.03125,229575.40625,177257.296875,-705675.0625,183000.796875,-0.005859375,0.993896484375,-0.21337890625,-2.716064214706421,-0.6408690810203552,0.8544921278953552,93.33334350585938,56600.0,1.0
12:01:34.008774,201968.140625,196893.484375,232638.390625,217581.375,229571.109375,177263.015625,-705680.125,182998.84375,-0.00439453125,0.994140625,-0.212158203125,-2.777099370956421,-0.7019042372703552,0.8850097060203552,93.33334350585938,56601.0,1.0
12:01:34.018798,201988.796875,196909.3125,232650.921875,217585.5625,229610.8125,177281.171875,-705683.875,183008.140625,-0.007080078125,0.993408203125,-0.209716796875,-2.899169683456421,-0.7934569716453552,0.9460448622703552,93.33334350585938,56602.0,1.0
12:01:34.018810,201986.109375,196904.75,232655.109375,217584.234375,229624.671875,177279.109375,-705683.125,183009.65625,-0.00634765625,0.99267578125,-0.21044921875,-2.960204839706421,-0.9155272841453552,1.0070799589157104,93.33334350585938,56603.0,1.0
12:01:34.021212,201963.9375,196883.5625,232643.046875,217580.5625,229583.8125,177256.140625,-705679.125,183003.21875,-0.004150390625,0.98974609375,-0.210205078125,-2.899169683456421,-0.9460448622703552,1.0681151151657104,93.33334350585938,56604.0,1.0
12:01:34.021219,201960.359375,196885.53125,232635.984375,217576.1875,229567.453125,177257.828125,-705676.6875,182997.578125,-0.003662109375,0.989013671875,-0.211669921875,-2.868652105331421,-1.0681151151657104,1.0681151151657104,93.33334350585938,56605.0,1.0
12:01:34.031961,201982.0,196903.046875,232647.34375,217579.765625,229605.265625,177278.3125,-705669.9375,183005.0,-0.0029296875,0.989013671875,-0.210693359375,-2.777099370956421,-1.1901854276657104,1.1901854276657104,93.33334350585938,56606.0,1.0
12:01:34.034986,201986.5625,196906.453125,232654.40625,217578.234375,229627.078125,177281.796875,-705663.5,183006.96875,-0.000244140625,0.9873046875,-0.21142578125,-2.716064214706421,-1.2207030057907104,1.2817381620407104,93.33334350585938,56607.0,1.0
12:01:34.034993,201965.453125,196884.015625,232643.140625,217577.171875,229591.40625,177257.203125,-705678.75,183001.515625,0.002685546875,0.988525390625,-0.212158203125,-2.746581792831421,-1.2512205839157104,1.1901854276657104,93.33334350585938,56608.0,1.0
12:01:34.036940,201958.21875,196883.109375,232634.28125,217576.625,229566.109375,177253.640625,-705681.0,182996.328125,0.002685546875,0.988037109375,-0.212646484375,-2.685546636581421,-1.0681151151657104,1.2207030057907104,93.33334350585938,56609.0,1.0
12:01:34.062014,201980.46875,196904.65625,232646.625,217583.421875,229598.203125,177276.34375,-705666.9375,183003.84375,0.003662109375,0.98681640625,-0.21337890625,-2.593993902206421,-0.9460448622703552,1.1291502714157104,93.33334350585938,56610.0,1.0
12:01:34.085157,201990.578125,196911.8125,232658.78125,217585.390625,229631.1875,177287.515625,-705671.9375,183009.5625,0.005615234375,0.98388671875,-0.214111328125,-2.471923589706421,-0.8850097060203552,1.0986326932907104,93.33334350585938,56611.0,1.0
12:01:34.086945,201971.796875,196890.796875,232647.421875,217581.1875,229601.25,177265.875,-705675.5625,183003.125,0.005859375,0.986328125,-0.213134765625,-2.319335699081421,-0.7629393935203552,1.0986326932907104,93.33334350585938,56612.0,1.0
12:01:34.089417,201955.625,196879.984375,232630.53125,217576.0,229562.171875,177253.1875,-705680.625,182993.03125,0.009033203125,0.98486328125,-0.2119140625,-2.258300542831421,-0.6408690810203552,1.0986326932907104,93.33334350585938,56613.0,1.0
12:01:34.092011,201971.09375,196895.90625,232637.234375,217577.703125,229585.15625,177271.0625,-705676.875,182996.0625,0.009521484375,0.984375,-0.21142578125,-2.227782964706421,-0.5493163466453552,1.1291502714157104,93.33334350585938,56614.0,1.0
12:01:34.094475,201989.0625,196908.5,232653.0625,217580.46875,229625.375,177286.265625,-705668.8125,183005.71875,0.010009765625,0.984130859375,-0.2138671875,-2.075195074081421,-0.3967284858226776,1.1901854276657104,93.33334350585938,56615.0,1.0
12:01:34.097163,201972.25,196890.09375,232646.265625,217575.828125,229605.984375,177266.421875,-705667.125,183000.796875,0.0126953125,0.982421875,-0.212158203125,-1.8920897245407104,-0.2746581733226776,1.2207030057907104,93.33334350585938,56616.0,1.0
12:01:34.100763,201953.65625,196876.953125,232631.515625,217571.53125,229563.0625,177250.6875,-705669.3125,182992.84375,0.011474609375,0.98095703125,-0.21044921875,-1.7395018339157104,-0.0610351525247097,1.2512205839157104,93.33334350585938,56617.0,1.0
12:01:34.100834,201972.078125,196895.28125,232639.46875,217578.328125,229580.5,177270.625,-705669.9375,182997.3125,0.008544921875,0.98291015625,-0.2099609375,-1.6174315214157104,0.1525878757238388,1.1901854276657104,93.33334350585938,56618.0,1.0
12:01:34.100860,201990.9375,196906.71875,232653.234375,217581.8125,229620.46875,177283.859375,-705671.0625,183006.25,0.01025390625,0.98388671875,-0.212890625,-1.4953612089157104,0.1525878757238388,1.1596678495407104,93.33334350585938,56619.0,1.0
12:01:34.104319,201979.84375,196895.0,232651.0,217577.609375,229611.96875,177271.25,-705680.875,183003.21875,0.008544921875,0.983642578125,-0.2138671875,-1.4648436307907104,0.3051757514476776,1.0681151151657104,93.33334350585938,56620.0,1.0
12:01:34.104326,201960.09375,196879.0,232635.984375,217573.765625,229566.015625,177251.484375,-705692.375,182994.28125,0.007080078125,0.985595703125,-0.216064453125,-1.4343260526657104,0.4577636420726776,0.9765624403953552,93.33334350585938,56621.0,1.0
12:01:34.104327,201970.8125,196892.859375,232639.734375,217577.34375,229572.453125,177264.453125,-705692.875,182995.171875,0.00634765625,0.98583984375,-0.2138671875,-1.2512205839157104,0.6408690810203552,0.8544921278953552,93.33334350585938,56622.0,1.0
12:01:34.106949,201995.3125,196909.765625,232655.203125,217583.953125,229616.703125,177284.125,-705693.4375,183007.0625,0.00390625,0.9833984375,-0.21435546875,-1.1291502714157104,0.7324218153953552,0.8544921278953552,93.33334350585938,56623.0,1.0
12:01:34.110076,201989.140625,196901.359375,232656.28125,217582.265625,229621.71875,177277.234375,-705692.25,183007.234375,0.001708984375,0.982177734375,-0.2138671875,-1.0070799589157104,0.7324218153953552,0.8239745497703552,93.33334350585938,56624.0,1.0
12:01:34.110088,201969.84375,196881.421875,232643.859375,217582.265625,229578.171875,177252.828125,-705692.5,183001.703125,0.00341796875,0.98388671875,-0.21435546875,-0.9155272841453552,0.7934569716453552,0.7019042372703552,93.33334350585938,56625.0,1.0
12:01:34.115669,201970.28125,196885.625,232638.671875,217580.65625,229568.515625,177257.296875,-705695.5,182997.671875,0.00439453125,0.986083984375,-0.21435546875,-0.7019042372703552,0.8544921278953552,0.7324218153953552,93.33334350585938,56626.0,1.0
12:01:34.118795,201990.578125,196901.359375,232650.109375,217583.25,229607.40625,177276.96875,-705693.875,183005.1875,0.00537109375,0.98583984375,-0.21435546875,-0.6713866591453552,0.9155272841453552,0.6408690810203552,93.33334350585938,56627.0,1.0
12:01:34.118807,201992.546875,196903.046875,232657.796875,217583.953125,229627.4375,177280.453125,-705688.5,183010.8125,0.005126953125,0.989013671875,-0.215087890625,-0.5187987685203552,1.0070799589157104,0.6408690810203552,93.33334350585938,56628.0,1.0
12:01:34.124993,201969.484375,196881.859375,232643.765625,217580.203125,229585.5,177256.671875,-705691.0,183003.671875,0.005126953125,0.9873046875,-0.215087890625,-0.5798339247703552,1.0375975370407104,0.5798339247703552,93.33334350585938,56629.0,1.0
12:01:34.125010,201965.8125,196884.28125,232637.234375,217577.25,229567.0,177258.8125,-705691.875,182995.796875,0.003173828125,0.985107421875,-0.214599609375,-0.5187987685203552,1.0681151151657104,0.5493163466453552,93.33334350585938,56630.0,1.0
12:01:34.130673,201987.265625,196904.21875,232649.125,217581.375,229604.375,177281.890625,-705688.6875,183002.859375,0.00146484375,0.9853515625,-0.216064453125,-0.4882812201976776,1.0375975370407104,0.5493163466453552,93.33334350585938,56631.0,1.0
12:01:34.140040,201994.25,196909.84375,232659.234375,217581.546875,229631.28125,177290.015625,-705686.8125,183006.96875,0.00146484375,0.985595703125,-0.216552734375,-0.3967284858226776,1.0986326932907104,0.4577636420726776,93.33334350585938,56632.0,1.0
12:01:34.140051,201974.484375,196889.1875,232648.671875,217579.3125,229598.203125,177268.65625,-705687.25,183002.6875,0.003662109375,0.98681640625,-0.216796875,-0.3356933295726776,1.1291502714157104,0.4882812201976776,93.33334350585938,56633.0,1.0
12:01:34.149998,201961.796875,196883.03125,232634.640625,217573.40625,229567.265625,177260.875,-705686.0,182993.390625,-0.000244140625,0.98779296875,-0.218994140625,-0.4272460639476776,1.1596678495407104,0.5493163466453552,93.33334350585938,56634.0,1.0
12:01:34.150007,201979.3125,196898.578125,232642.515625,217576.453125,229595.4375,177276.703125,-705682.9375,182999.8125,0.00244140625,0.98779296875,-0.21630859375,-0.3356933295726776,1.0681151151657104,0.4272460639476776,93.33334350585938,56635.0,1.0
12:01:34.165729,201990.75,196904.484375,232652.96875,217578.953125,229626.28125,177284.65625,-705682.1875,183008.9375,0.0009765625,0.99072265625,-0.21630859375,-0.2746581733226776,1.1901854276657104,0.3967284858226776,93.33334350585938,56636.0,1.0
12:01:34.165741,201973.0625,196885.703125,232643.765625,217575.640625,229597.75,177262.84375,-705683.5625,183003.75,-0.000732421875,0.9912109375,-0.21630859375,-0.2441406100988388,1.0681151151657104,0.4577636420726776,93.33334350585938,56637.0,1.0
12:01:34.165744,201959.46875,196878.375,232629.90625,217573.046875,229560.5625,177252.921875,-705688.125,182995.890625,-0.00146484375,0.991943359375,-0.216064453125,-0.2746581733226776,1.1291502714157104,0.5187987685203552,93.33334350585938,56638.0,1.0
12:01:34.168181,201975.828125,196896.34375,232637.0625,217576.8125,229584.796875,177272.59375,-705682.5,183001.421875,-0.00146484375,0.9931640625,-0.21728515625,-0.3662109076976776,1.0681151151657104,0.4577636420726776,93.33334350585938,56639.0,1.0
12:01:34.171947,201993.265625,196911.640625,232652.703125,217580.828125,229625.828125,177288.765625,-705680.125,183011.171875,-0.0029296875,0.99365234375,-0.21630859375,-0.3662109076976776,1.0681151151657104,0.3967284858226776,93.33334350585938,56640.0,1.0
12:01:34.171962,201978.328125,196895.546875,232648.046875,217578.234375,229609.015625,177272.671875,-705679.9375,183007.953125,-0.00439453125,0.991943359375,-0.21826171875,-0.3662109076976776,0.9460448622703552,0.3356933295726776,93.33334350585938,56641.0,1.0
12:01:34.171965,201961.4375,196882.9375,232632.9375,217574.84375,229566.1875,177255.515625,-705680.875,182998.03125,-0.003662109375,0.992431640625,-0.217041015625,-0.3967284858226776,0.7934569716453552,0.3967284858226776,93.33334350585938,56642.0,1.0
12:01:34.175703,201973.6875,196896.4375,232636.34375,217577.609375,229579.515625,177271.0625,-705689.125,182998.484375,-0.002197265625,0.991943359375,-0.216064453125,-0.4577636420726776,0.6713866591453552,0.3662109076976776,93.33334350585938,56643.0,1.0
12:01:34.179451,201991.390625,196910.296875,232650.46875,217582.171875,229621.359375,177289.84375,-705697.1875,183008.5,-0.002197265625,0.990478515625,-0.217529296875,-0.5493163466453552,0.6103515028953552,0.4272460639476776,93.33334350585938,56644.0,1.0
12:01:34.185708,201979.484375,196899.03125,232646.984375,217580.828125,229615.453125,177277.953125,-705699.6875,183008.3125,-0.002685546875,0.98974609375,-0.22021484375,-0.6408690810203552,0.5798339247703552,0.5187987685203552,93.33334350585938,56645.0,1.0
12:01:34.190102,201959.90625,196879.890625,232631.15625,217575.921875,229569.40625,177255.515625,-705691.8125,182999.640625,-0.00439453125,0.991943359375,-0.216796875,-0.8239745497703552,0.3967284858226776,0.4577636420726776,93.33334350585938,56646.0,1.0
12:01:34.190118,201969.03125,196893.21875,232634.734375,217577.078125,229575.046875,177270.171875,-705693.0625,183000.0,-0.004150390625,0.991455078125,-0.220458984375,-0.7324218153953552,0.3051757514476776,0.5493163466453552,93.33334350585938,56647.0,1.0
12:01:34.205580,201990.40625,196908.859375,232648.953125,217580.65625,229616.4375,177288.328125,-705685.5625,183010.109375,-0.00390625,0.98974609375,-0.218994140625,-0.7629393935203552,0.1831054538488388,0.3967284858226776,93.33334350585938,56648.0,1.0
12:01:34.205595,201984.3125,196901.53125,232649.125,217577.34375,229620.109375,177281.625,-705688.0625,183007.859375,-0.00341796875,0.9912109375,-0.22021484375,-0.9460448622703552,0.1525878757238388,0.5187987685203552,93.33334350585938,56649.0,1.0
12:01:34.205599,201960.625,196882.75,232633.75,217573.046875,229574.59375,177260.515625,-705685.4375,182998.921875,-0.0029296875,0.993408203125,-0.219482421875,-1.0070799589157104,-0.03051757626235485,0.4882812201976776,93.33334350585938,56650.0,1.0
12:01:34.208321,201958.296875,196886.6875,232626.78125,217567.953125,229563.515625,177264.453125,-705687.1875,182990.25,-0.001708984375,0.990234375,-0.21630859375,-0.9460448622703552,-0.03051757626235485,0.4577636420726776,93.33334350585938,56651.0,1.0
12:01:34.218947,201980.75,196903.234375,232638.484375,217572.78125,229603.390625,177284.484375,-705684.5625,182999.015625,0.0,0.992431640625,-0.21630859375,-1.1596678495407104,-0.1525878757238388,0.5187987685203552,93.33334350585938,56652.0,1.0
12:01:34.218972,201982.171875,196902.15625,232645.109375,217573.671875,229623.859375,177287.875,-705685.125,183004.375,0.00048828125,0.992919921875,-0.215576171875,-1.2207030057907104,-0.0610351525247097,0.5493163466453552,93.33334350585938,56653.0,1.0
12:01:34.226261,201957.9375,196877.03125,232632.9375,217572.15625,229586.046875,177262.390625,-705691.4375,183002.5,0.001953125,0.992919921875,-0.217529296875,-1.3732908964157104,-0.2136230319738388,0.7019042372703552,93.33334350585938,56654.0,1.0
12:01:34.226272,201953.203125,196879.8125,232625.796875,217570.90625,229566.46875,177263.5625,-705690.1875,182997.765625,0.000244140625,0.99267578125,-0.216796875,-1.3732908964157104,-0.3051757514476776,0.7019042372703552,93.33334350585938,56655.0,1.0
12:01:34.232528,201981.28125,196901.0,232637.859375,217577.078125,229598.921875,177282.421875,-705675.0625,183003.390625,0.001708984375,0.992431640625,-0.216064453125,-1.4648436307907104,-0.3662109076976776,0.7629393935203552,93.33334350585938,56656.0,1.0
12:01:34.232543,201988.796875,196904.21875,232648.859375,217577.609375,229624.3125,177285.015625,-705679.1875,183007.6875,0.00048828125,0.992431640625,-0.218017578125,-1.5258787870407104,-0.3356933295726776,0.8239745497703552,93.33334350585938,56657.0,1.0
12:01:34.238200,201968.40625,196882.3125,232638.9375,217574.3125,229590.6875,177261.953125,-705684.125,183002.6875,0.0,0.99267578125,-0.218994140625,-1.6479490995407104,-0.3051757514476776,0.8239745497703552,93.33334350585938,56658.0,1.0
12:01:34.255688,201964.203125,196882.75,232632.859375,217573.234375,229566.015625,177259.625,-705685.625,182996.953125,-0.000732421875,0.9921875,-0.21875,-1.7089842557907104,-0.3662109076976776,0.8239745497703552,93.33334350585938,56659.0,1.0
12:01:34.255759,201988.4375,196905.28125,232645.015625,217579.3125,229598.46875,177283.40625,-705679.5625,183005.0,0.001220703125,0.994140625,-0.216064453125,-1.8920897245407104,-0.3356933295726776,0.8544921278953552,93.33334350585938,56660.0,1.0
12:01:34.256974,201999.78125,196915.125,232657.625,217582.0,229633.421875,177296.1875,-705672.4375,183013.046875,0.000244140625,0.9912109375,-0.216796875,-1.9836424589157104,-0.3356933295726776,0.7934569716453552,93.33334350585938,56661.0,1.0
12:01:34.259442,201980.65625,196894.921875,232648.40625,217578.6875,229606.609375,177274.203125,-705674.625,183007.234375,0.00146484375,0.99169921875,-0.214111328125,-1.9836424589157104,-0.3356933295726776,0.7629393935203552,93.33334350585938,56662.0,1.0
12:01:34.261924,201965.09375,196883.46875,232632.859375,217574.65625,229568.78125,177261.046875,-705683.25,182996.515625,0.00341796875,0.99072265625,-0.21630859375,-1.9836424589157104,-0.3967284858226776,0.7629393935203552,93.33334350585938,56663.0,1.0
12:01:34.264376,201980.75,196898.671875,232638.671875,217578.0625,229589.0,177277.859375,-705684.75,182999.28125,0.0029296875,0.990234375,-0.21728515625,-2.075195074081421,-0.3662109076976776,0.7934569716453552,93.33334350585938,56664.0,1.0
12:01:34.266914,201993.796875,196907.796875,232649.125,217580.03125,229623.953125,177289.390625,-705677.75,183007.0625,0.001220703125,0.989990234375,-0.21630859375,-2.075195074081421,-0.3967284858226776,0.8544921278953552,93.33334350585938,56665.0,1.0
12:01:34.269400,201974.75,196887.859375,232640.640625,217573.953125,229605.0,177268.921875,-705672.0625,183001.609375,0.002197265625,0.9892578125,-0.216796875,-2.105712652206421,-0.4577636420726776,0.8239745497703552,93.33334350585938,56666.0,1.0
12:01:34.273822,201955.890625,196871.84375,232623.90625,217568.3125,229560.109375,177250.953125,-705684.5,182992.046875,0.002685546875,0.98779296875,-0.2158203125,-2.136230230331421,-0.4272460639476776,0.8239745497703552,93.33334350585938,56667.0,1.0
12:01:34.273829,201966.625,196885.4375,232625.515625,217570.1875,229570.390625,177266.0625,-705684.6875,182992.125,0.001953125,0.98974609375,-0.216064453125,-2.075195074081421,-0.2441406100988388,0.6103515028953552,93.33334350585938,56668.0,1.0
12:01:34.288276,201984.765625,196897.953125,232637.421875,217571.359375,229609.015625,177281.171875,-705674.4375,182999.1875,0.001953125,0.991455078125,-0.21533203125,-2.258300542831421,-0.2746581733226776,0.7019042372703552,93.33334350585938,56669.0,1.0
12:01:34.291333,201977.4375,196888.125,232636.78125,217567.953125,229603.75,177270.703125,-705675.8125,182996.0625,0.004150390625,0.990966796875,-0.214599609375,-2.258300542831421,-0.2746581733226776,0.7019042372703552,93.33334350585938,56670.0,1.0
12:01:34.291348,201959.828125,196873.640625,232623.640625,217566.703125,229559.21875,177249.875,-705680.875,182988.734375,0.0048828125,0.99072265625,-0.216552734375,-2.197265386581421,-0.0915527269244194,0.7019042372703552,93.33334350585938,56671.0,1.0
12:01:34.293324,201966.4375,196884.546875,232622.9375,217567.6875,229560.296875,177259.0,-705681.1875,182986.953125,0.0048828125,0.988037109375,-0.219970703125,-2.227782964706421,-0.0915527269244194,0.6103515028953552,93.33334350585938,56672.0,1.0
12:01:34.295789,201989.140625,196902.78125,232637.859375,217572.15625,229601.6875,177279.5625,-705676.0625,182998.75,0.0048828125,0.989013671875,-0.216552734375,-2.075195074081421,-0.1831054538488388,0.6408690810203552,93.33334350585938,56673.0,1.0
12:01:34.303192,201984.765625,196897.15625,232640.640625,217570.640625,229609.5625,177274.828125,-705679.3125,183000.09375,0.005615234375,0.98779296875,-0.218994140625,-2.166747808456421,-0.0610351525247097,0.6103515028953552,93.33334350585938,56674.0,1.0
12:01:34.310088,201961.34375,196873.375,232622.9375,217566.4375,229562.34375,177248.453125,-705687.3125,182990.34375,0.00537109375,0.98681640625,-0.21630859375,-2.197265386581421,-0.0610351525247097,0.5493163466453552,93.33334350585938,56675.0,1.0
12:01:34.310105,201960.1875,196879.1875,232616.84375,217562.765625,229551.4375,177254.265625,-705692.8125,182983.734375,0.005615234375,0.98876953125,-0.2138671875,-2.197265386581421,-0.03051757626235485,0.6103515028953552,93.33334350585938,56676.0,1.0
12:01:34.312561,201982.4375,196895.28125,232629.09375,217567.328125,229591.234375,177273.921875,-705693.6875,182993.46875,0.0048828125,0.990234375,-0.2177734375,-2.075195074081421,0.03051757626235485,0.7019042372703552,93.33334350585938,56677.0,1.0
12:01:34.312587,201986.46875,196898.140625,232638.125,217570.1875,229611.703125,177278.484375,-705696.625,182998.921875,0.005126953125,0.990478515625,-0.214599609375,-2.136230230331421,0.0610351525247097,0.6408690810203552,93.33334350585938,56678.0,1.0
12:01:34.326470,201963.75,196877.390625,232623.90625,217566.265625,229570.671875,177253.90625,-705695.5,182990.25,0.001708984375,0.989013671875,-0.2158203125,-2.044677495956421,0.1220703050494194,0.5493163466453552,93.33334350585938,56679.0,1.0
12:01:34.326551,201956.25,196878.28125,232614.96875,217560.625,229550.28125,177253.71875,-705688.0625,182981.484375,0.002685546875,0.988525390625,-0.216064453125,-2.105712652206421,0.1525878757238388,0.5187987685203552,93.33334350585938,56680.0,1.0
12:01:34.326580,201980.125,196899.484375,232628.390625,217564.375,229587.828125,177276.96875,-705679.375,182987.390625,0.001220703125,0.990478515625,-0.21435546875,-2.105712652206421,0.2136230319738388,0.6103515028953552,93.33334350585938,56681.0,1.0
12:01:34.335697,201982.078125,196898.3125,232633.75,217558.921875,229609.734375,177278.671875,-705674.8125,182986.3125,0.00146484375,0.99169921875,-0.21630859375,-2.197265386581421,0.1831054538488388,0.5493163466453552,93.33334350585938,56682.0,1.0
12:01:34.352415,201957.9375,196873.640625,232619.171875,217553.921875,229571.734375,177252.828125,-705680.75,182977.734375,0.002197265625,0.993408203125,-0.21435546875,-2.197265386581421,0.0915527269244194,0.5493163466453552,93.33334350585938,56683.0,1.0
12:01:34.352426,201949.8125,196870.0625,232607.828125,217551.140625,229541.875,177249.15625,-705682.5,182971.75,0.005615234375,0.993896484375,-0.212890625,-2.258300542831421,0.2136230319738388,0.4882812201976776,93.33334350585938,56684.0,1.0
12:01:34.352427,201970.109375,196888.5625,232616.046875,217556.421875,229571.296875,177268.65625,-705680.75,182978.09375,0.003173828125,0.992431640625,-0.21484375,-2.319335699081421,0.1525878757238388,0.4272460639476776,93.33334350585938,56685.0,1.0
12:01:34.352429,201981.1875,196895.984375,232627.578125,217558.75,229603.203125,177278.84375,-705681.375,182985.78125,0.003662109375,0.9921875,-0.211669921875,-2.380370855331421,0.2746581733226776,0.4882812201976776,93.33334350585938,56686.0,1.0
12:01:34.354416,201963.125,196878.5625,232620.6875,217556.15625,229578.0,177259.09375,-705682.0625,182980.78125,0.00341796875,0.99267578125,-0.212890625,-2.349853277206421,0.3051757514476776,0.5798339247703552,93.33334350585938,56687.0,1.0
12:01:34.357020,201951.421875,196873.90625,232611.390625,217555.890625,229544.734375,177251.84375,-705686.0,182974.609375,0.00341796875,0.99365234375,-0.2119140625,-2.410888433456421,0.2441406100988388,0.5798339247703552,93.33334350585938,56688.0,1.0
12:01:34.359396,201972.703125,196894.65625,232623.46875,217563.671875,229571.375,177274.28125,-705675.8125,182982.828125,0.00146484375,0.99462890625,-0.213134765625,-2.502441167831421,0.3967284858226776,0.6103515028953552,93.33334350585938,56689.0,1.0
12:01:34.366216,201989.78125,196907.96875,232637.234375,217566.53125,229610.1875,177289.9375,-705676.0625,182992.578125,0.00146484375,0.9931640625,-0.21337890625,-2.441406011581421,0.3356933295726776,0.5798339247703552,93.33334350585938,56690.0,1.0
12:01:34.372596,201977.171875,196895.90625,232635.0,217565.359375,229597.3125,177275.71875,-705681.875,182992.21875,0.001220703125,0.994873046875,-0.212158203125,-2.502441167831421,0.2746581733226776,0.7019042372703552,93.33334350585938,56691.0,1.0
12:01:34.372666,201964.375,196887.671875,232625.875,217565.90625,229560.828125,177264.265625,-705675.1875,182988.46875,0.000732421875,0.994140625,-0.21337890625,-2.471923589706421,0.2441406100988388,0.7324218153953552,93.33334350585938,56692.0,1.0
12:01:34.379024,201975.203125,196901.09375,232627.484375,217567.234375,229572.359375,177279.5625,-705673.5625,182988.203125,-0.000732421875,0.989990234375,-0.212158203125,-2.502441167831421,0.1831054538488388,0.7019042372703552,93.33334350585938,56693.0,1.0
12:01:34.379093,201988.34375,196908.953125,232634.109375,217565.546875,229607.953125,177290.828125,-705680.75,182993.921875,-0.0009765625,0.988037109375,-0.20849609375,-2.471923589706421,0.3051757514476776,0.7629393935203552,93.33334350585938,56694.0,1.0
12:01:34.380727,201964.5625,196883.296875,232619.71875,217550.796875,229591.3125,177265.609375,-705687.0625,182982.03125,-0.001220703125,0.988525390625,-0.209716796875,-2.380370855331421,0.2136230319738388,0.7934569716453552,93.33334350585938,56695.0,1.0
12:01:34.391089,201934.78125,196855.671875,232596.46875,217539.25,229539.28125,177235.3125,-705697.0,182966.03125,-0.0009765625,0.988037109375,-0.2099609375,-2.410888433456421,0.1525878757238388,0.7934569716453552,93.33334350585938,56696.0,1.0
12:01:34.393797,201933.53125,196858.34375,232589.21875,217533.984375,229533.5625,177239.78125,-705696.8125,182957.359375,-0.000732421875,0.98876953125,-0.208984375,-2.380370855331421,0.1220703050494194,0.8850097060203552,93.33334350585938,56697.0,1.0
12:01:34.393855,201949.265625,196869.609375,232596.375,217533.53125,229568.515625,177253.1875,-705696.375,182962.71875,-0.000732421875,0.989501953125,-0.215087890625,-2.258300542831421,0.0610351525247097,0.8850097060203552,93.33334350585938,56698.0,1.0
12:01:34.395692,201942.296875,196860.859375,232595.65625,217530.046875,229573.4375,177244.78125,-705698.0625,182962.09375,-0.000732421875,0.989501953125,-0.21240234375,-2.319335699081421,0.03051757626235485,0.9460448622703552,93.33334350585938,56699.0,1.0
12:01:34.426107,201924.5,196844.3125,232584.84375,217530.234375,229533.828125,177226.625,-705702.4375,182957.53125,0.0,0.988525390625,-0.21142578125,-2.197265386581421,-0.03051757626235485,0.9155272841453552,93.33334350585938,56700.0,1.0
12:01:34.455177,201934.15625,196860.046875,232589.046875,217536.75,229532.9375,177242.09375,-705701.625,182959.859375,-0.001220703125,0.988037109375,-0.211669921875,-2.105712652206421,0.03051757626235485,0.9155272841453552,93.33334350585938,56701.0,1.0
12:01:34.455255,201965.453125,196885.171875,232609.96875,217549.890625,229580.5,177270.265625,-705690.75,182977.921875,-0.000244140625,0.989501953125,-0.208740234375,-1.9531248807907104,-0.03051757626235485,1.0681151151657104,93.33334350585938,56702.0,1.0
12:01:34.458272,201972.78125,196888.75,232621.59375,217554.28125,229601.59375,177275.0,-705688.3125,182986.3125,0.000732421875,0.989990234375,-0.210693359375,-1.9226073026657104,0.03051757626235485,1.1901854276657104,93.33334350585938,56703.0,1.0
12:01:34.460787,201955.078125,196871.140625,232611.75,217555.4375,229563.515625,177251.9375,-705687.1875,182983.1875,0.001708984375,0.988037109375,-0.211181640625,-1.9226073026657104,0.0610351525247097,1.1596678495407104,93.33334350585938,56704.0,1.0
12:01:34.463362,201951.6875,196874.71875,232605.140625,217555.171875,229543.390625,177252.203125,-705682.0625,182978.1875,0.00244140625,0.989013671875,-0.210693359375,-1.9226073026657104,0.0610351525247097,1.0681151151657104,93.33334350585938,56705.0,1.0
12:01:34.469450,201973.328125,196891.078125,232617.125,217559.640625,229577.109375,177271.34375,-705679.5625,182985.515625,0.004150390625,0.98876953125,-0.210205078125,-1.8615721464157104,0.0915527269244194,1.1291502714157104,93.33334350585938,56706.0,1.0
12:01:34.472229,201984.140625,196897.0625,232630.171875,217562.140625,229607.328125,177280.28125,-705681.375,182991.6875,0.00341796875,0.98779296875,-0.207275390625,-1.8920897245407104,0.1220703050494194,1.2207030057907104,93.33334350585938,56707.0,1.0
12:01:34.474475,201965.546875,196879.1875,232622.03125,217560.359375,229576.828125,177259.625,-705680.1875,182985.875,0.003662109375,0.98876953125,-0.20849609375,-1.6784666776657104,0.0610351525247097,1.1901854276657104,93.33334350585938,56708.0,1.0
12:01:34.476995,201958.296875,196877.84375,232613.09375,217559.546875,229550.453125,177256.3125,-705669.75,182979.875,0.003662109375,0.989013671875,-0.210693359375,-1.6784666776657104,0.0915527269244194,1.1901854276657104,93.33334350585938,56709.0,1.0
12:01:34.479559,201977.609375,196894.734375,232622.125,217563.21875,229579.515625,177277.140625,-705669.1875,182984.796875,0.004638671875,0.98828125,-0.209228515625,-1.6174315214157104,0.1525878757238388,1.1901854276657104,93.33334350585938,56710.0,1.0
12:01:34.482168,201988.796875,196901.359375,232632.765625,217562.59375,229611.703125,177287.25,-705673.8125,182988.015625,0.00634765625,0.98583984375,-0.208251953125,-1.5258787870407104,0.1525878757238388,1.0986326932907104,93.33334350585938,56711.0,1.0
12:01:34.484595,201970.015625,196880.703125,232622.9375,217558.125,229585.859375,177266.234375,-705670.0625,182981.578125,0.004638671875,0.985595703125,-0.209716796875,-1.4648436307907104,0.1525878757238388,1.0986326932907104,93.33334350585938,56712.0,1.0
12:01:34.487186,201957.234375,196874.984375,232612.921875,217557.40625,229550.90625,177257.390625,-705672.9375,182977.5625,0.0048828125,0.984130859375,-0.21240234375,-1.3122557401657104,0.1831054538488388,1.0986326932907104,93.33334350585938,56713.0,1.0
12:01:34.491388,201975.640625,196893.3125,232623.203125,217565.28125,229575.21875,177276.875,-705674.0,182986.40625,0.005615234375,0.983154296875,-0.2138671875,-1.2817381620407104,0.2136230319738388,1.0986326932907104,93.33334350585938,56714.0,1.0
12:01:34.519684,201992.640625,196905.109375,232637.140625,217569.296875,229615.28125,177292.703125,-705673.5,182996.328125,0.005859375,0.983642578125,-0.21533203125,-1.1596678495407104,0.1525878757238388,1.0986326932907104,93.33334350585938,56715.0,1.0
12:01:34.523600,201977.875,196890.09375,232631.328125,217566.4375,229600.078125,177275.625,-705679.9375,182992.21875,0.007080078125,0.982177734375,-0.215087890625,-1.1596678495407104,0.2441406100988388,0.9155272841453552,93.33334350585938,56716.0,1.0
12:01:34.523676,201960.890625,196876.3125,232616.765625,217563.578125,229557.34375,177258.1875,-705682.0625,182984.53125,0.00732421875,0.982177734375,-0.211669921875,-0.8544921278953552,0.2746581733226776,0.9155272841453552,93.33334350585938,56717.0,1.0
12:01:34.528268,201970.28125,196887.578125,232616.40625,217562.6875,229564.671875,177270.359375,-705680.375,182981.40625,0.009765625,0.980712890625,-0.213134765625,-0.8239745497703552,0.3967284858226776,0.9155272841453552,93.33334350585938,56718.0,1.0
12:01:34.531408,201989.234375,196900.015625,232627.9375,217563.9375,229603.03125,177286.984375,-705681.0625,182988.46875,0.0078125,0.982666015625,-0.214111328125,-0.6103515028953552,0.4272460639476776,0.9460448622703552,93.33334350585938,56719.0,1.0
12:01:34.531465,201983.15625,196891.515625,232628.5625,217563.9375,229600.703125,177277.328125,-705677.625,182986.953125,0.0068359375,0.983154296875,-0.211669921875,-0.4272460639476776,0.5187987685203552,0.9460448622703552,93.33334350585938,56720.0,1.0
12:01:34.533299,201964.921875,196875.875,232614.703125,217561.703125,229555.203125,177256.765625,-705677.625,182980.421875,0.010009765625,0.983154296875,-0.21728515625,-0.3356933295726776,0.6408690810203552,0.8850097060203552,93.33334350585938,56721.0,1.0
12:01:34.536506,201967.59375,196884.28125,232611.75,217557.859375,229552.25,177265.078125,-705678.9375,182975.234375,0.009033203125,0.980712890625,-0.216796875,-0.2441406100988388,0.6408690810203552,0.8850097060203552,93.33334350585938,56722.0,1.0
12:01:34.536688,201990.40625,196903.234375,232627.765625,217563.75,229596.765625,177288.5,-705682.8125,182985.34375,0.00732421875,0.9833984375,-0.216796875,-0.1525878757238388,0.6713866591453552,0.7629393935203552,93.33334350585938,56723.0,1.0
12:01:34.538414,201986.5625,196897.78125,232631.0625,217562.328125,229606.515625,177284.203125,-705686.1875,182986.59375,0.004638671875,0.986328125,-0.21533203125,-0.03051757626235485,0.7324218153953552,0.6408690810203552,93.33334350585938,56724.0,1.0
12:01:34.540780,201966.703125,196878.375,232617.03125,217560.0,229562.34375,177260.078125,-705684.5,182980.0625,0.002685546875,0.9873046875,-0.21337890625,-0.03051757626235485,0.8544921278953552,0.3662109076976776,93.33334350585938,56725.0,1.0
12:01:34.543233,201967.421875,196885.96875,232613.359375,217559.28125,229552.6875,177267.578125,-705686.375,182976.390625,0.001220703125,0.99169921875,-0.2119140625,-0.1220703050494194,0.8544921278953552,0.2746581733226776,93.33334350585938,56726.0,1.0
12:01:34.545799,201988.609375,196904.484375,232625.609375,217561.609375,229591.40625,177288.59375,-705684.0625,182984.265625,-0.000732421875,0.993896484375,-0.214111328125,-0.0610351525247097,0.7934569716453552,0.2441406100988388,93.33334350585938,56727.0,1.0
12:01:34.548244,201986.828125,196902.34375,232629.90625,217556.78125,229609.015625,177287.703125,-705677.0,182984.890625,-0.000732421875,0.99609375,-0.213623046875,-0.2441406100988388,0.6713866591453552,0.1525878757238388,93.33334350585938,56728.0,1.0
12:01:34.550667,201966.265625,196882.3125,232616.765625,217554.8125,229570.390625,177264.0,-705671.5,182978.625,0.001220703125,0.99755859375,-0.213623046875,-0.3967284858226776,0.7019042372703552,-0.03051757626235485,93.33334350585938,56729.0,1.0
12:01:34.553236,201962.859375,196884.546875,232610.40625,217555.53125,229550.640625,177265.703125,-705679.1875,182974.078125,0.001220703125,1.0,-0.2158203125,-0.5187987685203552,0.4882812201976776,0.03051757626235485,93.33334350585938,56730.0,1.0
12:01:34.556414,201985.296875,196903.671875,232624.0,217561.78125,229588.015625,177287.15625,-705673.8125,182983.734375,0.0009765625,0.99951171875,-0.216064453125,-0.7019042372703552,0.4577636420726776,0.03051757626235485,93.33334350585938,56731.0,1.0
12:01:34.556442,201993.265625,196907.4375,232633.296875,217561.96875,229614.828125,177293.328125,-705679.5625,182989.0,0.001953125,0.999755859375,-0.2138671875,-0.8850097060203552,0.3967284858226776,0.03051757626235485,93.33334350585938,56732.0,1.0
12:01:34.558513,201972.421875,196885.703125,232621.859375,217559.46875,229581.84375,177268.921875,-705681.625,182984.4375,0.004150390625,1.000244140625,-0.21435546875,-1.0681151151657104,0.5187987685203552,0.0,93.33334350585938,56733.0,1.0
12:01:34.564497,201961.703125,196879.984375,232610.0625,217556.875,229551.265625,177261.859375,-705679.5625,182976.9375,0.005615234375,0.999755859375,-0.213623046875,-1.1901854276657104,0.6103515028953552,0.0,93.33334350585938,56734.0,1.0
12:01:34.564529,201982.984375,196898.84375,232620.515625,217561.15625,229580.859375,177281.625,-705676.4375,182984.625,0.00732421875,0.999267578125,-0.212646484375,-1.3732908964157104,0.6408690810203552,0.3051757514476776,93.33334350585938,56735.0,1.0
12:01:34.564535,202001.484375,196911.640625,232637.765625,217568.140625,229621.8125,177297.984375,-705682.4375,182997.765625,0.006591796875,0.998779296875,-0.21240234375,-1.4953612089157104,0.5798339247703552,0.3662109076976776,93.33334350585938,56736.0,1.0
12:01:34.567056,201982.078125,196890.984375,232631.6875,217565.984375,229600.171875,177278.578125,-705679.625,182995.796875,0.00634765625,0.998046875,-0.214599609375,-1.6174315214157104,0.6713866591453552,0.4577636420726776,93.33334350585938,56737.0,1.0
12:01:34.570127,201965.90625,196882.21875,232617.03125,217558.5625,229558.953125,177264.359375,-705680.75,182985.515625,0.0048828125,0.99658203125,-0.214111328125,-1.6784666776657104,0.7019042372703552,0.7019042372703552,93.33334350585938,56738.0,1.0
12:01:34.570146,201984.59375,196904.21875,232622.484375,217560.359375,229575.3125,177282.6875,-705678.125,182983.546875,0.005859375,0.99462890625,-0.215087890625,-1.8615721464157104,0.7019042372703552,0.7019042372703552,93.33334350585938,56739.0,1.0
12:01:34.572533,202004.25,196914.234375,232639.828125,217568.5,229618.234375,177297.4375,-705671.0625,182995.796875,0.001708984375,0.99267578125,-0.215087890625,-1.9226073026657104,0.8239745497703552,0.7629393935203552,93.33334350585938,56740.0,1.0
12:01:34.572543,201992.015625,196899.921875,232639.5625,217568.21875,229610.0,177282.953125,-705671.6875,182996.953125,0.0009765625,0.992919921875,-0.212158203125,-2.136230230331421,0.7629393935203552,0.7629393935203552,93.33334350585938,56741.0,1.0
12:01:34.574523,201974.9375,196887.234375,232625.96875,217567.234375,229569.0625,177266.6875,-705675.625,182990.171875,-0.000732421875,0.991943359375,-0.214599609375,-2.166747808456421,0.7629393935203552,0.8239745497703552,93.33334350585938,56742.0,1.0
12:01:34.577055,201984.234375,196901.71875,232628.203125,217569.75,229579.875,177284.125,-705671.25,182992.21875,-0.00341796875,0.99169921875,-0.21484375,-2.258300542831421,0.6713866591453552,0.9155272841453552,93.33334350585938,56743.0,1.0
12:01:34.581223,202004.34375,196916.90625,232642.15625,217574.21875,229621.71875,177302.1875,-705662.25,183002.953125,-0.003173828125,0.99169921875,-0.214111328125,-2.258300542831421,0.6713866591453552,0.9460448622703552,93.33334350585938,56744.0,1.0
12:01:34.581236,201994.421875,196904.390625,232640.0,217571.359375,229617.96875,177290.375,-705660.625,182999.90625,-0.002685546875,0.99072265625,-0.21337890625,-2.227782964706421,0.4882812201976776,1.0070799589157104,93.33334350585938,56745.0,1.0
12:01:34.595821,201971.171875,196885.265625,232623.90625,217567.234375,229572.8125,177270.625,-705667.75,182992.671875,-0.002685546875,0.989501953125,-0.212158203125,-2.258300542831421,0.4882812201976776,1.0681151151657104,93.33334350585938,56746.0,1.0
12:01:34.598803,201974.03125,196895.90625,232621.234375,217563.671875,229571.296875,177281.34375,-705670.625,182988.28125,-0.0029296875,0.989013671875,-0.212890625,-2.288818120956421,0.3356933295726776,1.1291502714157104,93.33334350585938,56747.0,1.0
12:01:34.598813,201998.359375,196914.765625,232636.4375,217568.671875,229614.65625,177302.453125,-705667.875,182999.109375,-0.0029296875,0.989013671875,-0.212646484375,-2.349853277206421,0.2441406100988388,1.2512205839157104,93.33334350585938,56748.0,1.0
12:01:34.600652,201994.78125,196908.421875,232639.5625,217566.171875,229622.4375,177295.75,-705668.5625,182999.375,-0.00341796875,0.988525390625,-0.212646484375,-2.349853277206421,0.0610351525247097,1.2207030057907104,93.33334350585938,56749.0,1.0
12:01:34.603240,201972.96875,196885.796875,232625.25,217562.59375,229577.546875,177268.203125,-705666.875,182990.875,-0.00146484375,0.987548828125,-0.208984375,-2.349853277206421,-0.03051757626235485,1.0986326932907104,93.33334350585938,56750.0,1.0
12:01:34.610670,201970.015625,196889.015625,232617.5625,217559.28125,229562.53125,177269.90625,-705667.5,182983.09375,0.0,0.988525390625,-0.21337890625,-2.319335699081421,-0.0915527269244194,1.1596678495407104,93.33334350585938,56751.0,1.0
12:01:34.618767,201986.109375,196902.0625,232625.4375,217559.90625,229595.25,177285.90625,-705672.25,182987.921875,0.001953125,0.988525390625,-0.212646484375,-2.288818120956421,-0.1220703050494194,1.0681151151657104,93.33334350585938,56752.0,1.0
12:01:34.618787,201988.34375,196902.15625,232632.234375,217558.65625,229615.1875,177288.40625,-705664.375,182991.859375,0.003662109375,0.98681640625,-0.213623046875,-2.227782964706421,-0.2136230319738388,1.0681151151657104,93.33334350585938,56753.0,1.0
12:01:34.621260,201966.625,196878.828125,232618.453125,217555.703125,229575.140625,177264.453125,-705661.0625,182986.140625,0.005615234375,0.98828125,-0.212890625,-2.166747808456421,-0.2136230319738388,1.2512205839157104,93.33334350585938,56754.0,1.0
12:01:34.621263,201959.546875,196877.125,232610.140625,217554.71875,229553.140625,177261.953125,-705666.625,182981.9375,0.006591796875,0.986328125,-0.214599609375,-2.105712652206421,-0.2136230319738388,1.1291502714157104,93.33334350585938,56755.0,1.0
12:01:34.632007,201978.59375,196893.21875,232619.625,217557.234375,229585.953125,177279.109375,-705668.1875,182987.921875,0.00634765625,0.98583984375,-0.209716796875,-2.044677495956421,-0.1831054538488388,1.1596678495407104,93.33334350585938,56756.0,1.0
12:01:34.648183,201986.375,196896.703125,232628.296875,217556.609375,229613.84375,177285.109375,-705671.875,182991.328125,0.00537109375,0.9853515625,-0.208984375,-2.014159917831421,-0.1220703050494194,1.1596678495407104,93.33334350585938,56757.0,1.0
12:01:34.648196,201965.8125,196876.046875,232617.390625,217554.09375,229580.328125,177261.234375,-705681.8125,182986.40625,0.005615234375,0.9853515625,-0.209716796875,-2.014159917831421,-0.1831054538488388,1.1901854276657104,93.33334350585938,56758.0,1.0
12:01:34.648198,201955.0,196872.296875,232605.9375,217551.140625,229547.6875,177254.34375,-705679.9375,182978.90625,0.0068359375,0.987548828125,-0.208740234375,-1.9226073026657104,-0.1525878757238388,1.0986326932907104,93.33334350585938,56759.0,1.0
12:01:34.650676,201975.109375,196889.734375,232616.3125,217556.78125,229576.65625,177273.578125,-705671.4375,182985.96875,0.006591796875,0.988037109375,-0.208251953125,-1.8920897245407104,-0.0610351525247097,1.1596678495407104,93.33334350585938,56760.0,1.0
12:01:34.653189,201988.515625,196898.578125,232629.015625,217559.375,229612.6875,177285.109375,-705677.625,182994.546875,0.006591796875,0.989990234375,-0.2109375,-1.8615721464157104,0.0,1.0986326932907104,93.33334350585938,56761.0,1.0
12:01:34.655627,201971.171875,196880.515625,232621.40625,217555.96875,229590.6875,177266.59375,-705686.625,182991.5,0.007568359375,0.989013671875,-0.210693359375,-1.8005369901657104,0.03051757626235485,1.0375975370407104,93.33334350585938,56762.0,1.0
12:01:34.658725,201954.71875,196869.34375,232607.1875,217552.9375,229551.71875,177251.484375,-705691.625,182985.515625,0.0068359375,0.98828125,-0.214111328125,-1.7700194120407104,0.0610351525247097,1.0986326932907104,93.33334350585938,56763.0,1.0
12:01:34.658736,201969.5625,196884.09375,232611.484375,217556.0625,229570.671875,177268.203125,-705690.8125,182989.53125,0.0068359375,0.98876953125,-0.2119140625,-1.7395018339157104,0.1525878757238388,1.0986326932907104,93.33334350585938,56764.0,1.0
12:01:34.668241,201985.484375,196895.28125,232624.625,217559.015625,229610.265625,177284.03125,-705688.125,182998.484375,0.0068359375,0.990234375,-0.211669921875,-1.6479490995407104,0.1220703050494194,0.9460448622703552,93.33334350585938,56765.0,1.0
12:01:34.673782,201972.25,196882.40625,232620.15625,217555.890625,229597.3125,177268.921875,-705689.6875,182995.0,0.00732421875,0.989501953125,-0.21435546875,-1.6479490995407104,0.1220703050494194,0.9460448622703552,93.33334350585938,56766.0,1.0
12:01:34.673797,201953.390625,196867.5625,232604.953125,217553.296875,229553.859375,177251.125,-705692.0625,182986.953125,0.006591796875,0.98876953125,-0.210693359375,-1.5869139432907104,0.1220703050494194,0.7324218153953552,93.33334350585938,56767.0,1.0
12:01:34.675761,201964.734375,196883.390625,232609.34375,217555.625,229563.25,177268.03125,-705692.375,182985.96875,0.00537109375,0.989501953125,-0.2099609375,-1.4953612089157104,0.0610351525247097,0.7629393935203552,93.33334350585938,56768.0,1.0
12:01:34.691344,201987.890625,196900.90625,232625.25,217559.734375,229605.71875,177288.765625,-705683.5625,182994.09375,0.004638671875,0.9873046875,-0.21337890625,-1.4343260526657104,0.0915527269244194,0.7019042372703552,93.33334350585938,56769.0,1.0
12:01:34.691368,201984.765625,196895.28125,232629.015625,217561.515625,229609.203125,177282.15625,-705685.3125,182996.421875,0.008056640625,0.98681640625,-0.215087890625,-1.4343260526657104,0.1220703050494194,0.6103515028953552,93.33334350585938,56770.0,1.0
12:01:34.693853,201965.546875,196880.4375,232616.140625,217560.171875,229566.015625,177263.203125,-705688.125,182990.609375,0.0087890625,0.987548828125,-0.21484375,-1.2817381620407104,0.2441406100988388,0.6408690810203552,93.33334350585938,56771.0,1.0
12:01:34.693865,201970.375,196891.078125,232614.53125,217558.296875,229563.515625,177273.125,-705682.8125,182986.234375,0.0078125,0.989013671875,-0.21484375,-1.2512205839157104,0.2746581733226776,0.6408690810203552,93.33334350585938,56772.0,1.0
12:01:34.695647,201995.765625,196910.734375,232631.0625,217564.203125,229606.34375,177294.765625,-705671.25,182996.875,0.008056640625,0.990478515625,-0.21484375,-1.1901854276657104,0.3356933295726776,0.5493163466453552,93.33334350585938,56773.0,1.0
12:01:34.699392,201995.40625,196908.0625,232635.984375,217563.578125,229618.5,177292.171875,-705670.6875,182998.484375,0.007568359375,0.98779296875,-0.215576171875,-1.1596678495407104,0.3662109076976776,0.5493163466453552,93.33334350585938,56774.0,1.0
12:01:34.709623,201971.984375,196885.703125,232619.171875,217558.390625,229573.96875,177266.421875,-705680.75,182989.984375,0.0087890625,0.98681640625,-0.213623046875,-1.2207030057907104,0.3967284858226776,0.5798339247703552,93.33334350585938,56775.0,1.0
12:01:34.712527,201967.15625,196887.234375,232610.140625,217554.09375,229557.609375,177267.140625,-705688.125,182982.921875,0.008544921875,0.985595703125,-0.216064453125,-1.0986326932907104,0.4272460639476776,0.4577636420726776,93.33334350585938,56776.0,1.0
