Timestamp,Fz,FC3,FCz,FC4,Cz,C3,C4
12:04:45.677350,202508.0625,197403.828125,226113.921875,212902.703125,225586.328125,178823.890625,-705680.375,182319.96875,0.015380859375,0.986328125,-0.22900390625,-1.5869139432907104,-0.2441406100988388,0.8239745497703552,93.33334350585938,104553.0,1.0
12:04:45.680522,202489.921875,197385.5,226104.09375,212899.75,225559.25,178804.046875,-705678.6875,182316.03125,0.015869140625,0.986083984375,-0.22607421875,-1.5563963651657104,-0.2136230319738388,0.8239745497703552,93.33334350585938,104554.0,1.0
12:04:45.680530,202477.125,197375.65625,226090.5,212897.609375,225520.34375,178789.015625,-705680.4375,182308.34375,0.015869140625,0.9873046875,-0.2255859375,-1.6784666776657104,-0.2136230319738388,0.7019042372703552,93.33334350585938,104555.0,1.0
12:04:45.682352,202495.453125,197392.375,226099.890625,212903.140625,225545.03125,178809.40625,-705677.875,182315.59375,0.01611328125,0.98828125,-0.2275390625,-1.6784666776657104,-0.0915527269244194,0.7019042372703552,93.33334350585938,104556.0,1.0
12:04:45.685393,202512.453125,197402.5625,226113.828125,212906.90625,225585.078125,178823.703125,-705679.1875,182327.03125,0.0185546875,0.988037109375,-0.22607421875,-1.6479490995407104,-0.03051757626235485,0.6103515028953552,93.33334350585938,104557.0,1.0
12:04:45.685399,202498.40625,197390.328125,226107.03125,212904.75,225567.921875,178809.40625,-705681.375,182323.453125,0.017822265625,0.98779296875,-0.22802734375,-1.6784666776657104,-0.0610351525247097,0.6103515028953552,93.33334350585938,104558.0,1.0
12:04:45.687592,202482.765625,197379.59375,226094.515625,212904.3125,225528.046875,178795.015625,-705679.1875,182317.640625,0.0185546875,0.98828125,-0.2255859375,-1.6479490995407104,-0.0915527269244194,0.6103515028953552,93.33334350585938,104559.0,1.0
12:04:45.691053,202493.21875,197389.0625,226098.453125,212907.625,225540.90625,178807.171875,-705681.4375,182318.984375,0.017333984375,0.987548828125,-0.226318359375,-1.7089842557907104,-0.0915527269244194,0.3967284858226776,93.33334350585938,104560.0,1.0
12:04:45.701667,202510.65625,197401.59375,226110.53125,212906.90625,225579.71875,178823.890625,-705678.5625,182322.828125,0.01708984375,0.98779296875,-0.226806640625,-1.7700194120407104,-0.0915527269244194,0.5187987685203552,93.33334350585938,104561.0,1.0
12:04:45.701681,202506.1875,197396.125,226113.46875,212910.921875,225580.15625,178819.15625,-705680.1875,182327.125,0.016357421875,0.986083984375,-0.22705078125,-1.7700194120407104,-0.0915527269244194,0.5493163466453552,93.33334350585938,104562.0,1.0
12:04:45.707913,202484.8125,197376.28125,226096.9375,212906.015625,225534.296875,178793.3125,-705686.375,182317.109375,0.01318359375,0.98779296875,-0.222900390625,-1.8005369901657104,0.03051757626235485,0.4882812201976776,93.33334350585938,104563.0,1.0
12:04:45.707922,202489.203125,197386.03125,226096.3125,212901.53125,225534.390625,178802.703125,-705681.0,182310.671875,0.0146484375,0.989013671875,-0.223876953125,-1.9226073026657104,-0.03051757626235485,0.3356933295726776,93.33334350585938,104564.0,1.0
12:04:45.711139,202513.15625,197404.0,226112.84375,212906.71875,225576.40625,178824.96875,-705676.25,182321.578125,0.014404296875,0.989013671875,-0.226318359375,-1.9836424589157104,-0.0610351525247097,0.4272460639476776,93.33334350585938,104565.0,1.0
12:04:45.717390,202510.84375,197400.515625,226117.59375,212906.90625,225585.078125,178825.3125,-705679.8125,182322.828125,0.013916015625,0.9912109375,-0.22802734375,-2.075195074081421,0.1525878757238388,0.3662109076976776,93.33334350585938,104566.0,1.0
12:04:45.724203,202488.3125,197382.28125,226103.015625,212903.234375,225543.859375,178804.484375,-705674.1875,182315.765625,0.015869140625,0.9921875,-0.225830078125,-2.075195074081421,0.1220703050494194,0.2746581733226776,93.33334350585938,104567.0,1.0
12:04:45.724210,202489.015625,197387.546875,226098.8125,212903.78125,225535.90625,178807.609375,-705676.25,182313.625,0.013916015625,0.990234375,-0.22802734375,-2.258300542831421,0.1220703050494194,0.1525878757238388,93.33334350585938,104568.0,1.0
12:04:45.726660,202509.765625,197404.0,226110.609375,212907.625,225572.75,178827.015625,-705673.75,182322.390625,0.01416015625,0.99169921875,-0.226318359375,-2.288818120956421,0.0610351525247097,0.0610351525247097,93.33334350585938,104569.0,1.0
12:04:45.726669,202511.546875,197404.625,226116.78125,212908.875,225590.171875,178829.15625,-705677.25,182325.25,0.013916015625,0.99072265625,-0.2236328125,-2.410888433456421,0.0610351525247097,0.0610351525247097,93.33334350585938,104570.0,1.0
12:04:45.736099,202489.375,197382.71875,226102.921875,212906.984375,225551.828125,178804.671875,-705678.125,182318.890625,0.01220703125,0.990234375,-0.22314453125,-2.471923589706421,0.0915527269244194,0.0915527269244194,93.33334350585938,104571.0,1.0
12:04:45.740458,202483.203125,197383.171875,226094.96875,212901.53125,225531.703125,178804.671875,-705680.1875,182308.609375,0.0146484375,0.991943359375,-0.2236328125,-2.624511480331421,0.03051757626235485,0.0610351525247097,93.33334350585938,104572.0,1.0
12:04:45.740469,202505.5625,197401.671875,226108.5625,212908.953125,225566.3125,178825.765625,-705682.9375,182319.703125,0.012939453125,0.991455078125,-0.223388671875,-2.716064214706421,-0.1220703050494194,0.03051757626235485,93.33334350585938,104573.0,1.0
12:04:45.742310,202515.390625,197407.84375,226119.5625,212911.546875,225592.859375,178835.59375,-705679.8125,182327.484375,0.010498046875,0.991943359375,-0.222900390625,-2.716064214706421,-0.0915527269244194,-0.0610351525247097,93.33334350585938,104574.0,1.0
12:04:45.758076,202495.453125,197388.625,226108.296875,212910.03125,225561.203125,178812.09375,-705678.0625,182323.546875,0.0107421875,0.99267578125,-0.220947265625,-2.777099370956421,-0.0915527269244194,0.03051757626235485,93.33334350585938,104575.0,1.0
12:04:45.758093,202483.484375,197381.296875,226097.5625,212905.828125,225532.421875,178801.625,-705673.5625,182316.921875,0.010986328125,0.993408203125,-0.2216796875,-2.746581792831421,-0.1220703050494194,0.03051757626235485,93.33334350585938,104576.0,1.0
12:04:45.759891,202494.203125,197390.140625,226099.625,212902.96875,225554.421875,178815.578125,-705674.625,182318.453125,0.00927734375,0.990966796875,-0.21923828125,-2.777099370956421,-0.2746581733226776,0.1831054538488388,93.33334350585938,104577.0,1.0
12:04:45.762350,202491.53125,197381.65625,226096.84375,212891.53125,225571.9375,178810.921875,-705681.4375,182313.53125,0.010009765625,0.9912109375,-0.2197265625,-2.838134527206421,-0.2136230319738388,0.1831054538488388,93.33334350585938,104578.0,1.0
12:04:45.773070,202467.296875,197354.5625,226081.109375,212883.125,225540.015625,178780.609375,-705685.3125,182303.34375,0.009521484375,0.98974609375,-0.2197265625,-2.807616949081421,-0.2441406100988388,0.2441406100988388,93.33334350585938,104579.0,1.0
12:04:45.773144,202451.65625,197343.46875,226064.21875,212877.671875,225500.953125,178765.328125,-705684.3125,182291.71875,0.010009765625,0.986572265625,-0.220458984375,-2.807616949081421,-0.3967284858226776,0.2136230319738388,93.33334350585938,104580.0,1.0
12:04:45.775447,202463.984375,197354.828125,226067.609375,212879.0,225516.234375,178777.3125,-705682.0625,182290.640625,0.01025390625,0.987060546875,-0.21923828125,-2.807616949081421,-0.3356933295726776,0.3356933295726776,93.33334350585938,104581.0,1.0
12:04:45.775458,202479.09375,197363.140625,226078.875,212880.703125,225550.03125,178786.6875,-705685.625,182296.90625,0.010986328125,0.98828125,-0.22021484375,-2.838134527206421,-0.2746581733226776,0.3967284858226776,93.33334350585938,104582.0,1.0
12:04:45.781112,202468.8125,197352.765625,226075.921875,212880.4375,225536.796875,178774.0,-705689.9375,182295.46875,0.0107421875,0.987548828125,-0.21875,-2.777099370956421,-0.3662109076976776,0.4882812201976776,93.33334350585938,104583.0,1.0
12:04:45.791807,202460.5,197350.09375,226072.078125,212887.765625,225506.21875,178768.359375,-705691.0,182297.53125,0.011474609375,0.986572265625,-0.22021484375,-2.655029058456421,-0.3967284858226776,0.6103515028953552,93.33334350585938,104584.0,1.0
12:04:45.791815,202475.25,197367.609375,226078.78125,212890.546875,225520.0,178786.25,-705682.9375,182297.625,0.012451171875,0.985107421875,-0.22021484375,-2.777099370956421,-0.3662109076976776,0.5798339247703552,93.33334350585938,104585.0,1.0
12:04:45.794178,202498.328125,197384.15625,226094.703125,212893.765625,225560.859375,178804.75,-705675.8125,182305.21875,0.0107421875,0.9873046875,-0.219482421875,-2.838134527206421,-0.4577636420726776,0.6713866591453552,93.33334350585938,104586.0,1.0
12:04:45.794183,202493.765625,197378.4375,226099.34375,212896.53125,225562.734375,178799.5625,-705675.0,182309.78125,0.010009765625,0.9892578125,-0.219482421875,-2.777099370956421,-0.4577636420726776,0.7019042372703552,93.33334350585938,104587.0,1.0
12:04:45.803608,202472.75,197361.078125,226083.96875,212893.140625,225520.078125,178780.796875,-705678.5625,182304.5,0.0126953125,0.987060546875,-0.221923828125,-2.655029058456421,-0.5187987685203552,0.8239745497703552,93.33334350585938,104588.0,1.0
12:04:45.806726,202477.84375,197372.53125,226082.453125,212891.171875,225520.4375,178792.0625,-705675.0,182301.640625,0.01220703125,0.9892578125,-0.218017578125,-2.593993902206421,-0.4882812201976776,0.7324218153953552,93.33334350585938,104589.0,1.0
12:04:45.806734,202499.484375,197386.828125,226095.5,212892.859375,225559.6875,178807.078125,-705676.0,182309.6875,0.011474609375,0.989013671875,-0.21728515625,-2.563476324081421,-0.5493163466453552,0.8239745497703552,93.33334350585938,104590.0,1.0
12:04:45.809879,202499.296875,197386.5625,226104.09375,212895.375,225574.359375,178808.875,-705671.9375,182314.78125,0.0107421875,0.986083984375,-0.218994140625,-2.502441167831421,-0.5493163466453552,0.7934569716453552,93.33334350585938,104591.0,1.0
12:04:45.819886,202479.015625,197370.203125,226092.46875,212895.546875,225535.734375,178790.359375,-705672.0625,182309.859375,0.010498046875,0.98388671875,-0.218505859375,-2.471923589706421,-0.5798339247703552,0.7324218153953552,93.33334350585938,104592.0,1.0
12:04:45.822994,202478.46875,197374.859375,226087.546875,212895.546875,225525.890625,178795.546875,-705675.375,182305.84375,0.01171875,0.985595703125,-0.2158203125,-2.410888433456421,-0.5187987685203552,0.7629393935203552,93.33334350585938,104593.0,1.0
12:04:45.823001,202498.5,197391.03125,226099.703125,212898.953125,225562.8125,178815.21875,-705674.9375,182314.15625,0.012451171875,0.982666015625,-0.2177734375,-2.258300542831421,-0.4882812201976776,0.7629393935203552,93.33334350585938,104594.0,1.0
12:04:45.824870,202502.703125,197394.34375,226107.578125,212900.46875,225583.296875,178819.59375,-705674.4375,182318.71875,0.01123046875,0.981689453125,-0.21435546875,-2.197265386581421,-0.5187987685203552,0.7629393935203552,93.33334350585938,104595.0,1.0
12:04:45.845210,202486.515625,197379.40625,226099.265625,212899.125,225548.6875,178801.265625,-705669.625,182314.875,0.01416015625,0.980224609375,-0.215576171875,-2.105712652206421,-0.5493163466453552,0.7324218153953552,93.33334350585938,104596.0,1.0
12:04:45.845231,202480.796875,197381.375,226093.0,212897.15625,225528.046875,178800.90625,-705672.4375,182309.421875,0.014404296875,0.97998046875,-0.219970703125,-1.9531248807907104,-0.4577636420726776,0.7629393935203552,93.33334350585938,104597.0,1.0
12:04:45.845235,202500.015625,197397.921875,226103.375,212901.1875,225559.6875,178820.40625,-705671.25,182316.75,0.015380859375,0.978759765625,-0.22021484375,-1.7700194120407104,-0.4272460639476776,0.7629393935203552,93.33334350585938,104598.0,1.0
12:04:45.882986,202506.015625,197401.3125,226111.421875,212898.765625,225585.34375,178827.46875,-705671.8125,182318.1875,0.013916015625,0.981201171875,-0.2216796875,-1.6784666776657104,-0.4577636420726776,0.7019042372703552,93.33334350585938,104599.0,1.0
12:04:45.883004,202485.71875,197380.3125,226101.140625,212897.15625,225555.390625,178804.9375,-705668.5625,182314.609375,0.015869140625,0.980712890625,-0.22021484375,-1.5258787870407104,-0.4272460639476776,0.6713866591453552,93.33334350585938,104600.0,1.0
12:04:45.884817,202475.34375,197376.109375,226091.21875,212893.9375,225525.71875,178799.21875,-705660.0625,182308.796875,0.016845703125,0.979736328125,-0.22119140625,-1.2207030057907104,-0.3662109076976776,0.7934569716453552,93.33334350585938,104601.0,1.0
12:04:45.887321,202495.28125,197393.8125,226099.890625,212898.671875,225552.0,178817.359375,-705656.3125,182313.625,0.018798828125,0.980224609375,-0.219482421875,-1.1901854276657104,-0.3051757514476776,0.7934569716453552,93.33334350585938,104602.0,1.0
12:04:45.889862,202507.53125,197403.828125,226111.421875,212898.59375,225585.265625,178830.59375,-705662.5625,182318.8125,0.018798828125,0.978515625,-0.220947265625,-0.9460448622703552,-0.2136230319738388,0.6103515028953552,93.33334350585938,104603.0,1.0
12:04:45.892327,202490.0,197386.390625,226103.90625,212896.359375,225562.546875,178808.421875,-705669.75,182313.359375,0.017822265625,0.978759765625,-0.21875,-0.8544921278953552,-0.1525878757238388,0.6408690810203552,93.33334350585938,104604.0,1.0
12:04:45.894860,202473.640625,197375.65625,226089.78125,212893.3125,225525.71875,178796.625,-705671.1875,182304.953125,0.016845703125,0.979248046875,-0.220947265625,-0.6408690810203552,0.0,0.5187987685203552,93.33334350585938,104605.0,1.0
12:04:45.897294,202487.59375,197390.859375,226094.25,212894.65625,225544.484375,178814.765625,-705665.6875,182308.171875,0.01611328125,0.982666015625,-0.220458984375,-0.5187987685203552,0.0915527269244194,0.3967284858226776,93.33334350585938,104606.0,1.0
12:04:45.899842,202504.40625,197401.765625,226106.140625,212897.515625,225581.328125,178827.640625,-705655.8125,182315.59375,0.0126953125,0.984375,-0.220947265625,-0.4272460639476776,0.1831054538488388,0.3051757514476776,93.33334350585938,104607.0,1.0
12:04:45.902383,202492.234375,197390.59375,226102.484375,212893.578125,225568.984375,178816.28125,-705649.875,182312.28125,0.011962890625,0.98779296875,-0.221435546875,-0.4577636420726776,0.2746581733226776,0.1220703050494194,93.33334350585938,104608.0,1.0
12:04:45.904878,202474.265625,197375.03125,226086.65625,212887.5,225526.78125,178798.59375,-705655.125,182304.234375,0.009521484375,0.989501953125,-0.221435546875,-0.4272460639476776,0.1525878757238388,0.0610351525247097,93.33334350585938,104609.0,1.0
12:04:45.907296,202483.03125,197386.390625,226088.984375,212888.390625,225534.5625,178812.4375,-705659.4375,182305.21875,0.009765625,0.992431640625,-0.222412109375,-0.5493163466453552,0.2441406100988388,-0.03051757626235485,93.33334350585938,104610.0,1.0
12:04:45.910352,202501.546875,197398.90625,226102.921875,212892.0625,225572.46875,178826.296875,-705664.875,182314.78125,0.00830078125,0.9951171875,-0.21875,-0.6103515028953552,0.1831054538488388,-0.3051757514476776,93.33334350585938,104611.0,1.0
12:04:45.913092,202491.796875,197388.984375,226102.296875,212887.59375,225571.765625,178816.734375,-705666.75,182310.5,0.010009765625,0.99658203125,-0.218994140625,-0.6408690810203552,0.0915527269244194,-0.3662109076976776,93.33334350585938,104612.0,1.0
12:04:45.913098,202472.921875,197373.0625,226088.265625,212886.78125,225529.5625,178796.703125,-705665.6875,182305.3125,0.01123046875,0.998779296875,-0.21826171875,-0.8544921278953552,0.1220703050494194,-0.3662109076976776,93.33334350585938,104613.0,1.0
12:04:45.915393,202476.0625,197381.109375,226085.21875,212885.890625,225526.515625,178805.734375,-705663.8125,182302.265625,0.013427734375,0.997802734375,-0.218017578125,-1.0070799589157104,0.1831054538488388,-0.3967284858226776,93.33334350585938,104614.0,1.0
12:04:45.915396,202495.015625,197393.890625,226096.484375,212889.921875,225564.078125,178822.015625,-705660.3125,182311.75,0.013916015625,0.997802734375,-0.219970703125,-1.1596678495407104,0.1525878757238388,-0.3967284858226776,93.33334350585938,104615.0,1.0
12:04:45.917364,202491.25,197388.890625,226098.09375,212887.5,225571.84375,178819.59375,-705670.25,182311.65625,0.014892578125,0.99658203125,-0.21923828125,-1.2817381620407104,0.1220703050494194,-0.2136230319738388,93.33334350585938,104616.0,1.0
12:04:45.920398,202474.265625,197371.28125,226085.9375,212888.484375,225533.3125,178796.625,-705681.625,182309.515625,0.01416015625,0.998779296875,-0.223388671875,-1.3732908964157104,0.0915527269244194,-0.1525878757238388,93.33334350585938,104617.0,1.0
12:04:45.920400,202473.203125,197373.875,226078.78125,212884.640625,225518.734375,178796.0,-705688.3125,182302.265625,0.01513671875,0.996337890625,-0.2216796875,-1.5563963651657104,0.1831054538488388,-0.0610351525247097,93.33334350585938,104618.0,1.0
12:04:45.929890,202495.734375,197390.59375,226092.203125,212890.359375,225555.578125,178815.484375,-705687.625,182310.140625,0.0126953125,0.997314453125,-0.221923828125,-1.6784666776657104,0.3356933295726776,0.0610351525247097,93.33334350585938,104619.0,1.0
12:04:45.934271,202500.015625,197393.453125,226100.515625,212889.109375,225576.140625,178820.140625,-705695.1875,182312.546875,0.01416015625,0.995849609375,-0.22119140625,-1.8615721464157104,0.3051757514476776,0.3967284858226776,93.33334350585938,104620.0,1.0
12:04:45.934335,202478.921875,197372.703125,226086.65625,212885.09375,225537.875,178798.765625,-705695.8125,182304.40625,0.0146484375,0.9951171875,-0.22021484375,-2.044677495956421,0.3356933295726776,0.3356933295726776,93.33334350585938,104621.0,1.0
12:04:45.941268,202474.0,197376.109375,226078.875,212883.390625,225514.625,178798.046875,-705687.0625,182298.421875,0.01220703125,0.99365234375,-0.2197265625,-2.136230230331421,0.4272460639476776,0.4577636420726776,93.33334350585938,104622.0,1.0
12:04:45.945677,202494.5625,197396.84375,226090.40625,212890.625,225547.796875,178816.015625,-705673.75,182308.796875,0.010009765625,0.992431640625,-0.22021484375,-2.258300542831421,0.3967284858226776,0.3662109076976776,93.33334350585938,104623.0,1.0
12:04:45.945723,202502.609375,197403.640625,226099.4375,212892.515625,225574.796875,178823.078125,-705676.4375,182314.96875,0.009521484375,0.99365234375,-0.218994140625,-2.319335699081421,0.3967284858226776,0.5493163466453552,93.33334350585938,104624.0,1.0
12:04:45.955432,202483.921875,197386.390625,226089.421875,212888.75,225543.953125,178801.71875,-705682.3125,182306.46875,0.00830078125,0.99267578125,-0.220703125,-2.410888433456421,0.3967284858226776,0.5493163466453552,93.33334350585938,104625.0,1.0
12:04:45.955453,202471.859375,197377.265625,226076.734375,212886.515625,225510.875,178790.8125,-705675.25,182297.171875,0.0078125,0.992919921875,-0.220458984375,-2.349853277206421,0.2746581733226776,0.7019042372703552,93.33334350585938,104626.0,1.0
12:04:45.957410,202491.078125,197395.15625,226087.1875,212893.046875,225537.515625,178811.546875,-705670.625,182304.328125,0.005615234375,0.9892578125,-0.216796875,-2.380370855331421,0.2136230319738388,0.6713866591453552,93.33334350585938,104627.0,1.0
12:04:45.996861,202505.828125,197405.34375,226100.421875,212895.375,225573.8125,178824.0625,-705676.0625,182314.15625,0.00390625,0.991455078125,-0.2216796875,-2.471923589706421,0.2136230319738388,0.7019042372703552,93.33334350585938,104628.0,1.0
12:04:45.996892,202491.609375,197392.46875,226096.046875,212894.390625,225557.09375,178808.953125,-705684.6875,182313.265625,0.0048828125,0.9912109375,-0.21875,-2.532958745956421,0.1525878757238388,0.7324218153953552,93.33334350585938,104629.0,1.0
12:04:46.008708,202474.984375,197380.9375,226083.078125,212890.0,225519.640625,178794.65625,-705676.8125,182306.375,0.00634765625,0.990234375,-0.217529296875,-2.502441167831421,-0.0915527269244194,0.8850097060203552,93.33334350585938,104630.0,1.0
12:04:46.012371,202487.953125,197394.4375,226087.734375,212889.828125,225536.171875,178809.9375,-705677.125,182307.09375,0.007080078125,0.987548828125,-0.21923828125,-2.471923589706421,-0.1525878757238388,0.8850097060203552,93.33334350585938,104631.0,1.0
12:04:46.012384,202507.796875,197410.265625,226104.171875,212895.015625,225577.65625,178829.078125,-705680.5625,182317.5625,0.0068359375,0.98779296875,-0.2177734375,-2.471923589706421,-0.2441406100988388,0.9155272841453552,93.33334350585938,104632.0,1.0
12:04:46.012387,202496.359375,197397.296875,226102.5625,212894.125,225569.875,178812.984375,-705675.5625,182317.640625,0.007568359375,0.986083984375,-0.21630859375,-2.502441167831421,-0.1220703050494194,0.8850097060203552,93.33334350585938,104633.0,1.0
12:04:46.016628,202477.21875,197382.546875,226088.625,212891.171875,225527.859375,178796.078125,-705672.5,182311.03125,0.00830078125,0.98486328125,-0.217529296875,-2.441406011581421,-0.2441406100988388,0.8850097060203552,93.33334350585938,104634.0,1.0
12:04:46.016638,202486.515625,197394.25,226090.859375,212896.703125,225534.75,178808.875,-705673.75,182313.71875,0.010009765625,0.98388671875,-0.21435546875,-2.471923589706421,-0.2746581733226776,1.0070799589157104,93.33334350585938,104635.0,1.0
12:04:46.016640,202504.21875,197404.625,226100.78125,212894.46875,225570.859375,178822.546875,-705669.3125,182317.015625,0.00927734375,0.9833984375,-0.216552734375,-2.380370855331421,-0.3662109076976776,1.0986326932907104,93.33334350585938,104636.0,1.0
12:04:46.016641,202496.171875,197395.953125,226101.671875,212892.859375,225573.640625,178816.46875,-705664.0,182317.203125,0.010986328125,0.984619140625,-0.217529296875,-2.227782964706421,-0.3967284858226776,1.0070799589157104,93.33334350585938,104637.0,1.0
12:04:46.018561,202474.265625,197376.375,226085.671875,212890.8125,225530.453125,178793.765625,-705668.375,182311.03125,0.0107421875,0.98291015625,-0.218017578125,-2.075195074081421,-0.4272460639476776,1.0070799589157104,93.33334350585938,104638.0,1.0
12:04:46.021745,202476.78125,197384.328125,226081.734375,212890.90625,225524.015625,178800.375,-705668.0,182307.453125,0.012451171875,0.983642578125,-0.216796875,-2.044677495956421,-0.3967284858226776,0.9460448622703552,93.33334350585938,104639.0,1.0
12:04:46.021752,202496.984375,197398.453125,226092.5625,212891.96875,225559.875,178817.1875,-705671.3125,182314.15625,0.0126953125,0.985107421875,-0.21533203125,-1.9836424589157104,-0.3051757514476776,0.9460448622703552,93.33334350585938,104640.0,1.0
12:04:46.023676,202492.15625,197392.28125,226092.46875,212886.609375,225569.25,178813.25,-705675.0625,182310.9375,0.012939453125,0.98291015625,-0.21875,-1.8615721464157104,-0.2746581733226776,0.9765624403953552,93.33334350585938,104641.0,1.0
12:04:46.026147,202470.515625,197370.921875,226077.984375,212884.734375,225527.140625,178786.6875,-705681.8125,182305.125,0.01513671875,0.982421875,-0.21630859375,-1.8310545682907104,-0.1831054538488388,1.0375975370407104,93.33334350585938,104642.0,1.0
12:04:46.028621,202470.421875,197377.453125,226075.203125,212886.421875,225513.375,178790.625,-705687.8125,182302.625,0.01513671875,0.98388671875,-0.219482421875,-1.7700194120407104,-0.1220703050494194,0.9460448622703552,93.33334350585938,104643.0,1.0
12:04:46.031242,202491.53125,197392.375,226086.203125,212891.25,225546.28125,178808.234375,-705687.6875,182310.140625,0.01513671875,0.985595703125,-0.220703125,-1.7089842557907104,-0.1831054538488388,0.9460448622703552,93.33334350585938,104644.0,1.0
12:04:46.033576,202499.03125,197394.078125,226095.59375,212892.421875,225568.265625,178810.5625,-705685.0,182314.0625,0.016357421875,0.98583984375,-0.218505859375,-1.6174315214157104,-0.03051757626235485,1.0070799589157104,93.33334350585938,104645.0,1.0
12:04:46.036234,202475.609375,197373.515625,226080.84375,212885.796875,225531.53125,178785.984375,-705686.25,182304.328125,0.01708984375,0.9853515625,-0.220458984375,-1.5869139432907104,-0.03051757626235485,0.9155272841453552,93.33334350585938,104646.0,1.0
12:04:46.040495,202466.84375,197375.21875,226072.890625,212883.203125,225511.140625,178786.15625,-705679.8125,182297.796875,0.016845703125,0.984619140625,-0.22119140625,-1.5563963651657104,-0.03051757626235485,0.9155272841453552,93.33334350585938,104647.0,1.0
12:04:46.040503,202488.484375,197393.984375,226085.140625,212888.21875,225544.578125,178807.96875,-705676.0,182305.03125,0.01513671875,0.985595703125,-0.221923828125,-1.4953612089157104,0.0915527269244194,1.0070799589157104,93.33334350585938,104648.0,1.0
12:04:46.050416,202502.515625,197402.75,226099.0,212893.9375,225576.3125,178819.859375,-705675.5625,182315.40625,0.01708984375,0.984375,-0.219482421875,-1.4038084745407104,0.0915527269244194,0.8850097060203552,93.33334350585938,104649.0,1.0
12:04:46.050425,202481.0625,197380.046875,226087.28125,212890.625,225545.46875,178795.015625,-705681.0,182309.234375,0.015625,0.98486328125,-0.223876953125,-1.3427733182907104,0.2441406100988388,0.6103515028953552,93.33334350585938,104650.0,1.0
12:04:46.053175,202464.25,197369.9375,226070.375,212880.34375,225508.015625,178783.390625,-705688.625,182295.828125,0.01611328125,0.984619140625,-0.224365234375,-1.3122557401657104,0.2136230319738388,0.5798339247703552,93.33334350585938,104651.0,1.0
12:04:46.053186,202482.859375,197387.734375,226077.265625,212883.65625,225530.71875,178803.328125,-705691.25,182299.859375,0.016357421875,0.985107421875,-0.22314453125,-1.2207030057907104,0.2136230319738388,0.6103515028953552,93.33334350585938,104652.0,1.0
12:04:46.066141,202498.671875,197399.53125,226091.125,212886.78125,225567.640625,178819.234375,-705694.25,182308.171875,0.017333984375,0.986328125,-0.221923828125,-1.1291502714157104,0.1831054538488388,0.6713866591453552,93.33334350585938,104653.0,1.0
12:04:46.069258,202487.953125,197387.453125,226089.515625,212889.109375,225553.078125,178803.59375,-705682.6875,182309.953125,0.02001953125,0.985595703125,-0.22216796875,-0.9765624403953552,0.1220703050494194,0.5187987685203552,93.33334350585938,104654.0,1.0
12:04:46.069276,202474.984375,197380.046875,226078.421875,212887.6875,225516.6875,178790.8125,-705690.125,182305.578125,0.01806640625,0.987548828125,-0.224853515625,-0.9765624403953552,0.3051757514476776,0.5187987685203552,93.33334350585938,104655.0,1.0
12:04:46.071091,202486.609375,197394.34375,226082.1875,212887.328125,225531.890625,178805.828125,-705692.0625,182305.84375,0.017333984375,0.987060546875,-0.223388671875,-1.0070799589157104,0.3051757514476776,0.6103515028953552,93.33334350585938,104656.0,1.0
12:04:46.081107,202502.34375,197403.375,226093.09375,212889.5625,225568.71875,178819.859375,-705690.625,182314.609375,0.016845703125,0.98681640625,-0.222900390625,-0.9765624403953552,0.3662109076976776,0.3662109076976776,93.33334350585938,104657.0,1.0
12:04:46.085392,202490.984375,197388.796875,226090.5,212888.03125,225560.3125,178805.109375,-705690.8125,182313.171875,0.01513671875,0.988525390625,-0.224365234375,-0.8239745497703552,0.5187987685203552,0.3662109076976776,93.33334350585938,104658.0,1.0
12:04:46.085397,202472.03125,197374.5,226077.53125,212887.59375,225520.34375,178787.59375,-705690.0,182308.890625,0.01611328125,0.985595703125,-0.2197265625,-0.8850097060203552,0.5187987685203552,0.3662109076976776,93.33334350585938,104659.0,1.0
12:04:46.096262,202480.53125,197385.046875,226078.421875,212889.46875,225525.0,178799.296875,-705682.1875,182309.6875,0.013671875,0.984619140625,-0.21923828125,-0.8850097060203552,0.4577636420726776,0.3356933295726776,93.33334350585938,104660.0,1.0
12:04:46.099195,202498.671875,197396.9375,226088.625,212891.078125,225561.296875,178815.484375,-705684.8125,182316.65625,0.013427734375,0.984375,-0.219482421875,-0.7019042372703552,0.3967284858226776,0.2441406100988388,93.33334350585938,104661.0,1.0
12:04:46.099203,202489.640625,197386.296875,226084.859375,212883.296875,225560.5,178806.0,-705689.25,182309.15625,0.0126953125,0.984130859375,-0.223876953125,-0.6408690810203552,0.3967284858226776,0.2746581733226776,93.33334350585938,104662.0,1.0
12:04:46.101102,202467.390625,197366.0,226068.328125,212879.1875,225516.421875,178782.21875,-705693.6875,182302.453125,0.013427734375,0.98681640625,-0.2255859375,-0.7019042372703552,0.4272460639476776,0.1525878757238388,93.33334350585938,104663.0,1.0
12:04:46.109939,202470.25,197377.171875,226068.59375,212881.25,225513.109375,178793.765625,-705695.5,182301.546875,0.010986328125,0.988037109375,-0.223876953125,-0.7629393935203552,0.3967284858226776,0.1831054538488388,93.33334350585938,104664.0,1.0
12:04:46.114230,202490.09375,197393.0,226081.375,212884.015625,225550.921875,178812.171875,-705692.1875,182307.71875,0.01171875,0.987548828125,-0.222412109375,-0.7324218153953552,0.3662109076976776,0.0915527269244194,93.33334350585938,104665.0,1.0
12:04:46.114246,202488.3125,197387.734375,226084.6875,212881.0625,225562.546875,178807.53125,-705687.25,182307.90625,0.01025390625,0.98779296875,-0.2255859375,-0.7324218153953552,0.1831054538488388,0.0610351525247097,93.33334350585938,104666.0,1.0
12:04:46.120426,202468.640625,197370.734375,226072.703125,212881.0625,225524.109375,178786.34375,-705680.125,182303.421875,0.009521484375,0.988037109375,-0.22216796875,-0.7324218153953552,0.2441406100988388,-0.0610351525247097,93.33334350585938,104667.0,1.0
12:04:46.120444,202466.046875,197372.0,226065.734375,212880.078125,225505.953125,178783.46875,-705684.9375,182297.890625,0.009521484375,0.9873046875,-0.22607421875,-0.5493163466453552,0.2136230319738388,-0.1220703050494194,93.33334350585938,104668.0,1.0
12:04:46.122324,202489.296875,197391.125,226079.5,212887.40625,225542.875,178803.421875,-705693.9375,182307.453125,0.0078125,0.98876953125,-0.22509765625,-0.6103515028953552,0.1220703050494194,-0.1525878757238388,93.33334350585938,104669.0,1.0
12:04:46.131134,202497.96875,197395.59375,226089.78125,212889.296875,225569.25,178808.421875,-705697.0625,182312.640625,0.009765625,0.98779296875,-0.222900390625,-0.6103515028953552,0.0,-0.2746581733226776,93.33334350585938,104670.0,1.0
12:04:46.135419,202479.8125,197379.0625,226081.015625,212887.59375,225537.15625,178788.578125,-705699.0625,182308.34375,0.01025390625,0.98876953125,-0.22265625,-0.6713866591453552,0.0,-0.0610351525247097,93.33334350585938,104671.0,1.0
12:04:46.135424,202473.28125,197378.78125,226073.25,212885.890625,225513.734375,178787.953125,-705685.5625,182303.34375,0.01025390625,0.98876953125,-0.2236328125,-0.5798339247703552,-0.0610351525247097,-0.1220703050494194,93.33334350585938,104672.0,1.0
12:04:46.142342,202492.78125,197396.3125,226084.0625,212888.03125,225543.6875,178807.609375,-705679.375,182309.0625,0.0107421875,0.98681640625,-0.22314453125,-0.7324218153953552,-0.1831054538488388,-0.0610351525247097,93.33334350585938,104673.0,1.0
12:04:46.146641,202502.515625,197402.296875,226094.078125,212885.984375,225572.296875,178816.28125,-705678.6875,182309.515625,0.00927734375,0.98828125,-0.222900390625,-0.7629393935203552,-0.2441406100988388,0.0610351525247097,93.33334350585938,104674.0,1.0
12:04:46.146648,202487.140625,197386.65625,226087.09375,212886.15625,225548.15625,178797.609375,-705678.75,182306.5625,0.009765625,0.987060546875,-0.223388671875,-0.7934569716453552,-0.2441406100988388,0.0610351525247097,93.33334350585938,104675.0,1.0
12:04:46.154825,202477.671875,197383.4375,226077.53125,212887.765625,225517.9375,178793.21875,-705680.1875,182303.078125,0.0078125,0.986572265625,-0.220458984375,-0.8544921278953552,-0.2441406100988388,-0.1220703050494194,93.33334350585938,104676.0,1.0
12:04:46.162891,202494.203125,197398.640625,226084.6875,212891.875,225540.203125,178809.046875,-705672.5,182307.453125,0.007080078125,0.98681640625,-0.222412109375,-0.9460448622703552,-0.3356933295726776,-0.0610351525247097,93.33334350585938,104677.0,1.0
12:04:46.162987,202509.5,197406.0625,226094.875,212895.546875,225575.0625,178820.765625,-705666.625,182315.671875,0.00732421875,0.987548828125,-0.22216796875,-0.9460448622703552,-0.4272460639476776,0.0,93.33334350585938,104678.0,1.0
12:04:46.172180,202495.28125,197392.46875,226089.15625,212892.515625,225557.359375,178804.484375,-705669.8125,182312.28125,0.00830078125,0.98779296875,-0.225341796875,-1.0986326932907104,-0.4272460639476776,0.0,93.33334350585938,104679.0,1.0
12:04:46.172258,202477.21875,197379.5,226075.75,212888.21875,225517.3125,178787.859375,-705670.1875,182304.0625,0.00732421875,0.987548828125,-0.222900390625,-1.0986326932907104,-0.5187987685203552,-0.03051757626235485,93.33334350585938,104680.0,1.0
12:04:46.174164,202490.984375,197394.796875,226082.0,212891.796875,225533.21875,178805.296875,-705671.3125,182308.078125,0.008544921875,0.990234375,-0.220458984375,-1.1596678495407104,-0.5493163466453552,0.0,93.33334350585938,104681.0,1.0
12:04:46.174180,202510.390625,197409.546875,226096.671875,212897.0625,225574.265625,178822.71875,-705668.8125,182319.078125,0.009521484375,0.99072265625,-0.220703125,-1.2512205839157104,-0.5493163466453552,0.1525878757238388,93.33334350585938,104682.0,1.0
12:04:46.179844,202497.875,197395.6875,226091.578125,212893.140625,225565.328125,178808.0625,-705661.3125,182315.140625,0.01025390625,0.990234375,-0.222412109375,-1.2817381620407104,-0.6103515028953552,0.1831054538488388,93.33334350585938,104683.0,1.0
12:04:46.189974,202477.125,197378.078125,226075.203125,212886.15625,225520.265625,178788.296875,-705669.4375,182304.140625,0.00927734375,0.99267578125,-0.2236328125,-1.3732908964157104,-0.6408690810203552,0.1525878757238388,93.33334350585938,104684.0,1.0
12:04:46.198115,202488.125,197392.109375,226081.5625,212890.90625,225529.65625,178803.328125,-705666.6875,182307.8125,0.009033203125,0.9921875,-0.224609375,-1.5563963651657104,-0.6103515028953552,0.2746581733226776,93.33334350585938,104685.0,1.0
12:04:46.198128,202504.21875,197402.921875,226093.09375,212889.109375,225567.28125,178818.796875,-705664.875,182313.171875,0.0107421875,0.992431640625,-0.222900390625,-1.5869139432907104,-0.6408690810203552,0.2136230319738388,93.33334350585938,104686.0,1.0
12:04:46.200473,202493.671875,197396.125,226087.28125,212878.109375,225564.15625,178806.984375,-705668.3125,182302.53125,0.01025390625,0.99267578125,-0.221435546875,-1.6784666776657104,-0.6713866591453552,0.2441406100988388,93.33334350585938,104687.0,1.0
12:04:46.200477,202476.234375,197382.28125,226073.59375,212877.75,225520.4375,178787.046875,-705669.125,182296.453125,0.009765625,0.99169921875,-0.22021484375,-1.8310545682907104,-0.7019042372703552,0.3356933295726776,93.33334350585938,104688.0,1.0
12:04:46.202372,202480.0,197387.734375,226074.140625,212880.796875,225515.609375,178793.765625,-705676.375,182296.90625,0.010986328125,0.989990234375,-0.220458984375,-1.8005369901657104,-0.6103515028953552,0.2746581733226776,93.33334350585938,104689.0,1.0
12:04:46.209917,202502.25,197406.953125,226087.09375,212884.375,225554.0625,178816.015625,-705675.8125,182305.125,0.011962890625,0.989990234375,-0.220703125,-1.9226073026657104,-0.7019042372703552,0.3051757514476776,93.33334350585938,104690.0,1.0
12:04:46.216706,202502.96875,197406.5,226092.203125,212883.484375,225568.546875,178818.34375,-705672.5625,182306.109375,0.012939453125,0.989013671875,-0.218505859375,-1.9836424589157104,-0.6713866591453552,0.3662109076976776,93.33334350585938,104691.0,1.0
12:04:46.216720,202481.421875,197385.140625,226077.53125,212878.734375,225527.859375,178791.875,-705675.625,182297.796875,0.01220703125,0.98876953125,-0.221923828125,-2.075195074081421,-0.6713866591453552,0.4272460639476776,93.33334350585938,104692.0,1.0
12:04:46.223660,202476.5,197387.546875,226068.765625,212873.734375,225509.265625,178792.328125,-705679.125,182289.390625,0.011962890625,0.98828125,-0.22509765625,-2.105712652206421,-0.4577636420726776,0.3967284858226776,93.33334350585938,104693.0,1.0
12:04:46.226724,202497.96875,197405.34375,226081.296875,212877.3125,225544.578125,178814.859375,-705673.5625,182294.84375,0.0126953125,0.989013671875,-0.224609375,-2.197265386581421,-0.4577636420726776,0.3967284858226776,93.33334350585938,104694.0,1.0
12:04:46.226792,202506.015625,197409.90625,226092.015625,212879.1875,225571.3125,178822.546875,-705673.375,182299.5,0.012451171875,0.9892578125,-0.219482421875,-2.319335699081421,-0.4272460639476776,0.4882812201976776,93.33334350585938,104695.0,1.0
12:04:46.237510,202485.890625,197390.234375,226081.015625,212877.125,225538.328125,178800.375,-705673.375,182293.421875,0.01123046875,0.987548828125,-0.21875,-2.197265386581421,-0.3662109076976776,0.4882812201976776,93.33334350585938,104696.0,1.0
12:04:46.240488,202475.078125,197385.578125,226070.109375,212873.828125,225509.265625,178794.46875,-705677.75,182286.078125,0.01220703125,0.98828125,-0.219482421875,-2.197265386581421,-0.3051757514476776,0.4882812201976776,93.33334350585938,104697.0,1.0
12:04:46.240550,202492.0625,197403.109375,226078.515625,212874.890625,225536.359375,178815.3125,-705681.375,182290.90625,0.01123046875,0.9873046875,-0.218994140625,-2.349853277206421,-0.2441406100988388,0.3662109076976776,93.33334350585938,104698.0,1.0
12:04:46.246155,202498.953125,197406.59375,226085.046875,212867.828125,225562.375,178822.28125,-705675.1875,182287.78125,0.011962890625,0.98681640625,-0.222900390625,-2.227782964706421,-0.2441406100988388,0.4577636420726776,93.33334350585938,104699.0,1.0
12:04:46.253094,202483.203125,197386.828125,226076.46875,212867.203125,225536.796875,178797.328125,-705665.0625,182285.09375,0.01318359375,0.987060546875,-0.218994140625,-2.197265386581421,-0.2136230319738388,0.5187987685203552,93.33334350585938,104700.0,1.0
12:04:46.253244,202471.765625,197379.140625,226065.640625,212867.828125,225502.203125,178785.625,-705668.125,182280.265625,0.013427734375,0.987548828125,-0.2197265625,-2.197265386581421,-0.1525878757238388,0.5187987685203552,93.33334350585938,104701.0,1.0
12:04:46.262989,202487.59375,197393.453125,226072.625,212873.203125,225521.421875,178799.484375,-705666.25,182283.84375,0.013427734375,0.989013671875,-0.221435546875,-2.166747808456421,-0.1525878757238388,0.4882812201976776,93.33334350585938,104702.0,1.0
12:04:46.263063,202506.546875,197407.125,226087.28125,212878.375,225556.921875,178813.421875,-705660.875,182294.9375,0.013916015625,0.9892578125,-0.222412109375,-2.166747808456421,-0.1220703050494194,0.4577636420726776,93.33334350585938,104703.0,1.0
12:04:46.264924,202494.5625,197392.5625,226082.984375,212879.09375,225541.984375,178796.53125,-705664.125,182295.46875,0.013671875,0.98974609375,-0.21923828125,-2.288818120956421,0.03051757626235485,0.4882812201976776,93.33334350585938,104704.0,1.0
12:04:46.271275,202475.609375,197375.65625,226068.421875,212876.59375,225502.015625,178777.75,-705672.25,182289.65625,0.014404296875,0.990966796875,-0.22021484375,-2.166747808456421,0.0610351525247097,0.5493163466453552,93.33334350585938,104705.0,1.0
12:04:46.278505,202489.46875,197390.328125,226075.296875,212881.6875,225518.921875,178795.1875,-705681.375,182295.65625,0.013916015625,0.990234375,-0.22119140625,-2.288818120956421,0.1525878757238388,0.5187987685203552,93.33334350585938,104706.0,1.0
12:04:46.278586,202508.421875,197402.84375,226090.140625,212886.78125,225561.203125,178811.640625,-705678.125,182306.46875,0.013671875,0.98974609375,-0.2197265625,-2.319335699081421,0.2441406100988388,0.5798339247703552,93.33334350585938,104707.0,1.0
12:04:46.284699,202500.28125,197395.0625,226090.3125,212886.25,225559.15625,178804.484375,-705678.5,182307.0,0.01513671875,0.989990234375,-0.21923828125,-2.197265386581421,0.3051757514476776,0.5798339247703552,93.33334350585938,104708.0,1.0
12:04:46.284808,202480.96875,197380.84375,226076.90625,212884.015625,225517.3125,178788.484375,-705686.375,182301.640625,0.013916015625,0.98876953125,-0.217529296875,-2.258300542831421,0.3051757514476776,0.5493163466453552,93.33334350585938,104709.0,1.0
12:04:46.286186,202487.40625,197393.265625,226077.4375,212885.171875,225520.0,178802.15625,-705679.5,182301.109375,0.014892578125,0.989501953125,-0.2197265625,-2.166747808456421,0.4272460639476776,0.6103515028953552,93.33334350585938,104710.0,1.0
12:04:46.311184,202509.59375,197408.734375,226092.015625,212891.34375,225559.328125,178817.890625,-705670.5625,182310.578125,0.012451171875,0.98974609375,-0.21875,-2.258300542831421,0.5187987685203552,0.6408690810203552,93.33334350585938,104711.0,1.0
12:04:46.321015,202508.875,197406.5,226098.453125,212890.0,225570.0625,178818.171875,-705669.125,182310.578125,0.011474609375,0.990234375,-0.216796875,-2.105712652206421,0.5187987685203552,0.6103515028953552,93.33334350585938,104712.0,1.0
12:04:46.321107,202491.609375,197391.65625,226088.703125,212890.265625,225532.78125,178801.359375,-705669.625,182309.234375,0.009765625,0.98828125,-0.216064453125,-2.136230230331421,0.4882812201976776,0.4882812201976776,93.33334350585938,104713.0,1.0
12:04:46.321135,202485.0,197394.171875,226079.5,212883.921875,225519.8125,178804.578125,-705675.25,182300.296875,0.009765625,0.987548828125,-0.21875,-2.136230230331421,0.5187987685203552,0.5493163466453552,93.33334350585938,104714.0,1.0
12:04:46.321156,202494.75,197399.078125,226082.359375,212877.75,225548.0625,178814.765625,-705675.5625,182300.203125,0.00830078125,0.987548828125,-0.21875,-2.105712652206421,0.5798339247703552,0.7019042372703552,93.33334350585938,104715.0,1.0
12:04:46.321178,202486.78125,197385.671875,226078.078125,212868.375,225554.953125,178803.5,-705673.3125,182295.734375,0.009765625,0.98681640625,-0.217041015625,-2.166747808456421,0.5798339247703552,0.6713866591453552,93.33334350585938,104716.0,1.0
12:04:46.323569,202460.859375,197360.8125,226059.828125,212862.015625,225510.609375,178774.453125,-705680.1875,182287.34375,0.009765625,0.986083984375,-0.2158203125,-2.075195074081421,0.5187987685203552,0.5798339247703552,93.33334350585938,104717.0,1.0
12:04:46.323612,202451.46875,197359.03125,226047.9375,212856.125,225487.0,178770.421875,-705686.625,182278.3125,0.009765625,0.9853515625,-0.214599609375,-2.014159917831421,0.4577636420726776,0.5187987685203552,93.33334350585938,104718.0,1.0
12:04:46.323627,202469.171875,197372.890625,226055.09375,212857.8125,225516.6875,178785.4375,-705693.0625,182280.1875,0.0078125,0.985107421875,-0.211669921875,-1.9836424589157104,0.4882812201976776,0.5187987685203552,93.33334350585938,104719.0,1.0
12:04:46.363243,202478.109375,197373.421875,226064.921875,212860.671875,225543.0625,178786.78125,-705690.5,182286.078125,0.006103515625,0.983642578125,-0.212890625,-1.9531248807907104,0.3967284858226776,0.5493163466453552,93.33334350585938,104720.0,1.0
12:04:46.371817,202464.875,197360.8125,226061.0,212861.75,225517.484375,178771.859375,-705688.0625,182285.09375,0.005615234375,0.984619140625,-0.217041015625,-1.9226073026657104,0.3662109076976776,0.5187987685203552,93.33334350585938,104721.0,1.0
12:04:46.371858,202462.828125,197364.390625,226058.484375,212867.296875,225497.28125,178770.515625,-705693.3125,182286.890625,0.0068359375,0.98583984375,-0.21484375,-1.7700194120407104,0.3662109076976776,0.5187987685203552,93.33334350585938,104722.0,1.0
12:04:46.375424,202487.6875,197387.28125,226074.40625,212877.484375,225532.234375,178797.328125,-705691.75,182298.25,0.008544921875,0.985107421875,-0.2158203125,-1.6784666776657104,0.3356933295726776,0.4882812201976776,93.33334350585938,104723.0,1.0
12:04:46.375479,202500.203125,197396.125,226087.734375,212878.828125,225565.40625,178810.484375,-705688.9375,182302.09375,0.008544921875,0.984619140625,-0.215576171875,-1.6479490995407104,0.2441406100988388,0.5187987685203552,93.33334350585938,104724.0,1.0
12:04:46.375497,202487.0625,197383.34375,226083.34375,212881.421875,225546.09375,178796.171875,-705677.125,182302.53125,0.0087890625,0.986083984375,-0.21484375,-1.5869139432907104,0.1220703050494194,0.5798339247703552,93.33334350585938,104725.0,1.0
12:04:46.375512,202478.03125,197381.203125,226074.859375,212882.140625,225514.984375,178790.546875,-705675.0,182299.765625,0.009765625,0.985595703125,-0.214111328125,-1.4648436307907104,0.0915527269244194,0.5798339247703552,93.33334350585938,104726.0,1.0
12:04:46.377947,202494.65625,197397.296875,226083.96875,212886.703125,225534.75,178808.515625,-705683.75,182305.578125,0.009765625,0.98779296875,-0.22021484375,-1.4648436307907104,0.1525878757238388,0.6408690810203552,93.33334350585938,104727.0,1.0
12:04:46.379881,202511.546875,197409.09375,226097.109375,212890.984375,225572.65625,178823.703125,-705690.125,182315.046875,0.01171875,0.987060546875,-0.216064453125,-1.4953612089157104,0.1220703050494194,0.7019042372703552,93.33334350585938,104728.0,1.0
12:04:46.383817,202496.4375,197394.796875,226091.390625,212888.578125,225558.4375,178807.796875,-705697.0625,182312.109375,0.010498046875,0.987060546875,-0.217041015625,-1.4343260526657104,0.1525878757238388,0.7934569716453552,93.33334350585938,104729.0,1.0
12:04:46.385183,202481.421875,197382.71875,226078.875,212887.765625,225520.078125,178791.703125,-705698.0,182306.734375,0.010986328125,0.98828125,-0.216552734375,-1.3427733182907104,0.0915527269244194,0.7324218153953552,93.33334350585938,104730.0,1.0
12:04:46.387424,202494.75,197395.78125,226083.703125,212891.703125,225532.78125,178806.09375,-705693.125,182309.0625,0.009521484375,0.986572265625,-0.217529296875,-1.3122557401657104,-0.03051757626235485,0.8239745497703552,93.33334350585938,104731.0,1.0
12:04:46.391419,202516.296875,197412.21875,226099.53125,212896.625,225574.625,178828.09375,-705686.375,182319.609375,0.010498046875,0.985107421875,-0.216796875,-1.2817381620407104,-0.03051757626235485,0.7934569716453552,93.33334350585938,104732.0,1.0
12:04:46.392371,202506.71875,197398.09375,226097.03125,212895.546875,225569.25,178810.296875,-705682.25,182318.8125,0.010498046875,0.986083984375,-0.218994140625,-1.2207030057907104,-0.0915527269244194,0.9460448622703552,93.33334350585938,104733.0,1.0
12:04:46.395294,202483.84375,197377.796875,226079.5,212892.234375,225522.3125,178786.78125,-705689.3125,182311.296875,0.010986328125,0.98291015625,-0.2197265625,-1.1901854276657104,-0.03051757626235485,0.9155272841453552,93.33334350585938,104734.0,1.0
12:04:46.397514,202488.3125,197387.90625,226077.890625,212892.234375,225521.78125,178798.140625,-705691.75,182310.140625,0.010986328125,0.983154296875,-0.21826171875,-1.0375975370407104,-0.1220703050494194,0.9765624403953552,93.33334350585938,104735.0,1.0
12:04:46.400558,202508.421875,197400.6875,226089.609375,212895.8125,225560.046875,178813.25,-705693.75,182320.78125,0.010498046875,0.983154296875,-0.218505859375,-0.9765624403953552,-0.1525878757238388,1.0681151151657104,93.33334350585938,104736.0,1.0
12:04:46.400594,202500.375,197390.046875,226087.453125,212889.640625,225563.796875,178805.5625,-705688.25,182318.0,0.01171875,0.982421875,-0.221435546875,-0.7629393935203552,-0.0915527269244194,1.0375975370407104,93.33334350585938,104737.0,1.0
12:04:46.403018,202475.34375,197368.234375,226069.046875,212880.53125,225518.828125,178782.765625,-705696.625,182303.78125,0.014892578125,0.983642578125,-0.2216796875,-0.6713866591453552,-0.1220703050494194,0.9460448622703552,93.33334350585938,104738.0,1.0
12:04:46.413010,202480.96875,197378.25,226071.1875,212885.890625,225514.984375,178793.484375,-705701.3125,182305.671875,0.015625,0.985107421875,-0.21875,-0.5798339247703552,-0.0915527269244194,0.9765624403953552,93.33334350585938,104739.0,1.0
12:04:46.413051,202501.71875,197393.71875,226081.375,212888.65625,225549.59375,178810.5625,-705697.0,182311.75,0.0146484375,0.984130859375,-0.22119140625,-0.5187987685203552,0.0,0.9155272841453552,93.33334350585938,104740.0,1.0
12:04:46.415441,202502.609375,197393.984375,226085.9375,212885.984375,225565.765625,178812.53125,-705682.5,182313.71875,0.013916015625,0.9833984375,-0.218505859375,-0.4272460639476776,0.03051757626235485,0.8850097060203552,93.33334350585938,104741.0,1.0
12:04:46.415459,202480.96875,197373.609375,226073.0625,212879.71875,225528.3125,178788.84375,-705687.875,182306.109375,0.01416015625,0.982177734375,-0.21923828125,-0.2441406100988388,0.0915527269244194,0.8239745497703552,93.33334350585938,104742.0,1.0
12:04:46.424943,202472.296875,197371.28125,226064.03125,212876.328125,225507.296875,178785.078125,-705686.5625,182297.96875,0.013916015625,0.983154296875,-0.21875,-0.2136230319738388,0.0915527269244194,0.7934569716453552,93.33334350585938,104743.0,1.0
12:04:46.428013,202494.390625,197392.375,226077.53125,212882.578125,225543.328125,178810.65625,-705678.6875,182307.453125,0.01220703125,0.984375,-0.221435546875,-0.0610351525247097,0.1220703050494194,0.7934569716453552,93.33334350585938,104744.0,1.0
12:04:46.428034,202503.15625,197397.921875,226088.0,212885.171875,225571.765625,178817.453125,-705675.375,182314.875,0.011474609375,0.9853515625,-0.2197265625,0.0,0.0915527269244194,0.6103515028953552,93.33334350585938,104745.0,1.0
12:04:46.429889,202480.4375,197374.765625,226074.578125,212880.34375,225537.421875,178792.78125,-705679.375,182307.0,0.011474609375,0.989013671875,-0.2197265625,0.03051757626235485,0.0915527269244194,0.4882812201976776,93.33334350585938,104746.0,1.0
12:04:46.437510,202469.796875,197372.4375,226064.03125,212877.9375,225507.46875,178790.359375,-705682.0,182299.578125,0.01025390625,0.9892578125,-0.220458984375,0.0,0.1831054538488388,0.3662109076976776,93.33334350585938,104747.0,1.0
12:04:46.445624,202489.015625,197388.984375,226072.265625,212881.421875,225532.953125,178807.171875,-705683.4375,182303.875,0.009521484375,0.989990234375,-0.219970703125,-0.1220703050494194,0.0,0.1831054538488388,93.33334350585938,104748.0,1.0
12:04:46.445665,202503.59375,197398.8125,226084.6875,212883.296875,225565.59375,178818.703125,-705678.9375,182308.609375,0.010986328125,0.9931640625,-0.221923828125,-0.2441406100988388,0.03051757626235485,0.1220703050494194,93.33334350585938,104749.0,1.0
12:04:46.447391,202487.953125,197384.6875,226078.25,212882.140625,225543.859375,178801.8125,-705685.8125,182306.5625,0.00830078125,0.992919921875,-0.220947265625,-0.3662109076976776,0.03051757626235485,0.0610351525247097,93.33334350585938,104750.0,1.0
12:04:46.457355,202472.65625,197376.546875,226065.015625,212880.078125,225507.75,178790.984375,-705685.625,182300.65625,0.010986328125,0.9951171875,-0.221923828125,-0.4272460639476776,-0.0915527269244194,0.03051757626235485,93.33334350585938,104751.0,1.0
12:04:46.464216,202484.8125,197388.984375,226068.140625,212877.40625,225523.84375,178806.0,-705677.3125,182298.0625,0.0126953125,0.994873046875,-0.219482421875,-0.5187987685203552,-0.1525878757238388,-0.0610351525247097,93.33334350585938,104752.0,1.0
12:04:46.464226,202504.671875,197402.65625,226084.859375,212884.1875,225566.484375,178826.390625,-705672.6875,182311.390625,0.01416015625,0.99560546875,-0.22021484375,-0.7324218153953552,-0.1220703050494194,-0.1220703050494194,93.33334350585938,104753.0,1.0
12:04:46.471680,202491.96875,197391.125,226080.84375,212883.484375,225555.84375,178815.21875,-705668.9375,182310.5,0.015380859375,0.9970703125,-0.22216796875,-0.8544921278953552,-0.0915527269244194,-0.0915527269244194,93.33334350585938,104754.0,1.0
12:04:46.471691,202474.71875,197378.4375,226066.265625,212881.15625,225514.0,178799.5625,-705672.3125,182304.40625,0.014892578125,0.999755859375,-0.222900390625,-1.0070799589157104,0.0,0.0,93.33334350585938,104755.0,1.0
12:04:46.474151,202483.296875,197387.546875,226067.703125,212880.34375,225521.78125,178811.375,-705670.4375,182302.53125,0.0185546875,0.997314453125,-0.221923828125,-1.1901854276657104,0.0,0.03051757626235485,93.33334350585938,104756.0,1.0
12:04:46.474156,202503.6875,197400.6875,226082.71875,212885.984375,225562.109375,178824.609375,-705674.1875,182313.359375,0.018310546875,0.996826171875,-0.220458984375,-1.3427733182907104,0.1220703050494194,0.1220703050494194,93.33334350585938,104757.0,1.0
12:04:46.486116,202498.046875,197394.515625,226085.3125,212885.09375,225563.625,178816.921875,-705679.5625,182314.25,0.017578125,0.99560546875,-0.2216796875,-1.4343260526657104,0.2136230319738388,0.2136230319738388,93.33334350585938,104758.0,1.0
12:04:46.495278,202478.65625,197377.890625,226072.625,212883.65625,225522.5,178795.8125,-705678.125,182310.046875,0.017578125,0.997802734375,-0.220947265625,-1.6174315214157104,0.2746581733226776,0.2746581733226776,93.33334350585938,104759.0,1.0
12:04:46.495303,202481.421875,197386.203125,226070.109375,212880.171875,225520.078125,178804.84375,-705683.125,182305.390625,0.015625,0.9951171875,-0.219482421875,-1.6784666776657104,0.4272460639476776,0.3662109076976776,93.33334350585938,104760.0,1.0
12:04:46.495311,202505.5625,197405.078125,226086.125,212887.953125,225561.5625,178825.3125,-705679.125,182316.21875,0.01171875,0.99365234375,-0.2216796875,-1.8615721464157104,0.5493163466453552,0.4272460639476776,93.33334350585938,104761.0,1.0
12:04:46.521122,202506.90625,197404.890625,226094.171875,212890.0,225575.515625,178826.390625,-705672.5,182320.421875,0.01123046875,0.99462890625,-0.220703125,-1.9531248807907104,0.5493163466453552,0.5493163466453552,93.33334350585938,104762.0,1.0
12:04:46.523583,202484.109375,197384.234375,226078.609375,212884.640625,225533.046875,178800.203125,-705668.375,182313.625,0.0087890625,0.9921875,-0.220947265625,-2.105712652206421,0.5798339247703552,0.6103515028953552,93.33334350585938,104763.0,1.0
12:04:46.526136,202480.34375,197386.296875,226070.5625,212883.390625,225518.203125,178801.984375,-705667.3125,182308.796875,0.0087890625,0.99365234375,-0.2216796875,-2.166747808456421,0.5493163466453552,0.6713866591453552,93.33334350585938,104764.0,1.0
12:04:46.528566,202501.359375,197400.421875,226079.328125,212884.109375,225551.828125,178819.6875,-705667.5,182312.28125,0.007080078125,0.9921875,-0.21875,-2.349853277206421,0.4882812201976776,0.7019042372703552,93.33334350585938,104765.0,1.0
12:04:46.531215,202504.84375,197401.140625,226084.59375,212882.578125,225569.4375,178821.921875,-705663.75,182314.34375,0.00390625,0.991455078125,-0.21923828125,-2.502441167831421,0.4577636420726776,0.7324218153953552,93.33334350585938,104766.0,1.0
12:04:46.537520,202481.25,197380.484375,226068.953125,212876.328125,225529.828125,178797.328125,-705666.0625,182306.734375,0.004150390625,0.991943359375,-0.21923828125,-2.532958745956421,0.4577636420726776,0.7324218153953552,93.33334350585938,104767.0,1.0
12:04:46.539852,202470.34375,197378.96875,226056.796875,212870.78125,225505.0625,178794.109375,-705665.5,182298.0625,0.0048828125,0.9931640625,-0.218017578125,-2.593993902206421,0.3356933295726776,0.7019042372703552,93.33334350585938,104768.0,1.0
12:04:46.542420,202483.203125,197389.875,226061.625,212869.890625,225531.34375,178806.453125,-705667.125,182299.40625,0.00390625,0.991455078125,-0.21630859375,-2.593993902206421,0.3662109076976776,0.7019042372703552,93.33334350585938,104769.0,1.0
12:04:46.544827,202493.84375,197394.609375,226074.234375,212874.53125,225561.921875,178816.109375,-705662.5625,182307.453125,0.006103515625,0.99267578125,-0.21533203125,-2.655029058456421,0.2441406100988388,0.6713866591453552,93.33334350585938,104770.0,1.0
12:04:46.547397,202476.859375,197377.359375,226065.90625,212873.375,225534.390625,178798.40625,-705665.5,182303.15625,0.00537109375,0.988525390625,-0.216552734375,-2.716064214706421,0.0915527269244194,0.7629393935203552,93.33334350585938,104771.0,1.0
12:04:46.550474,202467.75,197374.9375,226056.703125,212873.90625,225505.0625,178793.765625,-705673.125,182298.515625,0.005859375,0.987548828125,-0.2177734375,-2.777099370956421,0.03051757626235485,0.8850097060203552,93.33334350585938,104772.0,1.0
12:04:46.550547,202488.390625,197393.0,226066.53125,212880.609375,225532.59375,178813.34375,-705676.5,182305.3125,0.0078125,0.986572265625,-0.220458984375,-2.746581792831421,-0.1220703050494194,0.8239745497703552,93.33334350585938,104773.0,1.0
12:04:46.552467,202502.171875,197401.671875,226078.78125,212883.03125,225566.9375,178824.875,-705683.4375,182312.28125,0.009521484375,0.987060546875,-0.217041015625,-2.593993902206421,-0.0915527269244194,0.7934569716453552,93.33334350585938,104774.0,1.0
12:04:46.555065,202487.234375,197386.125,226072.625,212882.140625,225546.375,178807.53125,-705678.25,182310.046875,0.01220703125,0.985107421875,-0.21923828125,-2.563476324081421,-0.1220703050494194,0.7629393935203552,93.33334350585938,104775.0,1.0
12:04:46.557964,202467.5625,197372.96875,226055.625,212872.75,225505.234375,178791.96875,-705667.0625,182296.1875,0.012451171875,0.983154296875,-0.21875,-2.532958745956421,-0.1525878757238388,0.8850097060203552,93.33334350585938,104776.0,1.0
12:04:46.558012,202481.15625,197386.65625,226061.265625,212877.125,225523.125,178807.078125,-705663.5625,182300.5625,0.012451171875,0.983642578125,-0.219482421875,-2.502441167831421,-0.0915527269244194,0.8544921278953552,93.33334350585938,104777.0,1.0
12:04:46.560087,202503.15625,197401.046875,226078.15625,212884.640625,225564.34375,178824.15625,-705671.3125,182313.53125,0.012451171875,0.98291015625,-0.2177734375,-2.441406011581421,-0.0610351525247097,0.9765624403953552,93.33334350585938,104778.0,1.0
12:04:46.575564,202489.734375,197386.828125,226073.421875,212880.609375,225553.4375,178809.40625,-705674.4375,182309.859375,0.01318359375,0.98486328125,-0.217041015625,-2.319335699081421,-0.03051757626235485,0.9765624403953552,93.33334350585938,104779.0,1.0
12:04:46.575585,202470.515625,197371.359375,226057.78125,212875.609375,225510.25,178789.28125,-705678.3125,182300.84375,0.013916015625,0.9853515625,-0.216796875,-2.166747808456421,0.0,1.0070799589157104,93.33334350585938,104780.0,1.0
12:04:46.578092,202482.140625,197385.5,226062.875,212877.046875,225520.265625,178803.859375,-705678.5,182301.375,0.01513671875,0.983154296875,-0.21630859375,-2.166747808456421,0.1525878757238388,1.0681151151657104,93.33334350585938,104781.0,1.0
12:04:46.578106,202508.328125,197404.8125,226081.921875,212886.421875,225565.59375,178823.703125,-705673.5,182316.296875,0.01611328125,0.98388671875,-0.21826171875,-1.9531248807907104,0.0915527269244194,1.0986326932907104,93.33334350585938,104782.0,1.0
12:04:46.579933,202500.90625,197397.296875,226081.828125,212883.65625,225566.9375,178816.921875,-705675.5625,182314.25,0.01416015625,0.985107421875,-0.217529296875,-1.9226073026657104,0.1220703050494194,1.0986326932907104,93.33334350585938,104783.0,1.0
12:04:46.583589,202483.03125,197381.375,226069.3125,212883.03125,225524.015625,178797.0625,-705681.0,182308.703125,0.01416015625,0.98291015625,-0.217529296875,-1.8310545682907104,0.1525878757238388,1.0986326932907104,93.33334350585938,104784.0,1.0
12:04:46.594299,202485.625,197389.78125,226068.0625,212882.765625,225519.90625,178804.84375,-705673.5625,182305.21875,0.015380859375,0.983642578125,-0.216796875,-1.7395018339157104,0.2136230319738388,1.1596678495407104,93.33334350585938,104785.0,1.0
12:04:46.594309,202506.546875,197404.359375,226081.734375,212887.234375,225559.6875,178823.171875,-705671.5,182314.0625,0.01318359375,0.984375,-0.216796875,-1.5869139432907104,0.3051757514476776,1.1596678495407104,93.33334350585938,104786.0,1.0
12:04:46.596312,202504.21875,197398.8125,226085.140625,212885.09375,225571.9375,178819.6875,-705674.125,182316.296875,0.011962890625,0.983642578125,-0.218994140625,-1.5258787870407104,0.3051757514476776,1.0375975370407104,93.33334350585938,104787.0,1.0
12:04:46.602398,202481.328125,197379.0625,226070.65625,212883.03125,225530.0,178797.328125,-705677.0,182311.125,0.01171875,0.984130859375,-0.21826171875,-1.4953612089157104,0.2136230319738388,0.9765624403953552,93.33334350585938,104788.0,1.0
12:04:46.606668,202479.1875,197381.65625,226064.84375,212880.703125,225515.078125,178799.921875,-705677.75,182303.96875,0.012451171875,0.984130859375,-0.219482421875,-1.4953612089157104,0.3662109076976776,0.9765624403953552,93.33334350585938,104789.0,1.0
12:04:46.606680,202504.40625,197403.109375,226081.296875,212885.984375,225556.03125,178824.875,-705672.6875,182311.5625,0.012939453125,0.984130859375,-0.21826171875,-1.3732908964157104,0.4272460639476776,0.8239745497703552,93.33334350585938,104790.0,1.0
12:04:46.616075,202510.921875,197407.3125,226090.5,212885.0,225579.09375,178829.703125,-705667.0625,182315.59375,0.013427734375,0.984619140625,-0.22119140625,-1.3122557401657104,0.3051757514476776,0.9155272841453552,93.33334350585938,104791.0,1.0
12:04:46.625477,202491.078125,197391.03125,226079.953125,212882.671875,225543.953125,178811.546875,-705672.5,182310.140625,0.01416015625,0.985107421875,-0.219482421875,-1.1291502714157104,0.3051757514476776,0.8239745497703552,93.33334350585938,104792.0,1.0
12:04:46.625514,202484.109375,197391.75,226071.546875,212881.59375,225521.421875,178807.34375,-705675.875,182304.859375,0.01416015625,0.988525390625,-0.220703125,-1.0986326932907104,0.3662109076976776,0.7934569716453552,93.33334350585938,104793.0,1.0
12:04:46.627346,202504.21875,197404.984375,226081.734375,212885.4375,225551.015625,178820.484375,-705677.3125,182311.65625,0.014404296875,0.9892578125,-0.218017578125,-1.1596678495407104,0.4272460639476776,0.7629393935203552,93.33334350585938,104794.0,1.0
12:04:46.629863,202515.125,197411.328125,226092.109375,212887.140625,225580.25,178830.59375,-705679.8125,182318.09375,0.01513671875,0.98974609375,-0.21728515625,-1.0986326932907104,0.3662109076976776,0.7324218153953552,93.33334350585938,104795.0,1.0
12:04:46.632340,202495.109375,197389.6875,226078.78125,212882.859375,225548.421875,178808.0625,-705682.6875,182311.390625,0.012939453125,0.98681640625,-0.216796875,-1.0681151151657104,0.4882812201976776,0.6408690810203552,93.33334350585938,104796.0,1.0
12:04:46.643027,202476.953125,197378.609375,226062.15625,212877.046875,225511.140625,178794.5625,-705683.125,182301.015625,0.013427734375,0.984375,-0.22119140625,-0.9765624403953552,0.4577636420726776,0.6408690810203552,93.33334350585938,104797.0,1.0
12:04:46.643045,202494.125,197395.859375,226070.734375,212880.96875,225534.03125,178813.78125,-705675.1875,182305.484375,0.013671875,0.984375,-0.220947265625,-0.9765624403953552,0.5798339247703552,0.6408690810203552,93.33334350585938,104798.0,1.0
12:04:46.644825,202508.515625,197406.5,226082.359375,212881.421875,225568.09375,178828.09375,-705667.0625,182311.5625,0.013916015625,0.985107421875,-0.21923828125,-0.7934569716453552,0.6103515028953552,0.7019042372703552,93.33334350585938,104799.0,1.0
12:04:46.648615,202494.5625,197392.375,226079.234375,212880.53125,225551.46875,178811.8125,-705669.9375,182310.578125,0.0166015625,0.988037109375,-0.219970703125,-0.8544921278953552,0.5798339247703552,0.6408690810203552,93.33334350585938,104800.0,1.0
12:04:46.659165,202481.609375,197385.5,226070.828125,212882.5,225518.65625,178800.90625,-705671.625,182307.359375,0.015625,0.986328125,-0.219482421875,-0.7934569716453552,0.6103515028953552,0.6103515028953552,93.33334350585938,104801.0,1.0
12:04:46.659175,202496.078125,197401.3125,226076.8125,212884.46875,225534.390625,178817.1875,-705678.75,182308.703125,0.014404296875,0.986328125,-0.22314453125,-0.7934569716453552,0.5493163466453552,0.5187987685203552,93.33334350585938,104802.0,1.0
12:04:46.661214,202513.4375,197409.546875,226088.703125,212888.65625,225571.765625,178829.875,-705672.6875,182319.078125,0.01416015625,0.986572265625,-0.219970703125,-0.7019042372703552,0.5493163466453552,0.5493163466453552,93.33334350585938,104803.0,1.0
12:04:46.663601,202501.984375,197397.46875,226086.46875,212887.765625,225564.96875,178818.4375,-705678.125,182318.53125,0.013916015625,0.98583984375,-0.219482421875,-0.7019042372703552,0.6713866591453552,0.4882812201976776,93.33334350585938,104804.0,1.0
12:04:46.675434,202481.421875,197385.21875,226069.21875,212881.421875,225519.640625,178802.25,-705685.4375,182306.640625,0.01171875,0.987548828125,-0.220458984375,-0.8239745497703552,0.6713866591453552,0.4882812201976776,93.33334350585938,104805.0,1.0
12:04:46.675462,202490.09375,197392.90625,226069.578125,212882.765625,225524.46875,178806.625,-705679.125,182304.953125,0.011474609375,0.988525390625,-0.220703125,-0.8239745497703552,0.6713866591453552,0.3051757514476776,93.33334350585938,104806.0,1.0
12:04:46.678004,202510.03125,197406.0625,226083.96875,212887.328125,225564.96875,178825.40625,-705671.8125,182314.609375,0.01025390625,0.989013671875,-0.220458984375,-0.7324218153953552,0.6408690810203552,0.3051757514476776,93.33334350585938,104807.0,1.0
12:04:46.678014,202504.046875,197400.421875,226084.59375,212885.359375,225568.453125,178822.28125,-705668.5625,182314.421875,0.01025390625,0.98876953125,-0.223388671875,-0.7629393935203552,0.5798339247703552,0.3051757514476776,93.33334350585938,104808.0,1.0
12:04:46.687402,202486.25,197384.6875,226071.453125,212882.9375,225527.140625,178801.984375,-705673.3125,182308.078125,0.009765625,0.9873046875,-0.2236328125,-0.7934569716453552,0.4577636420726776,0.3356933295726776,93.33334350585938,104809.0,1.0
12:04:46.691989,202491.96875,197397.734375,226071.546875,212882.40625,225524.90625,178814.859375,-705669.4375,182303.609375,0.010986328125,0.988525390625,-0.224853515625,-0.8544921278953552,0.4272460639476776,0.3051757514476776,93.33334350585938,104810.0,1.0
12:04:46.692049,202517.71875,197419.28125,226088.703125,212887.328125,225565.328125,178837.828125,-705669.125,182312.28125,0.010498046875,0.988037109375,-0.220458984375,-0.8239745497703552,0.3356933295726776,0.2136230319738388,93.33334350585938,104811.0,1.0
12:04:46.724819,202517.359375,197415.625,226094.4375,212885.71875,225579.0,178836.5,-705671.8125,182314.34375,0.008544921875,0.987548828125,-0.22119140625,-0.7934569716453552,0.3967284858226776,0.1220703050494194,93.33334350585938,104812.0,1.0
12:04:46.745532,202494.296875,197394.703125,226080.390625,212882.765625,225538.328125,178811.640625,-705673.0625,182307.359375,0.0087890625,0.98828125,-0.22119140625,-0.8239745497703552,0.3356933295726776,0.1831054538488388,93.33334350585938,104813.0,1.0
12:04:46.745543,202491.890625,197395.859375,226074.40625,212884.109375,225521.875,178812.09375,-705673.375,182304.40625,0.007568359375,0.98974609375,-0.221435546875,-0.7934569716453552,0.2441406100988388,0.2136230319738388,93.33334350585938,104814.0,1.0
12:04:46.747411,202511.640625,197410.703125,226083.25,212887.140625,225553.515625,178827.546875,-705679.1875,182310.3125,0.009765625,0.98876953125,-0.22412109375,-0.8850097060203552,0.2136230319738388,0.1831054538488388,93.33334350585938,104815.0,1.0
12:04:46.749946,202516.109375,197412.21875,226090.046875,212889.734375,225574.53125,178831.9375,-705686.6875,182316.578125,0.01025390625,0.98828125,-0.2236328125,-0.9155272841453552,0.1220703050494194,0.1220703050494194,93.33334350585938,104816.0,1.0
12:04:46.752538,202495.1875,197394.34375,226077.984375,212887.046875,225539.390625,178812.09375,-705686.25,182310.40625,0.01025390625,0.98876953125,-0.221923828125,-1.0070799589157104,0.0915527269244194,0.1831054538488388,93.33334350585938,104817.0,1.0
12:04:46.755145,202486.25,197389.25,226067.078125,212882.3125,225512.65625,178801.890625,-705678.6875,182302.53125,0.010986328125,0.990234375,-0.224365234375,-1.0375975370407104,0.0610351525247097,0.2136230319738388,93.33334350585938,104818.0,1.0
12:04:46.757398,202507.625,197408.46875,226079.953125,212887.328125,225543.15625,178824.328125,-705671.9375,182311.203125,0.01123046875,0.99169921875,-0.22412109375,-1.1291502714157104,-0.0610351525247097,0.2746581733226776,93.33334350585938,104819.0,1.0
12:04:46.759901,202519.6875,197417.59375,226092.28125,212889.296875,225574.53125,178836.3125,-705668.6875,182317.90625,0.010498046875,0.992919921875,-0.224853515625,-1.1291502714157104,-0.1220703050494194,0.4272460639476776,93.33334350585938,104820.0,1.0
12:04:46.762371,202502.171875,197401.671875,226083.53125,212887.765625,225548.25,178816.109375,-705670.0,182312.28125,0.009765625,0.992919921875,-0.225341796875,-1.2817381620407104,-0.0610351525247097,0.3662109076976776,93.33334350585938,104821.0,1.0
12:04:46.764881,202490.90625,197395.78125,226072.53125,212884.640625,225516.0625,178806.546875,-705679.125,182306.203125,0.010498046875,0.991455078125,-0.22119140625,-1.4038084745407104,-0.1220703050494194,0.4882812201976776,93.33334350585938,104822.0,1.0
12:04:46.767625,202505.734375,197407.484375,226079.234375,212887.5,225538.328125,178819.15625,-705684.8125,182310.140625,0.010498046875,0.991455078125,-0.223388671875,-1.4038084745407104,-0.1220703050494194,0.4577636420726776,93.33334350585938,104823.0,1.0
12:04:46.769880,202517.90625,197414.1875,226090.5,212889.015625,225574.53125,178829.34375,-705682.5,182317.5625,0.009033203125,0.990966796875,-0.22607421875,-1.5869139432907104,-0.1831054538488388,0.5493163466453552,93.33334350585938,104824.0,1.0
12:04:46.772389,202500.734375,197398.8125,226084.953125,212884.375,225558.96875,178814.328125,-705678.75,182315.140625,0.01025390625,0.9892578125,-0.22412109375,-1.5563963651657104,-0.1525878757238388,0.7324218153953552,93.33334350585938,104825.0,1.0
12:04:46.775449,202484.28125,197390.953125,226070.828125,212878.828125,225518.46875,178802.875,-705682.9375,182306.640625,0.010009765625,0.990966796875,-0.220703125,-1.5869139432907104,-0.1525878757238388,0.7324218153953552,93.33334350585938,104826.0,1.0
12:04:46.775500,202496.890625,197405.703125,226074.578125,212880.609375,225531.171875,178817.625,-705679.5625,182306.921875,0.01171875,0.990966796875,-0.218994140625,-1.7395018339157104,-0.2441406100988388,0.6408690810203552,93.33334350585938,104827.0,1.0
12:04:46.778005,202518.34375,197421.171875,226089.609375,212887.328125,225572.65625,178836.3125,-705681.0625,182319.171875,0.010986328125,0.99072265625,-0.220703125,-1.8005369901657104,-0.2441406100988388,0.5187987685203552,93.33334350585938,104828.0,1.0
12:04:46.778066,202507.4375,197409.90625,226087.8125,212882.3125,225568.546875,178827.90625,-705683.6875,182316.921875,0.011962890625,0.988525390625,-0.221923828125,-1.8310545682907104,-0.3051757514476776,0.5493163466453552,93.33334350585938,104829.0,1.0
12:04:46.780568,202486.25,197395.234375,226074.578125,212877.671875,225527.40625,178808.15625,-705686.6875,182309.515625,0.010986328125,0.989013671875,-0.2236328125,-1.8920897245407104,-0.2441406100988388,0.6408690810203552,93.33334350585938,104830.0,1.0
12:04:46.780581,202492.59375,197405.515625,226072.890625,212875.875,225527.859375,178817.8125,-705689.0625,182305.03125,0.01171875,0.9892578125,-0.2255859375,-2.044677495956421,-0.3356933295726776,0.6713866591453552,93.33334350585938,104831.0,1.0
12:04:46.782344,202513.34375,197419.375,226086.390625,212881.25,225569.25,178835.328125,-705684.0625,182314.15625,0.01025390625,0.98779296875,-0.222900390625,-2.075195074081421,-0.2441406100988388,0.7324218153953552,93.33334350585938,104832.0,1.0
12:04:46.785545,202501.71875,197409.1875,226081.5625,212871.765625,225568.625,178827.203125,-705679.0,182306.828125,0.010986328125,0.9873046875,-0.225830078125,-2.075195074081421,-0.2136230319738388,0.5798339247703552,93.33334350585938,104833.0,1.0
12:04:46.785555,202480.078125,197392.203125,226064.75,212867.828125,225524.28125,178806.8125,-705677.75,182298.6875,0.013916015625,0.98876953125,-0.2216796875,-2.014159917831421,-0.1831054538488388,0.4882812201976776,93.33334350585938,104834.0,1.0
12:04:46.795531,202482.578125,197401.671875,226065.203125,212870.78125,225521.78125,178818.078125,-705672.0625,182298.59375,0.013427734375,0.987060546875,-0.223388671875,-2.014159917831421,-0.3051757514476776,0.5798339247703552,93.33334350585938,104835.0,1.0
12:04:46.795535,202500.109375,197414.90625,226073.875,212871.40625,225556.921875,178836.40625,-705671.3125,182303.421875,0.0126953125,0.9873046875,-0.224365234375,-2.105712652206421,-0.2441406100988388,0.7019042372703552,93.33334350585938,104836.0,1.0
12:04:46.797525,202500.375,197411.328125,226077.53125,212870.0625,225570.78125,178834.609375,-705677.6875,182306.109375,0.011962890625,0.98681640625,-0.2216796875,-2.197265386581421,-0.2136230319738388,0.5798339247703552,93.33334350585938,104837.0,1.0
12:04:46.826748,202478.03125,197390.953125,226062.515625,212866.765625,225530.546875,178809.3125,-705681.4375,182300.75,0.0126953125,0.9873046875,-0.22216796875,-2.197265386581421,-0.2136230319738388,0.5187987685203552,93.33334350585938,104838.0,1.0
12:04:46.826767,202473.828125,197396.40625,226054.46875,212862.734375,225509.796875,178813.15625,-705680.375,182292.703125,0.013916015625,0.98876953125,-0.223388671875,-2.166747808456421,-0.1220703050494194,0.4882812201976776,93.33334350585938,104839.0,1.0
12:04:46.828606,202496.53125,197416.0625,226068.859375,212867.828125,225546.375,178836.140625,-705675.0,182300.65625,0.015380859375,0.98974609375,-0.22216796875,-2.288818120956421,-0.0915527269244194,0.5493163466453552,93.33334350585938,104840.0,1.0
12:04:46.831715,202504.84375,197421.796875,226077.265625,212866.3125,225569.96875,178843.734375,-705680.375,182302.453125,0.014404296875,0.989990234375,-0.22021484375,-2.288818120956421,-0.03051757626235485,0.5187987685203552,93.33334350585938,104841.0,1.0
12:04:46.831725,202486.515625,197404.359375,226066.984375,212863.625,225535.453125,178822.8125,-705684.75,182296.015625,0.015380859375,0.990966796875,-0.21923828125,-2.380370855331421,0.0,0.6408690810203552,93.33334350585938,104842.0,1.0
12:04:46.834244,202476.0625,197400.25,226056.875,212861.84375,225508.1875,178812.0,-705690.125,182290.734375,0.01513671875,0.992919921875,-0.222412109375,-2.471923589706421,-0.0610351525247097,0.5187987685203552,93.33334350585938,104843.0,1.0
12:04:46.834251,202495.546875,197416.78125,226063.40625,212862.46875,225533.5,178829.609375,-705685.375,182291.265625,0.0146484375,0.99365234375,-0.221435546875,-2.593993902206421,0.0,0.5493163466453552,93.33334350585938,104844.0,1.0
12:04:46.836154,202509.40625,197426.171875,226078.34375,212866.765625,225568.453125,178841.953125,-705677.5,182301.1875,0.01318359375,0.992919921875,-0.218017578125,-2.655029058456421,0.0915527269244194,0.5187987685203552,93.33334350585938,104845.0,1.0
12:04:46.838692,202496.796875,197414.546875,226073.78125,212868.28125,225546.1875,178825.671875,-705682.9375,182300.75,0.015380859375,0.99462890625,-0.220947265625,-2.624511480331421,0.1220703050494194,0.4577636420726776,93.33334350585938,104846.0,1.0
12:04:46.841215,202487.859375,197410.078125,226064.84375,212869.265625,225514.453125,178818.703125,-705682.0625,182296.1875,0.014404296875,0.9921875,-0.216796875,-2.716064214706421,0.2136230319738388,0.4882812201976776,93.33334350585938,104847.0,1.0
12:04:46.843722,202505.296875,197429.296875,226075.03125,212875.4375,225539.9375,178840.15625,-705682.9375,182303.609375,0.013671875,0.993408203125,-0.220703125,-2.777099370956421,0.2136230319738388,0.4577636420726776,93.33334350585938,104848.0,1.0
12:04:46.858759,202525.40625,197445.125,226089.6875,212877.40625,225577.296875,178857.59375,-705673.125,182310.9375,0.011962890625,0.99365234375,-0.21875,-2.899169683456421,0.1525878757238388,0.4272460639476776,93.33334350585938,104849.0,1.0
12:04:46.862724,202515.671875,197434.21875,226089.96875,212877.21875,225566.65625,178845.4375,-705670.625,182310.671875,0.011962890625,0.99365234375,-0.21533203125,-3.021239995956421,0.2441406100988388,0.3967284858226776,93.33334350585938,104850.0,1.0
12:04:46.862808,202499.9375,197426.359375,226078.15625,212874.71875,225530.625,178834.609375,-705668.9375,182305.671875,0.013427734375,0.9931640625,-0.216552734375,-3.051757574081421,0.2441406100988388,0.3356933295726776,93.33334350585938,104851.0,1.0
12:04:46.863701,202514.0625,197444.234375,226084.234375,212877.484375,225544.671875,178854.015625,-705668.375,182308.34375,0.0126953125,0.9921875,-0.217529296875,-3.173827886581421,0.3051757514476776,0.3356933295726776,93.33334350585938,104852.0,1.0
12:04:46.869959,202529.875,197454.34375,226096.671875,212878.828125,225583.46875,178869.3125,-705670.0,182316.65625,0.010009765625,0.992431640625,-0.217529296875,-3.143310308456421,0.3356933295726776,0.3662109076976776,93.33334350585938,104853.0,1.0
12:04:46.872531,202507.171875,197430.640625,226079.140625,212862.28125,225562.28125,178844.0,-705668.6875,182300.921875,0.00927734375,0.991943359375,-0.216552734375,-3.204345464706421,0.3356933295726776,0.3967284858226776,93.33334350585938,104854.0,1.0
12:04:46.874939,202475.34375,197400.328125,226052.59375,212850.21875,225508.640625,178810.65625,-705672.0625,182284.921875,0.0087890625,0.989990234375,-0.21875,-3.326415777206421,0.3051757514476776,0.4272460639476776,93.33334350585938,104855.0,1.0
12:04:46.877583,202476.6875,197406.328125,226048.390625,212847.0,225506.046875,178813.875,-705678.25,182279.46875,0.008544921875,0.98974609375,-0.216064453125,-3.234863042831421,0.2746581733226776,0.3662109076976776,93.33334350585938,104856.0,1.0
12:04:46.880960,202495.546875,197418.65625,226058.578125,212847.53125,225541.625,178827.28125,-705675.25,182283.765625,0.0087890625,0.98828125,-0.214599609375,-3.265380620956421,0.2441406100988388,0.3356933295726776,93.33334350585938,104857.0,1.0
12:04:46.881034,202493.3125,197411.25,226060.90625,212846.109375,225547.078125,178819.421875,-705687.0,182281.609375,0.00732421875,0.986328125,-0.21533203125,-3.143310308456421,0.2136230319738388,0.3967284858226776,93.33334350585938,104858.0,1.0
12:04:46.891290,202476.234375,197395.5,226049.734375,212841.1875,225506.140625,178799.21875,-705689.0625,182270.96875,0.005859375,0.986328125,-0.216064453125,-3.143310308456421,0.03051757626235485,0.3662109076976776,93.33334350585938,104859.0,1.0
12:04:46.894863,202484.015625,197408.46875,226053.75,212846.640625,225504.703125,178811.8125,-705683.6875,182273.390625,0.00830078125,0.9873046875,-0.21484375,-3.112792730331421,0.0,0.3967284858226776,93.33334350585938,104860.0,1.0
12:04:46.894933,202513.4375,197433.59375,226073.421875,212858.4375,225548.0625,178839.796875,-705677.9375,182287.515625,0.0068359375,0.9873046875,-0.2158203125,-3.082275152206421,0.0610351525247097,0.4577636420726776,93.33334350585938,104861.0,1.0
12:04:46.894959,202524.515625,197442.890625,226088.171875,212864.4375,225571.671875,178849.90625,-705672.6875,182295.375,0.005615234375,0.98681640625,-0.216064453125,-2.929687261581421,0.0,0.4882812201976776,93.33334350585938,104862.0,1.0
12:04:46.897424,202505.390625,197424.65625,226078.703125,212864.078125,225536.984375,178828.625,-705681.625,182293.421875,0.00830078125,0.9853515625,-0.212890625,-2.838134527206421,-0.1220703050494194,0.5493163466453552,93.33334350585938,104863.0,1.0
12:04:46.906129,202505.03125,197433.140625,226076.546875,212866.3125,225524.28125,178835.6875,-705682.6875,182292.609375,0.009521484375,0.984375,-0.21240234375,-2.746581792831421,-0.1831054538488388,0.6408690810203552,93.33334350585938,104864.0,1.0
12:04:46.913054,202529.53125,197453.171875,226092.28125,212873.90625,225562.015625,178859.65625,-705673.5,182302.71875,0.008056640625,0.98583984375,-0.212158203125,-2.685546636581421,-0.2136230319738388,0.7629393935203552,93.33334350585938,104865.0,1.0
12:04:46.913118,202537.03125,197456.921875,226100.6875,212874.09375,225586.421875,178866.53125,-705671.625,182305.390625,0.01025390625,0.987060546875,-0.214599609375,-2.716064214706421,-0.3051757514476776,0.6713866591453552,93.33334350585938,104866.0,1.0
12:04:46.919906,202519.6875,197440.84375,226092.46875,212873.546875,225556.46875,178848.203125,-705677.4375,182301.640625,0.00830078125,0.987060546875,-0.21337890625,-2.563476324081421,-0.3051757514476776,0.8239745497703552,93.33334350585938,104867.0,1.0
12:04:46.926945,202512.09375,197439.9375,226086.921875,212874.265625,225532.328125,178845.4375,-705683.25,182299.140625,0.011474609375,0.9892578125,-0.213134765625,-2.502441167831421,-0.3356933295726776,0.8544921278953552,93.33334350585938,104868.0,1.0
12:04:46.927024,202530.5,197457.015625,226095.0625,212878.65625,225558.96875,178861.890625,-705675.25,182305.390625,0.01025390625,0.989013671875,-0.2138671875,-2.410888433456421,-0.2746581733226776,0.8239745497703552,93.33334350585938,104869.0,1.0
12:04:46.929958,202544.453125,197467.484375,226108.109375,212881.6875,225592.328125,178876.640625,-705662.0625,182313.890625,0.010498046875,0.989501953125,-0.214111328125,-2.319335699081421,-0.2441406100988388,0.9460448622703552,93.33334350585938,104870.0,1.0
12:04:46.930045,202529.4375,197451.921875,226101.859375,212880.171875,225571.765625,178860.8125,-705668.0,182311.5625,0.008544921875,0.989013671875,-0.21435546875,-2.410888433456421,-0.2746581733226776,1.0375975370407104,93.33334350585938,104871.0,1.0
12:04:46.937508,202516.296875,197443.421875,226089.875,212878.296875,225536.359375,178848.46875,-705676.5,182305.84375,0.0107421875,0.985595703125,-0.21435546875,-2.197265386581421,-0.2746581733226776,1.0681151151657104,93.33334350585938,104872.0,1.0
12:04:46.942229,202529.25,197457.734375,226094.25,212879.90625,225554.328125,178865.015625,-705683.125,182308.890625,0.0107421875,0.985107421875,-0.21630859375,-2.075195074081421,-0.2136230319738388,1.1291502714157104,93.33334350585938,104873.0,1.0
12:04:46.942321,202540.4375,197465.609375,226101.859375,212875.609375,225585.171875,178876.90625,-705679.125,182309.59375,0.01220703125,0.983154296875,-0.218017578125,-2.075195074081421,-0.1831054538488388,1.1901854276657104,93.33334350585938,104874.0,1.0
12:04:46.944145,202525.5,197450.40625,226096.671875,212874.09375,225572.296875,178862.59375,-705673.75,182309.421875,0.013671875,0.984375,-0.21728515625,-1.8005369901657104,-0.2746581733226776,1.1596678495407104,93.33334350585938,104875.0,1.0
12:04:46.953766,202506.09375,197436.1875,226078.875,212870.515625,225528.75,178844.8125,-705679.625,182301.1875,0.0146484375,0.986572265625,-0.21728515625,-1.7089842557907104,-0.3051757514476776,1.1596678495407104,93.33334350585938,104876.0,1.0
12:04:46.958053,202515.125,197444.59375,226078.15625,212870.96875,225534.828125,178851.609375,-705682.6875,182299.40625,0.01806640625,0.9873046875,-0.2197265625,-1.4953612089157104,-0.2441406100988388,1.1901854276657104,93.33334350585938,104877.0,1.0
12:04:46.958129,202535.25,197457.640625,226094.171875,212876.765625,225577.390625,178869.75,-705673.5625,182312.1875,0.018310546875,0.984619140625,-0.217529296875,-1.3427733182907104,-0.1220703050494194,1.2207030057907104,93.33334350585938,104878.0,1.0
12:04:46.965034,202526.84375,197448.703125,226090.671875,212874.359375,225570.859375,178859.46875,-705675.625,182309.234375,0.018798828125,0.983642578125,-0.218017578125,-1.2512205839157104,-0.03051757626235485,1.3122557401657104,93.33334350585938,104879.0,1.0
12:04:46.971803,202507.53125,197432.875,226075.5625,212872.03125,225527.0625,178839.71875,-705685.375,182303.515625,0.017822265625,0.98193359375,-0.2158203125,-1.1291502714157104,0.1831054538488388,1.1901854276657104,93.33334350585938,104880.0,1.0
12:04:46.971950,202507.984375,197439.3125,226072.53125,212867.390625,225526.25,178848.125,-705681.625,182299.140625,0.0166015625,0.982177734375,-0.217529296875,-1.0681151151657104,0.2441406100988388,1.0986326932907104,93.33334350585938,104881.0,1.0
12:04:46.976142,202525.859375,197451.390625,226080.390625,212866.40625,225560.578125,178864.65625,-705674.75,182301.109375,0.015625,0.9814453125,-0.215576171875,-0.8850097060203552,0.2746581733226776,0.9460448622703552,93.33334350585938,104882.0,1.0
12:04:46.982543,202521.65625,197446.921875,226085.484375,212866.3125,225571.484375,178863.765625,-705680.25,182304.765625,0.01171875,0.9814453125,-0.216796875,-0.6713866591453552,0.5187987685203552,0.8239745497703552,93.33334350585938,104883.0,1.0
12:04:46.986703,202500.46875,197428.40625,226072.4375,212863.546875,225531.265625,178839.265625,-705680.375,182300.921875,0.012939453125,0.9833984375,-0.21435546875,-0.5493163466453552,0.5187987685203552,0.6408690810203552,93.33334350585938,104884.0,1.0
12:04:46.986725,202503.0625,197439.234375,226070.828125,212863.8125,225522.578125,178847.140625,-705681.4375,182297.078125,0.01220703125,0.98486328125,-0.21240234375,-0.6103515028953552,0.5187987685203552,0.4882812201976776,93.33334350585938,104885.0,1.0
12:04:46.993661,202526.125,197456.921875,226086.125,212869.265625,225563.4375,178869.21875,-705680.8125,182307.71875,0.0087890625,0.98291015625,-0.215576171875,-0.7019042372703552,0.4577636420726776,0.3662109076976776,93.33334350585938,104886.0,1.0
12:04:47.000583,202527.921875,197456.921875,226091.125,212866.046875,225581.328125,178872.171875,-705682.0625,182308.25,0.00830078125,0.986083984375,-0.216064453125,-0.7934569716453552,0.3051757514476776,0.1525878757238388,93.33334350585938,104887.0,1.0
12:04:47.000658,202510.390625,197441.546875,226080.578125,212865.859375,225545.296875,178852.671875,-705685.9375,182303.78125,0.006103515625,0.98876953125,-0.216064453125,-0.7324218153953552,0.3662109076976776,-0.0610351525247097,93.33334350585938,104888.0,1.0
12:04:47.010802,202504.84375,197440.84375,226072.078125,212865.15625,225524.828125,178849.375,-705690.75,182298.6875,0.006103515625,0.990966796875,-0.21533203125,-0.7629393935203552,0.2746581733226776,-0.1831054538488388,93.33334350585938,104889.0,1.0
12:04:47.010828,202525.59375,197456.921875,226084.421875,212871.9375,225558.96875,178867.703125,-705685.5625,182307.8125,0.00732421875,0.99267578125,-0.21728515625,-0.7934569716453552,0.1831054538488388,-0.3356933295726776,93.33334350585938,104890.0,1.0
12:04:47.012464,202536.40625,197462.03125,226096.484375,212878.375,225588.125,178876.015625,-705681.375,182319.078125,0.0107421875,0.994873046875,-0.214111328125,-0.8850097060203552,0.1525878757238388,-0.3356933295726776,93.33334350585938,104891.0,1.0
12:04:47.016137,202519.6875,197444.859375,226088.171875,212874.09375,225557.984375,178856.25,-705678.6875,182314.15625,0.013427734375,0.996337890625,-0.214111328125,-1.0681151151657104,0.0915527269244194,-0.3356933295726776,93.33334350585938,104892.0,1.0
12:04:47.025553,202508.25,197439.765625,226076.734375,212869.265625,225527.5,178847.140625,-705678.125,182304.953125,0.013916015625,0.997802734375,-0.21435546875,-1.0986326932907104,0.1831054538488388,-0.3356933295726776,93.33334350585938,104893.0,1.0
12:04:47.025567,202526.9375,197454.78125,226086.46875,212875.25,225554.59375,178866.171875,-705671.0625,182312.375,0.017333984375,0.99853515625,-0.218994140625,-1.0986326932907104,0.0610351525247097,-0.2441406100988388,93.33334350585938,104894.0,1.0
12:04:47.027468,202541.140625,197464.53125,226099.265625,212879.546875,225588.203125,178879.140625,-705670.625,182320.78125,0.016845703125,0.998046875,-0.21728515625,-1.2512205839157104,0.2441406100988388,-0.0915527269244194,93.33334350585938,104895.0,1.0
12:04:47.034878,202526.9375,197451.5625,226093.625,212878.03125,225567.640625,178864.125,-705669.625,182317.90625,0.015625,0.9990234375,-0.218505859375,-1.3427733182907104,0.4272460639476776,-0.03051757626235485,93.33334350585938,104896.0,1.0
12:04:47.041189,202512.453125,197442.171875,226079.046875,212873.640625,225529.65625,178852.953125,-705674.1875,182310.21875,0.015869140625,0.998046875,-0.220703125,-1.4038084745407104,0.4577636420726776,0.0610351525247097,93.33334350585938,104897.0,1.0
12:04:47.041224,202525.140625,197452.453125,226082.265625,212875.515625,225546.09375,178862.328125,-705678.9375,182311.296875,0.0146484375,0.99755859375,-0.218994140625,-1.6479490995407104,0.5493163466453552,0.2136230319738388,93.33334350585938,104898.0,1.0
12:04:47.044934,202542.484375,197465.25,226096.84375,212879.0,225583.828125,178878.609375,-705668.9375,182320.859375,0.011962890625,0.995849609375,-0.218017578125,-1.8310545682907104,0.5798339247703552,0.2746581733226776,93.33334350585938,104899.0,1.0
12:04:47.053179,202531.9375,197455.59375,226095.140625,212879.0,225573.28125,178870.109375,-705668.5625,182319.609375,0.009765625,0.99658203125,-0.21875,-1.9226073026657104,0.5798339247703552,0.2441406100988388,93.33334350585938,104900.0,1.0
12:04:47.053190,202509.40625,197436.90625,226076.109375,212870.328125,225528.21875,178846.234375,-705673.5625,182307.71875,0.007080078125,0.99462890625,-0.2177734375,-2.044677495956421,0.5187987685203552,0.3662109076976776,93.33334350585938,104901.0,1.0
12:04:47.059170,202519.78125,197450.765625,226078.875,212870.0625,225535.90625,178859.203125,-705680.0,182306.921875,0.0048828125,0.9931640625,-0.217529296875,-2.044677495956421,0.4882812201976776,0.3967284858226776,93.33334350585938,104902.0,1.0
12:04:47.059184,202538.90625,197464.53125,226093.09375,212874.09375,225575.609375,178876.90625,-705681.5,182315.859375,0.004638671875,0.99462890625,-0.218017578125,-2.075195074081421,0.5187987685203552,0.4577636420726776,93.33334350585938,104903.0,1.0
12:04:47.061147,202529.25,197451.921875,226090.953125,212871.59375,225574.984375,178865.015625,-705684.9375,182313.625,0.0048828125,0.99462890625,-0.21435546875,-2.258300542831421,0.3662109076976776,0.6408690810203552,93.33334350585938,104904.0,1.0
12:04:47.086130,202507.984375,197435.296875,226077.71875,212869.359375,225533.140625,178845.796875,-705678.5625,182306.921875,0.0029296875,0.993896484375,-0.21435546875,-2.380370855331421,0.2746581733226776,0.7324218153953552,93.33334350585938,104905.0,1.0
12:04:47.107502,202514.765625,197446.203125,226079.953125,212871.859375,225534.390625,178857.421875,-705678.5,182307.09375,0.000732421875,0.992919921875,-0.2158203125,-2.380370855331421,0.1220703050494194,0.6408690810203552,93.33334350585938,104906.0,1.0
12:04:47.110101,202534.4375,197460.5,226092.46875,212873.015625,225572.75,178874.140625,-705679.3125,182313.4375,0.00048828125,0.991943359375,-0.21337890625,-2.532958745956421,-0.03051757626235485,0.6408690810203552,93.33334350585938,104907.0,1.0
12:04:47.112589,202533.8125,197458.09375,226098.09375,212871.140625,225586.59375,178874.21875,-705672.125,182314.25,0.001708984375,0.989990234375,-0.2138671875,-2.624511480331421,-0.1831054538488388,0.7019042372703552,93.33334350585938,104908.0,1.0
12:04:47.115030,202511.640625,197439.765625,226085.671875,212869.890625,225548.6875,178853.390625,-705676.625,182311.203125,0.00244140625,0.990478515625,-0.213134765625,-2.563476324081421,-0.1831054538488388,0.6713866591453552,93.33334350585938,104909.0,1.0
12:04:47.117385,202512.359375,197446.296875,226083.078125,212871.140625,225538.59375,178860.546875,-705678.5,182309.6875,0.001708984375,0.990234375,-0.212646484375,-2.716064214706421,-0.3662109076976776,0.7019042372703552,93.33334350585938,104910.0,1.0
12:04:47.119922,202533.90625,197462.46875,226095.859375,212876.140625,225575.0625,178876.546875,-705668.1875,182318.625,0.0029296875,0.990234375,-0.21435546875,-2.685546636581421,-0.4882812201976776,0.8850097060203552,93.33334350585938,104911.0,1.0
12:04:47.122483,202536.5,197464.265625,226100.78125,212875.078125,225592.234375,178877.171875,-705665.0625,182319.515625,0.004150390625,0.989501953125,-0.213623046875,-2.655029058456421,-0.5493163466453552,0.9460448622703552,93.33334350585938,104912.0,1.0
12:04:47.124981,202516.921875,197445.125,226088.984375,212871.765625,225555.578125,178854.46875,-705671.0625,182313.625,0.005126953125,0.98828125,-0.212890625,-2.716064214706421,-0.6103515028953552,1.0070799589157104,93.33334350585938,104913.0,1.0
12:04:47.127333,202512.984375,197445.9375,226082.8125,212869.984375,225535.453125,178853.390625,-705673.3125,182307.359375,0.007080078125,0.98681640625,-0.212646484375,-2.655029058456421,-0.6408690810203552,1.0986326932907104,93.33334350585938,104914.0,1.0
12:04:47.129958,202536.140625,197464.265625,226093.625,212875.515625,225566.484375,178873.515625,-705676.4375,182313.265625,0.01171875,0.986572265625,-0.213134765625,-2.685546636581421,-0.6713866591453552,1.0375975370407104,93.33334350585938,104915.0,1.0
12:04:47.132443,202546.78125,197471.6875,226105.875,212879.640625,225597.328125,178883.796875,-705674.4375,182320.78125,0.01318359375,0.98681640625,-0.21142578125,-2.624511480331421,-0.6103515028953552,1.0681151151657104,93.33334350585938,104916.0,1.0
12:04:47.163798,202526.84375,197453.0,226095.328125,212875.25,225566.9375,178860.1875,-705669.5625,182313.796875,0.014404296875,0.98486328125,-0.213134765625,-2.563476324081421,-0.7019042372703552,1.2512205839157104,93.33334350585938,104917.0,1.0
12:04:47.166254,202514.234375,197445.65625,226084.234375,212871.140625,225533.9375,178849.453125,-705674.1875,182305.390625,0.015869140625,0.985595703125,-0.2138671875,-2.532958745956421,-0.5493163466453552,1.2512205839157104,93.33334350585938,104918.0,1.0
12:04:47.169246,202532.5625,197463.546875,226093.1875,212876.6875,225559.515625,178869.484375,-705674.4375,182311.65625,0.01611328125,0.989013671875,-0.212158203125,-2.441406011581421,-0.5493163466453552,1.3122557401657104,93.33334350585938,104919.0,1.0
12:04:47.169321,202546.515625,197472.671875,226104.984375,212880.171875,225595.546875,178882.625,-705673.3125,182320.140625,0.01416015625,0.988037109375,-0.213623046875,-2.319335699081421,-0.4577636420726776,1.4343260526657104,93.33334350585938,104920.0,1.0
12:04:47.171168,202530.234375,197456.21875,226097.828125,212877.671875,225574.625,178862.15625,-705671.875,182316.578125,0.015869140625,0.98681640625,-0.2158203125,-2.288818120956421,-0.3051757514476776,1.5258787870407104,93.33334350585938,104921.0,1.0
12:04:47.174167,202509.765625,197440.921875,226080.75,212871.859375,225534.296875,178846.421875,-705682.25,182307.546875,0.01611328125,0.986328125,-0.21240234375,-2.227782964706421,-0.2746581733226776,1.4038084745407104,93.33334350585938,104922.0,1.0
12:04:47.174180,202522.453125,197454.34375,226084.234375,212872.75,225550.03125,178863.859375,-705682.875,182310.140625,0.0166015625,0.9853515625,-0.212890625,-2.075195074081421,-0.1220703050494194,1.4343260526657104,93.33334350585938,104923.0,1.0
12:04:47.176137,202537.578125,197462.390625,226095.234375,212873.109375,225585.4375,178876.8125,-705674.9375,182315.765625,0.01708984375,0.985107421875,-0.215087890625,-2.044677495956421,-0.0915527269244194,1.4648436307907104,93.33334350585938,104924.0,1.0
12:04:47.178684,202523.171875,197445.578125,226088.4375,212867.203125,225571.9375,178856.96875,-705677.5,182310.578125,0.016357421875,0.98583984375,-0.212646484375,-2.044677495956421,-0.03051757626235485,1.4953612089157104,93.33334350585938,104925.0,1.0
12:04:47.181197,202505.828125,197433.140625,226074.859375,212865.15625,225531.609375,178842.125,-705679.1875,182303.875,0.016845703125,0.987060546875,-0.213623046875,-2.014159917831421,0.1831054538488388,1.4648436307907104,93.33334350585938,104926.0,1.0
12:04:47.183723,202513.609375,197444.953125,226077.4375,212867.75,225539.75,178856.703125,-705680.4375,182303.875,0.016357421875,0.985595703125,-0.215087890625,-1.8615721464157104,0.2746581733226776,1.4648436307907104,93.33334350585938,104927.0,1.0
12:04:47.186213,202534.078125,197458.71875,226090.953125,212873.46875,225579.265625,178873.421875,-705677.625,182314.0625,0.016845703125,0.985595703125,-0.21435546875,-1.7700194120407104,0.2746581733226776,1.4343260526657104,93.33334350585938,104928.0,1.0
12:04:47.188594,202529.4375,197452.375,226093.984375,212874.0,225582.578125,178867.78125,-705677.3125,182315.859375,0.015625,0.984130859375,-0.212158203125,-1.7395018339157104,0.4272460639476776,1.2817381620407104,93.33334350585938,104929.0,1.0
12:04:47.191155,202511.828125,197438.6875,226083.609375,212874.265625,225543.328125,178851.25,-705679.375,182311.828125,0.01611328125,0.984130859375,-0.21435546875,-1.6784666776657104,0.3662109076976776,1.1901854276657104,93.33334350585938,104930.0,1.0
12:04:47.194147,202513.78125,197446.296875,226080.578125,212873.203125,225539.125,178858.125,-705679.125,182308.25,0.015380859375,0.9833984375,-0.216796875,-1.5258787870407104,0.4577636420726776,1.1901854276657104,93.33334350585938,104931.0,1.0
12:04:47.194158,202535.328125,197461.84375,226093.1875,212878.296875,225577.75,178877.171875,-705676.5,182318.53125,0.01611328125,0.986083984375,-0.217041015625,-1.5563963651657104,0.5798339247703552,1.0986326932907104,93.33334350585938,104932.0,1.0
12:04:47.196672,202532.46875,197455.671875,226095.5,212875.875,225587.5,178873.515625,-705677.75,182319.4375,0.01708984375,0.98876953125,-0.214111328125,-1.4648436307907104,0.6713866591453552,1.0986326932907104,93.33334350585938,104933.0,1.0
12:04:47.196688,202512.0,197435.5625,226082.359375,212874.71875,225547.703125,178848.75,-705679.5625,182315.40625,0.017578125,0.989501953125,-0.215576171875,-1.4038084745407104,0.6408690810203552,1.0681151151657104,93.33334350585938,104934.0,1.0
12:04:47.198587,202509.3125,197438.25,226077.890625,212873.828125,225534.296875,178851.15625,-705685.625,182311.75,0.016845703125,0.990478515625,-0.216796875,-1.4038084745407104,0.8239745497703552,0.9765624403953552,93.33334350585938,104935.0,1.0
12:04:47.201672,202526.75,197452.640625,226088.703125,212875.609375,225567.828125,178869.03125,-705690.8125,182319.609375,0.019287109375,0.9892578125,-0.21630859375,-1.5258787870407104,1.0070799589157104,0.9460448622703552,93.33334350585938,104936.0,1.0
12:04:47.201685,202528.8125,197451.921875,226093.71875,212873.828125,225587.3125,178870.203125,-705689.875,182322.921875,0.017822265625,0.98779296875,-0.21630859375,-1.4038084745407104,1.0375975370407104,0.9460448622703552,93.33334350585938,104937.0,1.0
12:04:47.203639,202509.9375,197433.5,226082.09375,212872.125,225551.640625,178848.5625,-705689.0625,182317.46875,0.01611328125,0.989013671875,-0.21728515625,-1.4038084745407104,1.0681151151657104,0.8850097060203552,93.33334350585938,104938.0,1.0
12:04:47.207991,202505.390625,197435.921875,226074.765625,212869.4375,225528.390625,178848.390625,-705683.0625,182309.515625,0.01708984375,0.989013671875,-0.216552734375,-1.3427733182907104,1.0986326932907104,0.8544921278953552,93.33334350585938,104939.0,1.0
12:04:47.207998,202525.5,197452.09375,226084.6875,212874.0,225558.703125,178866.359375,-705682.3125,182315.59375,0.017333984375,0.990478515625,-0.216552734375,-1.2512205839157104,1.2207030057907104,0.7934569716453552,93.33334350585938,104940.0,1.0
12:04:47.218017,202538.46875,197461.578125,226097.390625,212878.203125,225590.0,178875.03125,-705684.0625,182323.1875,0.017333984375,0.990234375,-0.21630859375,-1.2817381620407104,1.3427733182907104,0.7629393935203552,93.33334350585938,104941.0,1.0
12:04:47.218030,202524.25,197446.640625,226090.859375,212879.09375,225564.96875,178858.84375,-705682.3125,182322.03125,0.015625,0.990234375,-0.214111328125,-1.2512205839157104,1.4343260526657104,0.7019042372703552,93.33334350585938,104942.0,1.0
12:04:47.220452,202510.75,197437.796875,226078.609375,212875.609375,225531.4375,178848.296875,-705686.0625,182313.4375,0.013427734375,0.991943359375,-0.213623046875,-1.2512205839157104,1.3427733182907104,0.7324218153953552,93.33334350585938,104943.0,1.0
12:04:47.220465,202524.609375,197450.484375,226084.421875,212876.140625,225552.8125,178863.234375,-705678.9375,182314.515625,0.012939453125,0.99072265625,-0.21826171875,-1.2207030057907104,1.3427733182907104,0.7019042372703552,93.33334350585938,104944.0,1.0
12:04:47.229887,202539.09375,197459.609375,226095.6875,212878.828125,225586.6875,178874.578125,-705674.9375,182320.59375,0.011962890625,0.990234375,-0.21630859375,-1.1596678495407104,1.2512205839157104,0.7019042372703552,93.33334350585938,104945.0,1.0
12:04:47.237898,202523.09375,197443.96875,226088.359375,212875.515625,225567.015625,178857.859375,-705680.0,182315.40625,0.010986328125,0.989013671875,-0.21533203125,-1.1901854276657104,1.1596678495407104,0.6713866591453552,93.33334350585938,104946.0,1.0
12:04:47.237906,202507.796875,197435.375,226076.546875,212874.09375,225529.296875,178844.90625,-705679.5625,182308.25,0.01025390625,0.988525390625,-0.217041015625,-1.1596678495407104,1.0986326932907104,0.5493163466453552,93.33334350585938,104947.0,1.0
12:04:47.240425,202520.765625,197448.96875,226081.921875,212874.71875,225543.6875,178859.65625,-705682.5,182308.796875,0.009033203125,0.98779296875,-0.2158203125,-1.0986326932907104,0.9765624403953552,0.5798339247703552,93.33334350585938,104948.0,1.0
12:04:47.240435,202542.75,197464.078125,226098.640625,212881.0625,225585.265625,178877.53125,-705688.6875,182321.671875,0.009765625,0.98828125,-0.214599609375,-1.0070799589157104,1.0070799589157104,0.4882812201976776,93.33334350585938,104949.0,1.0
12:04:47.251100,202537.296875,197458.09375,226100.78125,212882.765625,225583.296875,178870.640625,-705687.8125,182325.515625,0.00927734375,0.986083984375,-0.216796875,-0.9460448622703552,0.8239745497703552,0.5798339247703552,93.33334350585938,104950.0,1.0
12:04:47.258609,202522.375,197446.640625,226090.953125,212883.484375,225545.921875,178855.1875,-705686.5625,182322.203125,0.0087890625,0.986572265625,-0.218017578125,-0.9765624403953552,0.7934569716453552,0.4882812201976776,93.33334350585938,104951.0,1.0
12:04:47.258682,202531.84375,197457.28125,226092.640625,212887.046875,225550.296875,178865.46875,-705683.125,182322.921875,0.008056640625,0.988037109375,-0.216064453125,-0.8850097060203552,0.7629393935203552,0.4882812201976776,93.33334350585938,104952.0,1.0
12:04:47.264287,202550.171875,197467.84375,226102.484375,212884.90625,225585.34375,178876.90625,-705678.3125,182325.515625,0.009765625,0.98876953125,-0.215576171875,-0.9155272841453552,0.6408690810203552,0.5493163466453552,93.33334350585938,104953.0,1.0
12:04:47.264358,202544.71875,197461.484375,226104.53125,212884.109375,225589.46875,178870.375,-705678.375,182326.859375,0.011962890625,0.990234375,-0.2138671875,-0.9155272841453552,0.5493163466453552,0.6103515028953552,93.33334350585938,104954.0,1.0
12:04:47.276668,202523.984375,197443.609375,226091.296875,212881.25,225549.046875,178849.8125,-705682.1875,182321.75,0.011962890625,0.99072265625,-0.218017578125,-0.9155272841453552,0.4577636420726776,0.6408690810203552,93.33334350585938,104955.0,1.0
12:04:47.276896,202526.125,197450.578125,226089.25,212880.96875,225544.578125,178857.0625,-705675.5625,182318.890625,0.012451171875,0.990234375,-0.219482421875,-0.9155272841453552,0.3967284858226776,0.6408690810203552,93.33334350585938,104956.0,1.0
12:04:47.276906,202546.875,197465.953125,226102.296875,212886.15625,225583.109375,178875.75,-705673.75,182328.90625,0.011962890625,0.9912109375,-0.21826171875,-0.9460448622703552,0.4577636420726776,0.7019042372703552,93.33334350585938,104957.0,1.0
12:04:47.286705,202545.53125,197464.078125,226108.828125,212883.390625,225597.328125,178874.671875,-705681.1875,182330.515625,0.012939453125,0.992919921875,-0.2158203125,-0.9765624403953552,0.3967284858226776,0.7934569716453552,93.33334350585938,104958.0,1.0
12:04:47.286722,202524.0625,197445.578125,226096.21875,212878.5625,225557.984375,178853.21875,-705685.5625,182325.0625,0.01220703125,0.994140625,-0.21630859375,-1.0070799589157104,0.2441406100988388,0.8850097060203552,93.33334350585938,104959.0,1.0
12:04:47.312373,202521.203125,197448.703125,226087.28125,212875.703125,225538.5,178854.46875,-705682.6875,182317.734375,0.0146484375,0.993896484375,-0.217041015625,-1.0681151151657104,0.3051757514476776,0.9155272841453552,93.33334350585938,104960.0,1.0
12:04:47.312415,202546.15625,197468.546875,226099.0,212879.640625,225572.5625,178875.5625,-705680.375,182323.90625,0.012939453125,0.99365234375,-0.2197265625,-1.1901854276657104,0.2746581733226776,0.9155272841453552,93.33334350585938,104961.0,1.0
12:04:47.312420,202550.4375,197470.421875,226105.703125,212876.765625,225594.296875,178880.125,-705682.8125,182324.34375,0.011962890625,0.992919921875,-0.2177734375,-1.2512205839157104,0.1220703050494194,1.0070799589157104,93.33334350585938,104962.0,1.0
12:04:47.314990,202529.796875,197447.625,226094.703125,212874.625,225560.9375,178853.578125,-705689.9375,182320.5,0.01171875,0.993896484375,-0.21630859375,-1.2207030057907104,0.0610351525247097,1.0070799589157104,93.33334350585938,104963.0,1.0
12:04:47.318007,202522.375,197449.15625,226086.65625,212873.203125,225536.625,178854.375,-705676.4375,182314.78125,0.011962890625,0.993896484375,-0.215087890625,-1.3427733182907104,0.0,1.0375975370407104,93.33334350585938,104964.0,1.0
12:04:47.318039,202543.03125,197468.109375,226097.109375,212877.9375,225566.484375,178873.6875,-705667.5,182320.78125,0.011962890625,0.992431640625,-0.21533203125,-1.4038084745407104,0.0,1.0986326932907104,93.33334350585938,104965.0,1.0
12:04:47.321359,202552.953125,197473.5625,226108.734375,212879.1875,225596.53125,178882.71875,-705675.25,182327.921875,0.0126953125,0.991943359375,-0.216064453125,-1.5258787870407104,0.03051757626235485,1.0070799589157104,93.33334350585938,104966.0,1.0
12:04:47.321384,202533.28125,197453.265625,226097.828125,212874.265625,225567.640625,178860.8125,-705674.4375,182322.203125,0.0107421875,0.9921875,-0.2158203125,-1.5869139432907104,-0.0610351525247097,1.0681151151657104,93.33334350585938,104967.0,1.0
12:04:47.321394,202518.703125,197445.578125,226084.234375,212869.890625,225533.671875,178850.359375,-705679.125,182313.71875,0.01123046875,0.994140625,-0.21484375,-1.6174315214157104,-0.03051757626235485,1.0681151151657104,93.33334350585938,104968.0,1.0
12:04:47.323689,202535.25,197461.21875,226091.390625,212875.078125,225556.03125,178866.625,-705671.0625,182319.703125,0.01318359375,0.991455078125,-0.214599609375,-1.7395018339157104,-0.1220703050494194,0.9765624403953552,93.33334350585938,104969.0,1.0
12:04:47.326137,202550.625,197472.125,226103.546875,212879.0,225591.515625,178880.03125,-705669.75,182328.1875,0.012939453125,0.991943359375,-0.216064453125,-1.8005369901657104,-0.3051757514476776,1.0070799589157104,93.33334350585938,104970.0,1.0
12:04:47.336098,202530.78125,197452.546875,226092.203125,212871.40625,225569.703125,178863.234375,-705670.625,182321.484375,0.013916015625,0.9892578125,-0.218017578125,-1.7700194120407104,-0.2441406100988388,0.9765624403953552,93.33334350585938,104971.0,1.0
12:04:47.340426,202510.75,197436.1875,226074.140625,212864.96875,225527.234375,178842.03125,-705679.125,182313.359375,0.014892578125,0.988037109375,-0.219482421875,-1.8920897245407104,-0.2441406100988388,0.8544921278953552,93.33334350585938,104972.0,1.0
12:04:47.340448,202517.453125,197444.859375,226072.265625,212860.40625,225535.546875,178853.390625,-705681.4375,182307.546875,0.013671875,0.98828125,-0.21484375,-1.9226073026657104,-0.2441406100988388,0.7629393935203552,93.33334350585938,104973.0,1.0
12:04:47.346113,202540.609375,197463.28125,226089.875,212869.078125,225578.375,178877.0,-705678.25,182321.9375,0.015869140625,0.99072265625,-0.21435546875,-1.9836424589157104,-0.2136230319738388,0.8239745497703552,93.33334350585938,104974.0,1.0
12:04:47.352917,202529.34375,197454.96875,226088.703125,212866.84375,225572.828125,178870.828125,-705674.5625,182320.59375,0.0185546875,0.990966796875,-0.216552734375,-1.9226073026657104,-0.2746581733226776,0.7324218153953552,93.33334350585938,104975.0,1.0
12:04:47.352939,202506.1875,197436.90625,226072.078125,212860.859375,225529.296875,178848.5625,-705681.5,182312.546875,0.018310546875,0.989501953125,-0.216796875,-1.9531248807907104,-0.2746581733226776,0.5798339247703552,93.33334350585938,104976.0,1.0
12:04:47.363292,202510.03125,197445.390625,226069.84375,212858.984375,225530.359375,178858.40625,-705675.1875,182309.59375,0.01708984375,0.989013671875,-0.21484375,-1.8920897245407104,-0.2441406100988388,0.5798339247703552,93.33334350585938,104977.0,1.0
12:04:47.363315,202530.234375,197459.875,226082.625,212861.125,225569.53125,178875.921875,-705665.875,182317.90625,0.0185546875,0.99072265625,-0.217529296875,-2.075195074081421,-0.1525878757238388,0.6103515028953552,93.33334350585938,104978.0,1.0
12:04:47.370486,202526.578125,197455.671875,226085.84375,212859.875,225575.421875,178872.609375,-705669.75,182319.34375,0.018798828125,0.989990234375,-0.216552734375,-2.044677495956421,-0.1220703050494194,0.6713866591453552,93.33334350585938,104979.0,1.0
12:04:47.370505,202509.234375,197439.765625,226074.859375,212860.859375,225536.4375,178852.859375,-705670.1875,182316.390625,0.016845703125,0.989501953125,-0.216064453125,-2.136230230331421,0.0,0.5493163466453552,93.33334350585938,104980.0,1.0
12:04:47.380457,202508.6875,197444.5,226068.953125,212858.265625,225524.90625,178854.90625,-705676.375,182308.703125,0.017333984375,0.987548828125,-0.21337890625,-2.136230230331421,-0.1220703050494194,0.5798339247703552,93.33334350585938,104981.0,1.0
12:04:47.380467,202531.9375,197461.84375,226081.921875,212864.078125,225562.90625,178876.734375,-705672.5,182317.828125,0.0185546875,0.988037109375,-0.216552734375,-2.136230230331421,0.03051757626235485,0.4882812201976776,93.33334350585938,104982.0,1.0
12:04:47.383095,202531.765625,197458.09375,226087.8125,212864.078125,225577.921875,178873.328125,-705664.25,182321.484375,0.01806640625,0.987060546875,-0.217041015625,-2.197265386581421,0.03051757626235485,0.4577636420726776,93.33334350585938,104983.0,1.0
12:04:47.383107,202508.609375,197435.296875,226072.625,212859.515625,225535.1875,178845.609375,-705660.0,182313.4375,0.015380859375,0.986572265625,-0.217041015625,-2.136230230331421,0.0610351525247097,0.2746581733226776,93.33334350585938,104984.0,1.0
12:04:47.390005,202503.78125,197438.421875,226064.84375,212854.515625,225516.78125,178847.578125,-705665.6875,182304.5,0.0185546875,0.98974609375,-0.216796875,-2.105712652206421,0.1525878757238388,0.3051757514476776,93.33334350585938,104985.0,1.0
12:04:47.400460,202527.640625,197456.03125,226079.40625,212862.640625,225553.34375,178869.03125,-705660.1875,182315.859375,0.014892578125,0.990478515625,-0.2158203125,-2.105712652206421,0.1525878757238388,0.3356933295726776,93.33334350585938,104986.0,1.0
12:04:47.400467,202533.015625,197458.359375,226086.65625,212862.203125,225576.046875,178873.328125,-705661.25,182320.0625,0.016357421875,0.990234375,-0.216064453125,-2.136230230331421,0.2441406100988388,0.3356933295726776,93.33334350585938,104987.0,1.0
12:04:47.403033,202511.109375,197438.875,226073.0625,212859.15625,225542.171875,178853.03125,-705666.6875,182314.78125,0.015869140625,0.991455078125,-0.216796875,-2.136230230331421,0.1831054538488388,0.2441406100988388,93.33334350585938,104988.0,1.0
12:04:47.403049,202503.5,197436.90625,226065.734375,212857.8125,225518.390625,178848.296875,-705664.0,182310.84375,0.015380859375,0.992431640625,-0.21533203125,-2.136230230331421,0.1831054538488388,0.2441406100988388,93.33334350585938,104989.0,1.0
12:04:47.412431,202522.375,197452.28125,226075.75,212861.84375,225546.8125,178867.078125,-705662.125,182316.125,0.01318359375,0.9931640625,-0.2138671875,-2.105712652206421,0.2136230319738388,0.2136230319738388,93.33334350585938,104990.0,1.0
12:04:47.419882,202537.921875,197463.546875,226090.5,212866.9375,225580.515625,178880.9375,-705654.5,182325.328125,0.013427734375,0.994873046875,-0.212646484375,-2.105712652206421,0.2136230319738388,0.1525878757238388,93.33334350585938,104991.0,1.0
12:04:47.419904,202521.390625,197447.1875,226082.71875,212863.984375,225556.03125,178863.234375,-705653.25,182321.3125,0.01220703125,0.992431640625,-0.21630859375,-2.105712652206421,0.2136230319738388,0.2136230319738388,93.33334350585938,104992.0,1.0
12:04:47.419906,202513.4375,197446.015625,226076.640625,212866.21875,225527.859375,178859.203125,-705655.3125,182319.25,0.013427734375,0.99365234375,-0.21142578125,-2.105712652206421,0.0915527269244194,0.2441406100988388,93.33334350585938,104993.0,1.0
12:04:47.422354,202530.78125,197461.84375,226085.765625,212871.765625,225552.09375,178875.03125,-705654.1875,182324.34375,0.01416015625,0.992919921875,-0.214111328125,-2.166747808456421,0.0915527269244194,0.2746581733226776,93.33334350585938,104994.0,1.0
12:04:47.426077,202547.765625,197472.75,226099.171875,212874.359375,225590.53125,178889.609375,-705657.3125,182331.765625,0.0126953125,0.991455078125,-0.21240234375,-2.136230230331421,0.0915527269244194,0.2136230319738388,93.33334350585938,104995.0,1.0
12:04:47.464935,202536.3125,197460.59375,226096.046875,212873.46875,225578.90625,178878.515625,-705651.9375,182330.15625,0.012451171875,0.9921875,-0.21337890625,-2.166747808456421,0.1831054538488388,0.2746581733226776,93.33334350585938,104996.0,1.0
12:04:47.478066,202521.65625,197449.78125,226085.484375,212877.84375,225543.234375,178865.640625,-705650.0,182330.96875,0.0126953125,0.992431640625,-0.213134765625,-2.136230230331421,0.03051757626235485,0.3356933295726776,93.33334350585938,104997.0,1.0
12:04:47.478079,202526.03125,197455.140625,226082.265625,212873.109375,225546.640625,178871.09375,-705649.25,182325.328125,0.0126953125,0.990966796875,-0.2109375,-2.258300542831421,0.0915527269244194,0.3051757514476776,93.33334350585938,104998.0,1.0
12:04:47.480286,202529.4375,197450.9375,226080.75,212861.484375,225569.609375,178870.015625,-705658.75,182318.8125,0.0107421875,0.988525390625,-0.211669921875,-2.166747808456421,0.03051757626235485,0.3967284858226776,93.33334350585938,104999.0,1.0
12:04:47.482363,202512.890625,197432.15625,226074.140625,212855.5,225560.859375,178851.25,-705668.8125,182312.90625,0.01025390625,0.98779296875,-0.21240234375,-2.136230230331421,-0.0915527269244194,0.3967284858226776,93.33334350585938,105000.0,1.0
12:04:47.484873,202492.0625,197414.375,226057.859375,212851.734375,225516.953125,178828.8125,-705672.5625,182304.5,0.010009765625,0.98681640625,-0.212646484375,-2.075195074081421,-0.0610351525247097,0.3662109076976776,93.33334350585938,105001.0,1.0
12:04:47.487320,202494.46875,197420.890625,226054.734375,212849.6875,225514.1875,178834.078125,-705670.875,182300.03125,0.01025390625,0.98681640625,-0.209716796875,-1.9226073026657104,-0.1831054538488388,0.3967284858226776,93.33334350585938,105002.0,1.0
12:04:47.489950,202517.8125,197436.90625,226070.203125,212854.234375,225552.984375,178853.390625,-705664.4375,182310.140625,0.009765625,0.987060546875,-0.2060546875,-1.8310545682907104,-0.2136230319738388,0.5798339247703552,93.33334350585938,105003.0,1.0
12:04:47.492353,202515.671875,197431.625,226074.3125,212855.5,225561.921875,178846.859375,-705674.8125,182313.4375,0.0107421875,0.985595703125,-0.21142578125,-1.7395018339157104,-0.3051757514476776,0.7324218153953552,93.33334350585938,105004.0,1.0
12:04:47.494917,202500.640625,197419.640625,226065.90625,212858.71875,225525.359375,178832.5625,-705677.25,182311.46875,0.009765625,0.987548828125,-0.21484375,-1.8005369901657104,-0.2441406100988388,0.6408690810203552,93.33334350585938,105005.0,1.0
12:04:47.497342,202507.53125,197429.65625,226067.515625,212864.25,225520.703125,178839.625,-705677.3125,182313.0,0.01123046875,0.989501953125,-0.21240234375,-1.7395018339157104,-0.3051757514476776,0.6713866591453552,93.33334350585938,105006.0,1.0
12:04:47.499909,202531.3125,197449.59375,226082.453125,212869.171875,225559.328125,178861.625,-705676.6875,182322.296875,0.012939453125,0.98828125,-0.212646484375,-1.5258787870407104,-0.3662109076976776,0.7934569716453552,93.33334350585938,105007.0,1.0
12:04:47.502383,202532.65625,197447.71875,226088.265625,212865.78125,225576.3125,178863.140625,-705676.5,182323.09375,0.01318359375,0.988525390625,-0.212646484375,-1.4648436307907104,-0.3051757514476776,0.8239745497703552,93.33334350585938,105008.0,1.0
12:04:47.504892,202516.296875,197432.875,226081.640625,212866.765625,225545.390625,178846.15625,-705676.0625,182322.5625,0.013671875,0.98681640625,-0.214111328125,-1.4953612089157104,-0.4272460639476776,0.8239745497703552,93.33334350585938,105009.0,1.0
12:04:47.508111,202512.0,197439.3125,226078.34375,212867.03125,225530.984375,178851.34375,-705682.8125,182320.0625,0.013671875,0.988525390625,-0.212646484375,-1.4038084745407104,-0.3051757514476776,0.9155272841453552,93.33334350585938,105010.0,1.0
12:04:47.508145,202531.21875,197453.078125,226087.375,212870.515625,225561.921875,178866.625,-705673.1875,182325.515625,0.013916015625,0.990234375,-0.209716796875,-1.3122557401657104,-0.3662109076976776,0.9765624403953552,93.33334350585938,105011.0,1.0
12:04:47.509903,202535.96875,197453.796875,226091.296875,212863.890625,225583.296875,178869.03125,-705666.6875,182322.296875,0.014892578125,0.989501953125,-0.2119140625,-1.3122557401657104,-0.3967284858226776,0.9460448622703552,93.33334350585938,105012.0,1.0
12:04:47.512928,202517.625,197436.8125,226079.859375,212861.84375,225550.21875,178849.1875,-705675.625,182317.46875,0.014404296875,0.98974609375,-0.210693359375,-1.2512205839157104,-0.3356933295726776,0.9765624403953552,93.33334350585938,105013.0,1.0
12:04:47.512934,202508.875,197434.671875,226071.453125,212861.65625,225523.84375,178846.515625,-705675.875,182313.078125,0.016357421875,0.989013671875,-0.209228515625,-1.2817381620407104,-0.3051757514476776,1.0070799589157104,93.33334350585938,105014.0,1.0
12:04:47.515448,202526.65625,197449.859375,226080.75,212866.484375,225551.828125,178865.734375,-705668.9375,182319.875,0.016845703125,0.986083984375,-0.21044921875,-1.1291502714157104,-0.3356933295726776,0.9765624403953552,93.33334350585938,105015.0,1.0
12:04:47.515456,202540.25,197457.640625,226092.46875,212869.890625,225584.90625,178877.71875,-705663.5625,182327.921875,0.017333984375,0.98583984375,-0.210693359375,-1.1596678495407104,-0.3662109076976776,0.8850097060203552,93.33334350585938,105016.0,1.0
12:04:47.517379,202523.4375,197441.015625,226083.703125,212865.859375,225560.140625,178860.1875,-705671.0,182321.84375,0.01611328125,0.986328125,-0.2119140625,-1.0986326932907104,-0.2746581733226776,0.9155272841453552,93.33334350585938,105017.0,1.0
12:04:47.526134,202514.5,197439.5,226077.09375,212867.109375,225529.921875,178855.453125,-705671.4375,182319.515625,0.018310546875,0.986083984375,-0.21484375,-0.9460448622703552,-0.2136230319738388,1.0070799589157104,93.33334350585938,105018.0,1.0
12:04:47.533675,202532.296875,197454.421875,226085.578125,212873.109375,225551.375,178867.96875,-705665.375,182324.890625,0.019287109375,0.986083984375,-0.216796875,-0.8239745497703552,-0.1220703050494194,1.0986326932907104,93.33334350585938,105019.0,1.0
12:04:47.533750,202547.046875,197464.078125,226096.671875,212875.15625,225587.140625,178881.015625,-705663.625,182331.953125,0.019775390625,0.986328125,-0.21923828125,-0.7324218153953552,-0.03051757626235485,1.0070799589157104,93.33334350585938,105020.0,1.0
12:04:47.533776,202533.453125,197451.828125,226091.84375,212870.515625,225573.453125,178870.109375,-705671.8125,182327.21875,0.023193359375,0.987060546875,-0.21728515625,-0.5798339247703552,0.1220703050494194,1.0070799589157104,93.33334350585938,105021.0,1.0
12:04:47.536270,202515.75,197441.015625,226077.796875,212866.3125,225533.21875,178856.25,-705672.75,182318.71875,0.026123046875,0.98828125,-0.218017578125,-0.5798339247703552,0.3051757514476776,0.9460448622703552,93.33334350585938,105022.0,1.0
12:04:47.538727,202525.5,197454.15625,226078.609375,212867.109375,225541.625,178868.6875,-705670.6875,182318.359375,0.02685546875,0.986572265625,-0.218017578125,-0.5798339247703552,0.4577636420726776,0.9460448622703552,93.33334350585938,105023.0,1.0
12:04:47.548776,202546.515625,197469.890625,226092.90625,212874.53125,225580.25,178886.390625,-705671.9375,182330.96875,0.027099609375,0.98193359375,-0.2177734375,-0.5187987685203552,0.5187987685203552,0.9155272841453552,93.33334350585938,105024.0,1.0
12:04:47.551730,202536.9375,197459.703125,226090.5,212868.71875,225576.40625,178876.1875,-705671.0,182326.671875,0.022216796875,0.9814453125,-0.218505859375,-0.3662109076976776,0.6103515028953552,0.8850097060203552,93.33334350585938,105025.0,1.0
12:04:47.551739,202517.546875,197439.765625,226075.65625,212868.90625,225533.84375,178853.65625,-705676.5,182322.828125,0.020263671875,0.982177734375,-0.218017578125,-0.1525878757238388,0.7629393935203552,0.7324218153953552,93.33334350585938,105026.0,1.0
12:04:47.558679,202519.59375,197447.09375,226072.625,212868.28125,225531.609375,178859.5625,-705680.125,182319.875,0.018310546875,0.98291015625,-0.215576171875,-0.0915527269244194,0.8239745497703552,0.5187987685203552,93.33334350585938,105027.0,1.0
12:04:47.569297,202538.640625,197462.296875,226086.03125,212870.96875,225570.78125,178877.71875,-705674.4375,182328.640625,0.017333984375,0.9833984375,-0.214599609375,0.0,0.7934569716453552,0.4272460639476776,93.33334350585938,105028.0,1.0
12:04:47.569315,202538.109375,197461.125,226092.015625,212872.03125,225582.046875,178875.390625,-705671.0625,182331.59375,0.01611328125,0.986328125,-0.213623046875,-0.0915527269244194,0.9460448622703552,0.2136230319738388,93.33334350585938,105029.0,1.0
12:04:47.571701,202523.4375,197445.21875,226082.0,212874.984375,225544.671875,178854.90625,-705674.3125,182330.703125,0.01171875,0.987060546875,-0.215087890625,-0.1220703050494194,0.9155272841453552,0.0610351525247097,93.33334350585938,105030.0,1.0
