Timestamp,Fz,FC3,FCz,FC4,Cz,C3,C4
12:07:05.039823,202427.0625,197139.265625,222476.84375,210276.90625,222910.109375,179165.421875,-705734.1875,181189.59375,-0.000244140625,0.989013671875,-0.224609375,-2.075195074081421,0.0,0.8239745497703552,86.66667175292969,139422.0,1.0
12:07:05.051065,202439.21875,197149.09375,222482.65625,210278.609375,222935.0625,179179.90625,-705727.5,181194.0625,0.0,0.989501953125,-0.224853515625,-2.105712652206421,-0.03051757626235485,0.9460448622703552,86.66667175292969,139423.0,1.0
12:07:05.051128,202438.5,197143.109375,222482.921875,210266.890625,222957.953125,179179.453125,-705733.125,181190.578125,-0.000732421875,0.98681640625,-0.224365234375,-2.014159917831421,-0.0610351525247097,0.8850097060203552,86.66667175292969,139424.0,1.0
12:07:05.051144,202411.421875,197117.625,222467.28125,210254.203125,222928.0,179152.453125,-705743.0625,181177.53125,0.00048828125,0.98583984375,-0.225830078125,-2.014159917831421,-0.03051757626235485,0.9765624403953552,86.66667175292969,139425.0,1.0
12:07:05.054549,202392.015625,197100.203125,222450.03125,210247.40625,222885.34375,179129.296875,-705748.6875,181166.078125,-0.000732421875,0.985595703125,-0.22607421875,-2.014159917831421,0.0,0.9460448622703552,86.66667175292969,139426.0,1.0
12:07:05.054607,202407.65625,197115.3125,222456.015625,210247.9375,222902.6875,179143.78125,-705746.0,181166.4375,0.00048828125,0.986083984375,-0.22314453125,-2.014159917831421,-0.0610351525247097,0.9155272841453552,86.66667175292969,139427.0,1.0
12:07:05.056154,202426.53125,197125.9375,222470.953125,210250.171875,222939.703125,179156.578125,-705745.125,181173.765625,0.001708984375,0.984619140625,-0.22412109375,-1.8920897245407104,-0.0915527269244194,1.0070799589157104,86.66667175292969,139428.0,1.0
12:07:05.064980,202417.234375,197116.109375,222471.9375,210250.703125,222931.296875,179145.03125,-705745.25,181172.4375,0.001220703125,0.986572265625,-0.222412109375,-1.8615721464157104,-0.2136230319738388,1.1291502714157104,86.66667175292969,139429.0,1.0
12:07:05.071899,202406.765625,197108.328125,222463.703125,210253.390625,222895.1875,179131.71875,-705743.75,181168.40625,0.001220703125,0.985595703125,-0.2236328125,-1.8615721464157104,-0.1831054538488388,1.0986326932907104,86.66667175292969,139430.0,1.0
12:07:05.071947,202425.453125,197132.46875,222474.34375,210261.4375,222910.921875,179155.40625,-705747.0625,181172.78125,0.001708984375,0.986572265625,-0.22412109375,-1.7700194120407104,-0.1831054538488388,1.0986326932907104,86.66667175292969,139431.0,1.0
12:07:05.074173,202454.78125,197153.484375,222496.96875,210273.0625,222960.359375,179181.6875,-705738.8125,181187.8125,0.002197265625,0.985107421875,-0.22314453125,-1.7089842557907104,-0.2136230319738388,1.0375975370407104,86.66667175292969,139432.0,1.0
12:07:05.074192,202452.359375,197146.421875,222502.5,210276.28125,222965.71875,179174.359375,-705737.9375,181190.578125,0.001953125,0.984130859375,-0.224853515625,-1.6479490995407104,-0.1220703050494194,1.0681151151657104,86.66667175292969,139433.0,1.0
12:07:05.083570,202438.859375,197138.28125,222495.796875,210280.125,222929.875,179160.953125,-705740.8125,181186.28125,0.003662109375,0.9853515625,-0.2236328125,-1.6479490995407104,-0.2136230319738388,1.0070799589157104,86.66667175292969,139434.0,1.0
12:07:05.090479,202451.46875,197154.5625,222503.40625,210288.078125,222936.671875,179176.15625,-705740.0,181187.625,0.004150390625,0.984619140625,-0.225830078125,-1.6784666776657104,-0.2441406100988388,1.0375975370407104,86.66667175292969,139435.0,1.0
12:07:05.090492,202481.25,197177.359375,222523.609375,210302.296875,222981.90625,179202.703125,-705742.0,181203.453125,0.005859375,0.985595703125,-0.224609375,-1.7089842557907104,-0.1220703050494194,0.8850097060203552,86.66667175292969,139436.0,1.0
12:07:05.096753,202483.125,197176.1875,222530.484375,210305.421875,222993.625,179204.3125,-705737.5,181204.625,0.005615234375,0.986083984375,-0.22802734375,-1.6174315214157104,-0.0610351525247097,0.8850097060203552,86.66667175292969,139437.0,1.0
12:07:05.096949,202462.640625,197160.28125,222517.96875,210306.765625,222952.671875,179184.015625,-705733.625,181201.21875,0.005859375,0.98583984375,-0.225830078125,-1.5869139432907104,0.03051757626235485,0.8544921278953552,86.66667175292969,139438.0,1.0
12:07:05.098562,202460.765625,197163.046875,222511.453125,210307.84375,222939.625,179182.5,-705730.625,181199.15625,0.0078125,0.984375,-0.224609375,-1.5563963651657104,0.0610351525247097,0.8239745497703552,86.66667175292969,139439.0,1.0
12:07:05.111086,202483.203125,197178.609375,222523.78125,210315.0,222975.109375,179203.421875,-705734.375,181211.0625,0.008056640625,0.983154296875,-0.225830078125,-1.5563963651657104,0.1220703050494194,0.8239745497703552,86.66667175292969,139440.0,1.0
12:07:05.127249,202475.875,197168.5,222519.765625,210307.75,222983.78125,179196.453125,-705741.375,181208.015625,0.005859375,0.98046875,-0.226318359375,-1.5563963651657104,0.1525878757238388,0.8544921278953552,86.66667175292969,139441.0,1.0
12:07:05.127261,202445.390625,197140.25,222495.796875,210299.34375,222935.5,179163.1875,-705745.8125,181196.578125,0.005859375,0.9814453125,-0.227294921875,-1.4648436307907104,0.1831054538488388,0.9155272841453552,86.66667175292969,139442.0,1.0
12:07:05.127264,202431.984375,197132.46875,222480.15625,210292.203125,222909.125,179155.59375,-705739.5625,181188.4375,0.0068359375,0.98193359375,-0.22607421875,-1.4343260526657104,0.2136230319738388,0.7629393935203552,86.66667175292969,139443.0,1.0
12:07:05.129819,202447.71875,197145.4375,222488.375,210294.4375,222941.140625,179174.09375,-705729.4375,181197.015625,0.006103515625,0.9833984375,-0.2294921875,-1.3122557401657104,0.3051757514476776,0.6103515028953552,86.66667175292969,139444.0,1.0
12:07:05.133507,202447.984375,197142.9375,222491.515625,210287.90625,222963.84375,179176.234375,-705732.375,181198.09375,0.008544921875,0.98388671875,-0.22802734375,-1.1901854276657104,0.3356933295726776,0.7629393935203552,86.66667175292969,139445.0,1.0
12:07:05.133528,202424.828125,197123.890625,222478.375,210281.90625,222931.21875,179156.296875,-705740.8125,181191.921875,0.01220703125,0.9853515625,-0.227294921875,-1.0986326932907104,0.3967284858226776,0.7324218153953552,86.66667175292969,139446.0,1.0
12:07:05.133530,202410.875,197115.21875,222464.15625,210276.1875,222898.40625,179143.15625,-705744.3125,181182.890625,0.010986328125,0.98486328125,-0.228759765625,-0.9460448622703552,0.5798339247703552,0.7629393935203552,86.66667175292969,139447.0,1.0
12:07:05.136037,202425.8125,197128.890625,222468.890625,210274.21875,222919.59375,179157.46875,-705747.8125,181183.515625,0.01318359375,0.98291015625,-0.22998046875,-0.8544921278953552,0.7629393935203552,0.7629393935203552,86.66667175292969,139448.0,1.0
12:07:05.139798,202437.171875,197138.8125,222478.640625,210272.34375,222951.859375,179170.515625,-705748.4375,181188.078125,0.01171875,0.9794921875,-0.228271484375,-0.7019042372703552,0.8239745497703552,0.7629393935203552,86.66667175292969,139449.0,1.0
12:07:05.156675,202419.375,197119.78125,222470.140625,210267.15625,222928.703125,179150.21875,-705747.3125,181183.96875,0.009765625,0.9794921875,-0.22900390625,-0.5798339247703552,0.8850097060203552,0.6713866591453552,86.66667175292969,139450.0,1.0
12:07:05.156694,202401.40625,197109.5,222454.9375,210259.46875,222888.484375,179137.890625,-705750.9375,181173.421875,0.00732421875,0.98046875,-0.232177734375,-0.5798339247703552,0.9460448622703552,0.4272460639476776,86.66667175292969,139451.0,1.0
12:07:05.159757,202419.90625,197126.125,222463.171875,210266.984375,222908.953125,179153.796875,-705745.0,181178.953125,0.003173828125,0.9814453125,-0.226806640625,-0.5493163466453552,0.9460448622703552,0.2441406100988388,86.66667175292969,139452.0,1.0
12:07:05.159774,202437.078125,197134.53125,222473.546875,210270.5625,222944.171875,179167.03125,-705737.9375,181186.203125,0.002685546875,0.9814453125,-0.228271484375,-0.4577636420726776,1.0070799589157104,0.03051757626235485,86.66667175292969,139453.0,1.0
12:07:05.159778,202425.546875,197121.828125,222469.875,210268.5,222932.109375,179152.640625,-705744.1875,181182.890625,0.000244140625,0.982421875,-0.227294921875,-0.4577636420726776,0.8850097060203552,-0.1525878757238388,86.66667175292969,139454.0,1.0
12:07:05.162450,202415.796875,197116.109375,222464.59375,210274.140625,222897.953125,179141.90625,-705750.625,181182.890625,-0.0048828125,0.982666015625,-0.225830078125,-0.4577636420726776,0.7629393935203552,-0.2441406100988388,86.66667175292969,139455.0,1.0
12:07:05.169837,202429.5625,197130.328125,222470.953125,210279.953125,222908.859375,179156.03125,-705745.125,181183.078125,-0.00537109375,0.984130859375,-0.22607421875,-0.4882812201976776,0.6408690810203552,-0.4272460639476776,86.66667175292969,139456.0,1.0
12:07:05.176677,202457.28125,197146.78125,222490.890625,210290.046875,222951.6875,179174.453125,-705738.3125,181195.59375,-0.004638671875,0.985595703125,-0.226806640625,-0.4272460639476776,0.4882812201976776,-0.5798339247703552,86.66667175292969,139457.0,1.0
12:07:05.176684,202458.0,197142.21875,222498.578125,210296.21875,222959.46875,179169.171875,-705736.25,181201.9375,-0.0068359375,0.987548828125,-0.225341796875,-0.4577636420726776,0.5187987685203552,-0.7629393935203552,86.66667175292969,139458.0,1.0
12:07:05.178657,202443.421875,197128.1875,222491.0625,210300.515625,222923.53125,179150.40625,-705730.25,181202.375,-0.006591796875,0.988037109375,-0.227783203125,-0.4577636420726776,0.3967284858226776,-0.7934569716453552,86.66667175292969,139459.0,1.0
12:07:05.191085,202448.515625,197138.734375,222491.78125,210302.484375,222923.078125,179160.953125,-705729.625,181201.9375,-0.00634765625,0.991455078125,-0.230224609375,-0.5187987685203552,0.1831054538488388,-0.8850097060203552,86.66667175292969,139460.0,1.0
12:07:05.197904,202473.46875,197156.609375,222507.15625,210311.6875,222964.390625,179179.640625,-705728.75,181216.515625,-0.0048828125,0.990234375,-0.2294921875,-0.6103515028953552,0.03051757626235485,-0.8850097060203552,86.66667175292969,139461.0,1.0
12:07:05.197938,202470.0625,197152.859375,222509.296875,210307.84375,222974.84375,179177.3125,-705731.4375,181216.78125,-0.00390625,0.99169921875,-0.23095703125,-0.6408690810203552,-0.03051757626235485,-0.8544921278953552,86.66667175292969,139462.0,1.0
12:07:05.204154,202445.84375,197134.4375,222493.5625,210303.375,222931.921875,179155.59375,-705735.25,181210.78125,-0.005126953125,0.99169921875,-0.22705078125,-0.8544921278953552,-0.03051757626235485,-0.8239745497703552,86.66667175292969,139463.0,1.0
12:07:05.204172,202444.59375,197140.25,222488.46875,210302.5625,222920.9375,179160.328125,-705734.9375,181208.640625,-0.003662109375,0.9931640625,-0.226318359375,-0.8850097060203552,-0.1220703050494194,-0.6103515028953552,86.66667175292969,139464.0,1.0
12:07:05.207993,202464.34375,197156.96875,222500.1875,210304.359375,222958.75,179182.40625,-705736.0,181217.3125,-0.001953125,0.993896484375,-0.2275390625,-0.9460448622703552,-0.2441406100988388,-0.5493163466453552,86.66667175292969,139465.0,1.0
12:07:05.208009,202465.515625,197157.140625,222506.171875,210301.21875,222979.140625,179189.109375,-705730.0625,181219.09375,-0.00146484375,0.99365234375,-0.232177734375,-1.1901854276657104,-0.2136230319738388,-0.4272460639476776,86.66667175292969,139466.0,1.0
12:07:05.238593,202440.75,197135.25,222489.546875,210292.375,222936.84375,179160.234375,-705730.25,181207.65625,-0.002685546875,0.993896484375,-0.2265625,-1.3122557401657104,-0.1525878757238388,-0.2441406100988388,86.66667175292969,139467.0,1.0
12:07:05.264809,202431.625,197137.5625,222479.96875,210282.71875,222913.25,179160.6875,-705730.0,181194.609375,-0.005126953125,0.992919921875,-0.22900390625,-1.4953612089157104,-0.2136230319738388,-0.2441406100988388,86.66667175292969,139468.0,1.0
12:07:05.264829,202451.46875,197147.84375,222490.4375,210284.953125,222947.484375,179177.5,-705727.125,181199.609375,-0.005615234375,0.9931640625,-0.22900390625,-1.4953612089157104,-0.3051757514476776,-0.0610351525247097,86.66667175292969,139469.0,1.0
12:07:05.264832,202457.546875,197149.546875,222497.59375,210281.46875,222973.6875,179183.9375,-705727.875,181200.953125,-0.005126953125,0.9951171875,-0.228271484375,-1.6479490995407104,-0.3051757514476776,0.0,86.66667175292969,139470.0,1.0
12:07:05.288746,202435.828125,197129.15625,222485.515625,210276.015625,222940.6875,179161.578125,-705734.1875,181193.0,-0.006103515625,0.9951171875,-0.2275390625,-1.6479490995407104,-0.3356933295726776,0.1525878757238388,86.66667175292969,139471.0,1.0
12:07:05.292437,202425.28125,197125.140625,222476.125,210276.734375,222911.453125,179154.96875,-705735.5625,181188.96875,-0.0078125,0.994384765625,-0.22900390625,-1.8615721464157104,-0.3967284858226776,0.03051757626235485,86.66667175292969,139472.0,1.0
12:07:05.294932,202440.5625,197137.828125,222482.03125,210279.953125,222935.234375,179171.40625,-705734.25,181192.90625,-0.008544921875,0.9912109375,-0.229736328125,-2.044677495956421,-0.4882812201976776,0.2441406100988388,86.66667175292969,139473.0,1.0
12:07:05.308607,202454.15625,197145.875,222491.78125,210281.5625,222966.96875,179182.671875,-705729.4375,181198.265625,-0.00927734375,0.99169921875,-0.22705078125,-2.197265386581421,-0.5493163466453552,0.3967284858226776,86.66667175292969,139474.0,1.0
12:07:05.311068,202431.171875,197124.25,222477.203125,210274.578125,222939.53125,179160.5,-705733.3125,181189.328125,-0.008544921875,0.993896484375,-0.229736328125,-2.319335699081421,-0.6408690810203552,0.4882812201976776,86.66667175292969,139475.0,1.0
12:07:05.313677,202406.765625,197102.4375,222454.234375,210265.640625,222891.875,179132.796875,-705744.375,181175.734375,-0.008056640625,0.99365234375,-0.230224609375,-2.441406011581421,-0.7934569716453552,0.5187987685203552,86.66667175292969,139476.0,1.0
12:07:05.316125,202420.453125,197115.65625,222458.703125,210270.734375,222907.34375,179146.375,-705741.375,181178.25,-0.0078125,0.993408203125,-0.228759765625,-2.563476324081421,-0.8850097060203552,0.7629393935203552,86.66667175292969,139477.0,1.0
12:07:05.318595,202441.09375,197126.84375,222474.515625,210276.8125,222947.578125,179162.46875,-705738.5,181189.421875,-0.0078125,0.992431640625,-0.227294921875,-2.716064214706421,-0.9765624403953552,0.7324218153953552,86.66667175292969,139478.0,1.0
12:07:05.321101,202428.40625,197113.421875,222470.765625,210274.3125,222936.125,179147.625,-705741.0625,181187.1875,-0.005126953125,0.99072265625,-0.22509765625,-2.807616949081421,-1.0986326932907104,0.7629393935203552,86.66667175292969,139479.0,1.0
12:07:05.323606,202413.828125,197102.4375,222461.203125,210278.6875,222899.828125,179130.28125,-705742.875,181186.375,-0.005615234375,0.9912109375,-0.225830078125,-2.990722417831421,-1.1901854276657104,0.8239745497703552,86.66667175292969,139480.0,1.0
12:07:05.326080,202420.625,197111.640625,222462.09375,210280.84375,222907.875,179139.046875,-705737.9375,181186.203125,-0.0048828125,0.989013671875,-0.232666015625,-3.112792730331421,-1.1291502714157104,0.9155272841453552,86.66667175292969,139481.0,1.0
12:07:05.328601,202440.46875,197124.0625,222475.6875,210285.765625,222945.703125,179154.25,-705740.4375,181196.484375,-0.004638671875,0.98779296875,-0.22900390625,-3.143310308456421,-1.1596678495407104,0.8544921278953552,86.66667175292969,139482.0,1.0
12:07:05.331150,202433.046875,197116.109375,222474.4375,210279.5,222942.296875,179144.59375,-705746.5,181190.40625,-0.001220703125,0.990234375,-0.227294921875,-3.143310308456421,-1.0375975370407104,0.8850097060203552,86.66667175292969,139483.0,1.0
12:07:05.333623,202411.234375,197097.515625,222458.78125,210274.40625,222897.0625,179121.4375,-705752.0,181181.109375,-0.00146484375,0.989501953125,-0.226318359375,-3.234863042831421,-1.0375975370407104,0.9460448622703552,86.66667175292969,139484.0,1.0
12:07:05.336044,202418.390625,197104.671875,222459.140625,210275.75,222896.96875,179129.75,-705761.0,181181.109375,0.001220703125,0.98876953125,-0.22314453125,-3.204345464706421,-0.9460448622703552,1.0375975370407104,86.66667175292969,139485.0,1.0
12:07:05.338612,202441.546875,197121.828125,222474.25,210281.109375,222937.734375,179151.921875,-705754.5625,181191.65625,0.000244140625,0.988525390625,-0.22607421875,-3.112792730331421,-0.9460448622703552,1.1291502714157104,86.66667175292969,139486.0,1.0
12:07:05.341075,202439.140625,197119.78125,222479.265625,210279.765625,222950.890625,179150.9375,-705751.375,181193.53125,0.00146484375,0.98828125,-0.22900390625,-3.265380620956421,-0.7934569716453552,1.0986326932907104,86.66667175292969,139487.0,1.0
12:07:05.343812,202419.734375,197103.953125,222468.359375,210279.40625,222912.96875,179131.09375,-705752.625,181190.21875,0.00048828125,0.987548828125,-0.22802734375,-3.326415777206421,-0.6713866591453552,1.2817381620407104,86.66667175292969,139488.0,1.0
12:07:05.346120,202413.65625,197104.125,222458.78125,210274.140625,222894.109375,179132.078125,-705755.3125,181179.40625,-0.00048828125,0.985595703125,-0.224853515625,-3.143310308456421,-0.6103515028953552,1.2512205839157104,86.66667175292969,139489.0,1.0
12:07:05.348595,202436.09375,197118.875,222467.453125,210276.8125,222924.234375,179150.484375,-705748.5,181182.0,0.003173828125,0.986572265625,-0.226318359375,-3.082275152206421,-0.4882812201976776,1.2512205839157104,86.66667175292969,139490.0,1.0
12:07:05.351062,202444.140625,197123.0,222478.015625,210279.59375,222948.640625,179155.3125,-705741.0625,181187.984375,0.00390625,0.985107421875,-0.229736328125,-3.112792730331421,-0.3662109076976776,1.3122557401657104,86.66667175292969,139491.0,1.0
12:07:05.353572,202427.59375,197109.40625,222472.28125,210283.515625,222918.96875,179139.234375,-705738.1875,181188.4375,0.003662109375,0.983154296875,-0.2265625,-3.021239995956421,-0.1831054538488388,1.2512205839157104,86.66667175292969,139492.0,1.0
12:07:05.356623,202421.078125,197109.765625,222465.21875,210282.625,222897.6875,179136.71875,-705740.375,181183.609375,0.005859375,0.981201171875,-0.2236328125,-2.899169683456421,-0.03051757626235485,1.2207030057907104,86.66667175292969,139493.0,1.0
12:07:05.356627,202444.765625,197127.828125,222479.53125,210289.953125,222933.71875,179158.265625,-705737.25,181194.25,0.0068359375,0.980224609375,-0.22412109375,-2.807616949081421,0.0610351525247097,1.3122557401657104,86.66667175292969,139494.0,1.0
12:07:05.359772,202451.375,197129.25,222485.609375,210289.328125,222959.28125,179161.671875,-705731.5,181198.453125,0.007568359375,0.982666015625,-0.225341796875,-2.716064214706421,0.1831054538488388,1.2207030057907104,86.66667175292969,139495.0,1.0
12:07:05.359781,202426.703125,197106.09375,222468.625,210281.203125,222922.71875,179135.46875,-705730.5,181188.609375,0.007568359375,0.982421875,-0.2255859375,-2.685546636581421,0.2441406100988388,1.2207030057907104,86.66667175292969,139496.0,1.0
12:07:05.359782,202417.671875,197104.390625,222458.78125,210281.734375,222892.859375,179131.53125,-705729.625,181184.859375,0.00537109375,0.9794921875,-0.223876953125,-2.563476324081421,0.4577636420726776,1.2207030057907104,86.66667175292969,139497.0,1.0
12:07:05.363512,202436.453125,197121.109375,222466.5625,210288.4375,222916.90625,179149.515625,-705738.5,181190.21875,0.005859375,0.98046875,-0.22265625,-2.319335699081421,0.5798339247703552,1.0681151151657104,86.66667175292969,139498.0,1.0
12:07:05.363517,202447.71875,197127.90625,222473.984375,210287.015625,222946.140625,179157.828125,-705738.5625,181193.625,0.006591796875,0.979736328125,-0.222412109375,-2.227782964706421,0.5187987685203552,1.1291502714157104,86.66667175292969,139499.0,1.0
12:07:05.363519,202430.1875,197113.34375,222465.765625,210283.4375,222925.046875,179141.46875,-705739.5625,181189.5,0.006591796875,0.979736328125,-0.225341796875,-2.197265386581421,0.6103515028953552,1.0681151151657104,86.66667175292969,139500.0,1.0
12:07:05.368568,202416.875,197098.859375,222455.390625,210283.875,222889.28125,179125.1875,-705734.625,181186.28125,0.00439453125,0.97998046875,-0.225830078125,-2.044677495956421,0.8544921278953552,1.0681151151657104,86.66667175292969,139501.0,1.0
12:07:05.371657,202431.71875,197112.984375,222461.828125,210284.0625,222906.359375,179141.015625,-705731.25,181185.390625,0.005126953125,0.981689453125,-0.225341796875,-1.7395018339157104,0.9460448622703552,0.9460448622703552,86.66667175292969,139502.0,1.0
12:07:05.371667,202452.453125,197126.578125,222479.796875,210290.140625,222948.921875,179158.53125,-705730.5,181198.359375,0.004150390625,0.98291015625,-0.22607421875,-1.7089842557907104,0.9765624403953552,0.8239745497703552,86.66667175292969,139503.0,1.0
12:07:05.373564,202443.15625,197114.140625,222480.6875,210289.609375,222942.03125,179142.890625,-705732.75,181200.6875,0.004638671875,0.985107421875,-0.22314453125,-1.5869139432907104,1.1291502714157104,0.8544921278953552,86.66667175292969,139504.0,1.0
12:07:05.401090,202424.828125,197101.984375,222468.265625,210287.90625,222902.875,179126.265625,-705742.0,181196.125,0.0029296875,0.989013671875,-0.22119140625,-1.4343260526657104,1.0986326932907104,0.9155272841453552,86.66667175292969,139505.0,1.0
12:07:05.403607,202433.859375,197113.421875,222469.0625,210288.34375,222909.3125,179137.890625,-705744.625,181194.328125,0.0009765625,0.98779296875,-0.222412109375,-1.4038084745407104,1.1596678495407104,0.8850097060203552,86.66667175292969,139506.0,1.0
12:07:05.406119,202452.90625,197122.90625,222479.34375,210290.40625,222944.09375,179149.234375,-705743.5,181200.765625,0.001953125,0.987060546875,-0.227783203125,-1.3122557401657104,1.2207030057907104,0.7934569716453552,86.66667175292969,139507.0,1.0
12:07:05.409187,202443.609375,197112.984375,222477.203125,210285.3125,222942.484375,179140.5625,-705744.8125,181196.578125,0.0009765625,0.986328125,-0.228515625,-1.2512205839157104,1.1291502714157104,0.8239745497703552,86.66667175292969,139508.0,1.0
12:07:05.409202,202420.8125,197096.34375,222461.015625,210281.640625,222898.40625,179120.0,-705746.5,181188.875,0.001953125,0.98486328125,-0.22705078125,-1.1596678495407104,1.2512205839157104,0.7629393935203552,86.66667175292969,139509.0,1.0
12:07:05.412825,202422.765625,197101.796875,222457.625,210281.640625,222893.3125,179127.15625,-705751.0625,181185.03125,0.003173828125,0.98583984375,-0.22705078125,-1.0681151151657104,1.3122557401657104,0.7324218153953552,86.66667175292969,139510.0,1.0
12:07:05.412836,202444.5,197116.5625,222470.140625,210285.9375,222931.21875,179147.71875,-705748.875,181192.546875,0.002197265625,0.98388671875,-0.22705078125,-1.0681151151657104,1.3122557401657104,0.7934569716453552,86.66667175292969,139511.0,1.0
12:07:05.412840,202444.9375,197117.09375,222476.671875,210285.578125,222945.421875,179150.046875,-705743.5625,181194.609375,0.00244140625,0.984619140625,-0.225830078125,-1.0375975370407104,1.3427733182907104,0.7629393935203552,86.66667175292969,139512.0,1.0
12:07:05.412849,202421.875,197097.953125,222461.46875,210282.546875,222901.984375,179127.609375,-705744.5,181185.9375,-0.000732421875,0.985107421875,-0.22265625,-0.9765624403953552,1.3122557401657104,0.7629393935203552,86.66667175292969,139513.0,1.0
12:07:05.416083,202418.390625,197101.625,222454.671875,210276.546875,222886.78125,179128.59375,-705745.375,181176.8125,-0.0009765625,0.986083984375,-0.225830078125,-0.9155272841453552,1.4343260526657104,0.5493163466453552,86.66667175292969,139514.0,1.0
12:07:05.416099,202441.453125,197121.296875,222468.265625,210281.28125,222924.78125,179152.375,-705740.625,181183.703125,-0.0009765625,0.987060546875,-0.22509765625,-0.8850097060203552,1.3122557401657104,0.6713866591453552,86.66667175292969,139515.0,1.0
12:07:05.416103,202446.546875,197119.5,222477.46875,210283.078125,222948.921875,179153.171875,-705746.0625,181189.328125,-0.001953125,0.98681640625,-0.227294921875,-0.7019042372703552,1.2817381620407104,0.5798339247703552,86.66667175292969,139516.0,1.0
12:07:05.418567,202422.953125,197099.125,222464.6875,210277.890625,222911.359375,179128.140625,-705750.125,181182.265625,-0.004638671875,0.984619140625,-0.22705078125,-0.7629393935203552,1.1901854276657104,0.6103515028953552,86.66667175292969,139517.0,1.0
12:07:05.421088,202416.78125,197100.828125,222458.96875,210275.65625,222891.25,179129.921875,-705755.0,181177.796875,-0.00439453125,0.985595703125,-0.225830078125,-0.7324218153953552,1.0681151151657104,0.5798339247703552,86.66667175292969,139518.0,1.0
12:07:05.423549,202435.015625,197114.765625,222466.296875,210274.3125,222919.328125,179145.84375,-705750.75,181179.046875,-0.004638671875,0.984375,-0.224365234375,-0.6103515028953552,0.9765624403953552,0.4272460639476776,86.66667175292969,139519.0,1.0
12:07:05.426055,202443.875,197119.234375,222474.171875,210274.578125,222945.15625,179152.375,-705745.125,181184.234375,-0.006103515625,0.98388671875,-0.224853515625,-0.5493163466453552,0.7934569716453552,0.3967284858226776,86.66667175292969,139520.0,1.0
12:07:05.432304,202419.46875,197094.296875,222456.734375,210267.609375,222909.125,179124.390625,-705746.1875,181175.296875,-0.005126953125,0.98291015625,-0.227294921875,-0.5493163466453552,0.7324218153953552,0.3662109076976776,86.66667175292969,139521.0,1.0
12:07:05.447978,202408.90625,197089.5625,222445.734375,210267.875,222878.734375,179117.59375,-705750.4375,181171.265625,-0.005615234375,0.985107421875,-0.225341796875,-0.5798339247703552,0.5798339247703552,0.3662109076976776,86.66667175292969,139522.0,1.0
12:07:05.448004,202426.609375,197106.90625,222454.859375,210273.515625,222903.765625,179137.265625,-705743.5,181178.875,-0.006591796875,0.984375,-0.2275390625,-0.4882812201976776,0.4882812201976776,0.3356933295726776,86.66667175292969,139523.0,1.0
12:07:05.451246,202438.5,197111.640625,222463.796875,210274.3125,222934.4375,179146.203125,-705745.8125,181184.953125,-0.003662109375,0.98486328125,-0.22900390625,-0.4882812201976776,0.4882812201976776,0.3967284858226776,86.66667175292969,139524.0,1.0
12:07:05.451319,202419.546875,197090.984375,222453.953125,210271.453125,222911.984375,179124.828125,-705753.5625,181180.484375,-0.002197265625,0.98291015625,-0.23095703125,-0.4272460639476776,0.3051757514476776,0.4272460639476776,86.66667175292969,139525.0,1.0
12:07:05.451347,202406.59375,197083.46875,222444.484375,210273.78125,222877.84375,179112.140625,-705753.125,181176.90625,-0.003173828125,0.985595703125,-0.22607421875,-0.4577636420726776,0.1831054538488388,0.4577636420726776,86.66667175292969,139526.0,1.0
12:07:05.453646,202422.859375,197098.59375,222452.171875,210277.265625,222896.4375,179129.65625,-705751.8125,181180.921875,-0.0009765625,0.9853515625,-0.226806640625,-0.3356933295726776,0.1220703050494194,0.4577636420726776,86.66667175292969,139527.0,1.0
12:07:05.457272,202435.921875,197107.078125,222461.109375,210274.578125,222930.40625,179141.1875,-705756.25,181183.78125,-0.000732421875,0.987060546875,-0.22509765625,-0.3662109076976776,0.0610351525247097,0.4272460639476776,86.66667175292969,139528.0,1.0
12:07:05.467923,202422.953125,197099.125,222457.625,210271.984375,222920.21875,179133.234375,-705763.875,181180.03125,-0.0009765625,0.989990234375,-0.225830078125,-0.4882812201976776,0.03051757626235485,0.6103515028953552,86.66667175292969,139529.0,1.0
12:07:05.467939,202404.078125,197080.53125,222442.15625,210271.71875,222877.5625,179108.5625,-705767.0625,181174.484375,0.0,0.990966796875,-0.227783203125,-0.5187987685203552,-0.03051757626235485,0.7019042372703552,86.66667175292969,139530.0,1.0
12:07:05.470420,202410.171875,197087.328125,222439.75,210269.578125,222881.140625,179116.875,-705769.9375,181172.15625,-0.000732421875,0.992919921875,-0.228759765625,-0.5798339247703552,-0.1220703050494194,0.6408690810203552,86.66667175292969,139531.0,1.0
12:07:05.470470,202431.984375,197105.109375,222454.234375,210274.5,222921.828125,179138.953125,-705759.75,181182.4375,-0.00146484375,0.993408203125,-0.228759765625,-0.7629393935203552,-0.03051757626235485,0.7019042372703552,86.66667175292969,139532.0,1.0
12:07:05.477296,202424.03125,197094.65625,222453.15625,210270.828125,222922.1875,179126.4375,-705752.4375,181180.484375,-0.000244140625,0.992431640625,-0.229248046875,-0.8239745497703552,-0.1220703050494194,0.7324218153953552,86.66667175292969,139533.0,1.0
12:07:05.483587,202406.59375,197082.3125,222443.59375,210272.25,222884.09375,179109.984375,-705752.5,181179.046875,-0.000732421875,0.99365234375,-0.227294921875,-0.9765624403953552,-0.1220703050494194,0.6713866591453552,86.66667175292969,139534.0,1.0
12:07:05.490398,202406.5,197086.875,222439.46875,210268.6875,222878.1875,179115.0,-705753.125,181174.390625,-0.00048828125,0.992431640625,-0.2265625,-1.0070799589157104,-0.2136230319738388,0.7934569716453552,86.66667175292969,139535.0,1.0
12:07:05.490415,202425.359375,197099.5625,222450.828125,210270.015625,222916.015625,179132.078125,-705755.375,181181.109375,-0.001953125,0.990966796875,-0.22802734375,-1.0986326932907104,-0.3662109076976776,0.8239745497703552,86.66667175292969,139536.0,1.0
12:07:05.492290,202425.546875,197098.9375,222455.84375,210269.84375,222930.046875,179133.0625,-705748.4375,181183.078125,-0.002197265625,0.991943359375,-0.229248046875,-1.2512205839157104,-0.4272460639476776,0.7324218153953552,86.66667175292969,139537.0,1.0
12:07:05.502296,202405.515625,197083.46875,222444.75,210267.609375,222890.796875,179112.3125,-705751.5625,181176.546875,-0.000244140625,0.990478515625,-0.229248046875,-1.3122557401657104,-0.4272460639476776,0.7019042372703552,86.66667175292969,139538.0,1.0
12:07:05.506680,202407.21875,197090.359375,222443.3125,210266.796875,222880.96875,179118.03125,-705749.1875,181170.203125,-0.001953125,0.990478515625,-0.228759765625,-1.3427733182907104,-0.3356933295726776,0.7019042372703552,86.66667175292969,139539.0,1.0
12:07:05.506692,202430.640625,197105.5625,222457.71875,210272.609375,222917.625,179137.4375,-705754.375,181179.046875,-0.001220703125,0.992431640625,-0.2275390625,-1.5258787870407104,-0.3967284858226776,0.7019042372703552,86.66667175292969,139540.0,1.0
12:07:05.516653,202434.75,197106.1875,222464.59375,210272.609375,222939.4375,179142.0,-705754.125,181183.609375,-0.0009765625,0.98876953125,-0.227783203125,-1.6479490995407104,-0.3662109076976776,0.7324218153953552,86.66667175292969,139541.0,1.0
12:07:05.516663,202417.046875,197089.734375,222455.65625,210273.234375,222905.734375,179122.234375,-705755.5625,181181.90625,-0.000732421875,0.989501953125,-0.226318359375,-1.7089842557907104,-0.4577636420726776,0.7019042372703552,86.66667175292969,139542.0,1.0
12:07:05.519148,202412.578125,197088.390625,222448.859375,210275.125,222883.203125,179119.828125,-705763.25,181178.421875,-0.00048828125,0.989501953125,-0.22998046875,-1.8005369901657104,-0.5798339247703552,0.7934569716453552,86.66667175292969,139543.0,1.0
12:07:05.519156,202436.453125,197107.53125,222460.75,210283.703125,222915.65625,179142.796875,-705758.5,181187.625,-0.000244140625,0.99072265625,-0.227783203125,-1.7700194120407104,-0.6408690810203552,0.7629393935203552,86.66667175292969,139544.0,1.0
12:07:05.528571,202445.578125,197112.265625,222469.875,210283.34375,222944.625,179152.734375,-705759.5625,181192.90625,0.000732421875,0.98876953125,-0.228759765625,-1.8615721464157104,-0.6408690810203552,0.7324218153953552,86.66667175292969,139545.0,1.0
12:07:05.532177,202421.96875,197087.328125,222456.109375,210277.71875,222913.15625,179124.75,-705760.75,181185.9375,0.001953125,0.989990234375,-0.22900390625,-2.075195074081421,-0.6408690810203552,0.6103515028953552,86.66667175292969,139546.0,1.0
12:07:05.532383,202406.046875,197081.0625,222441.078125,210272.96875,222877.65625,179112.9375,-705759.9375,181176.453125,0.0029296875,0.98828125,-0.228759765625,-2.075195074081421,-0.5187987685203552,0.7019042372703552,86.66667175292969,139547.0,1.0
12:07:05.533620,202417.859375,197091.515625,222442.25,210268.59375,222896.4375,179126.359375,-705761.1875,181173.953125,0.002197265625,0.98828125,-0.231201171875,-2.044677495956421,-0.5493163466453552,0.7629393935203552,86.66667175292969,139548.0,1.0
12:07:05.548540,202427.515625,197093.3125,222450.390625,210268.40625,222928.53125,179133.953125,-705757.375,181179.9375,0.003173828125,0.99169921875,-0.23095703125,-2.136230230331421,-0.4272460639476776,0.6713866591453552,86.66667175292969,139549.0,1.0
12:07:05.551650,202405.421875,197074.09375,222438.765625,210260.71875,222902.96875,179112.21875,-705757.1875,181171.265625,0.005859375,0.990966796875,-0.228759765625,-2.166747808456421,-0.3662109076976776,0.7019042372703552,86.66667175292969,139550.0,1.0
12:07:05.551660,202389.15625,197064.34375,222424.546875,210257.328125,222862.453125,179098.015625,-705757.4375,181163.3125,0.003662109375,0.9892578125,-0.231201171875,-2.288818120956421,-0.1831054538488388,0.7324218153953552,86.66667175292969,139551.0,1.0
12:07:05.553540,202400.421875,197076.328125,222426.15625,210255.625,222874.265625,179111.15625,-705758.625,181162.0625,0.00634765625,0.989013671875,-0.229736328125,-2.288818120956421,-0.2441406100988388,0.8544921278953552,86.66667175292969,139552.0,1.0
12:07:05.559812,202416.328125,197082.9375,222437.328125,210258.21875,222909.484375,179122.59375,-705761.0,181169.75,0.005615234375,0.98974609375,-0.230224609375,-2.319335699081421,-0.1525878757238388,0.7934569716453552,86.66667175292969,139553.0,1.0
12:07:05.562356,202401.40625,197068.453125,222431.515625,210254.015625,222897.6875,179106.328125,-705763.0,181163.9375,0.005859375,0.988037109375,-0.228271484375,-2.349853277206421,0.0,0.7934569716453552,86.66667175292969,139554.0,1.0
12:07:05.569924,202379.671875,197051.46875,222414.078125,210249.1875,222852.09375,179083.796875,-705771.5,181154.109375,0.004150390625,0.989501953125,-0.225341796875,-2.380370855331421,-0.03051757626235485,0.7019042372703552,86.66667175292969,139555.0,1.0
12:07:05.573016,202391.125,197064.25,222417.125,210254.015625,222859.6875,179098.1875,-705767.1875,181157.5,0.004638671875,0.988525390625,-0.22802734375,-2.502441167831421,0.0,0.7629393935203552,86.66667175292969,139556.0,1.0
12:07:05.573021,202409.453125,197074.453125,222428.203125,210256.96875,222896.609375,179114.109375,-705764.9375,181166.078125,0.004150390625,0.98681640625,-0.229248046875,-2.441406011581421,0.0,0.7324218153953552,86.66667175292969,139557.0,1.0
12:07:05.579886,202403.546875,197068.453125,222430.359375,210256.4375,222899.921875,179110.890625,-705770.125,181167.328125,0.004638671875,0.986083984375,-0.228515625,-2.380370855331421,0.0610351525247097,0.6103515028953552,86.66667175292969,139558.0,1.0
12:07:05.606668,202384.859375,197050.84375,222417.921875,210257.421875,222860.5,179086.75,-705783.875,181164.109375,0.0029296875,0.9873046875,-0.224853515625,-2.380370855331421,0.1220703050494194,0.6713866591453552,86.66667175292969,139559.0,1.0
12:07:05.606696,202391.5625,197060.671875,222416.671875,210259.203125,222858.890625,179092.828125,-705781.9375,181161.515625,0.00341796875,0.986572265625,-0.2275390625,-2.319335699081421,0.2136230319738388,0.5798339247703552,86.66667175292969,139560.0,1.0
12:07:05.640102,202413.734375,197076.59375,222430.71875,210262.328125,222898.21875,179111.25,-705782.5625,181168.40625,0.00390625,0.98681640625,-0.229736328125,-2.319335699081421,0.1525878757238388,0.5187987685203552,86.66667175292969,139561.0,1.0
12:07:05.642952,202415.890625,197077.84375,222440.09375,210265.109375,222915.5625,179114.28125,-705777.625,181172.78125,0.00390625,0.984619140625,-0.226318359375,-2.227782964706421,0.2136230319738388,0.4272460639476776,86.66667175292969,139562.0,1.0
12:07:05.642974,202396.578125,197059.875,222427.40625,210261.796875,222874.890625,179090.765625,-705772.125,181165.71875,0.003173828125,0.983154296875,-0.2265625,-2.288818120956421,0.2136230319738388,0.4577636420726776,86.66667175292969,139563.0,1.0
12:07:05.644901,202399.609375,197072.65625,222428.125,210265.1875,222866.390625,179100.78125,-705766.5625,181165.28125,0.00146484375,0.987060546875,-0.22412109375,-2.319335699081421,0.1525878757238388,0.3662109076976776,86.66667175292969,139564.0,1.0
12:07:05.647539,202421.34375,197084.109375,222440.28125,210270.203125,222903.40625,179119.640625,-705758.125,181173.0625,0.000732421875,0.986572265625,-0.22412109375,-2.319335699081421,0.2746581733226776,0.3662109076976776,86.66667175292969,139565.0,1.0
12:07:05.650075,202423.125,197081.953125,222444.84375,210268.859375,222921.828125,179121.609375,-705754.875,181175.46875,0.00048828125,0.98583984375,-0.22412109375,-2.227782964706421,0.3051757514476776,0.4577636420726776,86.66667175292969,139566.0,1.0
12:07:05.652636,202399.796875,197065.328125,222433.125,210265.46875,222887.671875,179103.46875,-705761.1875,181171.71875,-0.000244140625,0.9853515625,-0.22314453125,-2.258300542831421,0.1525878757238388,0.3356933295726776,86.66667175292969,139567.0,1.0
12:07:05.654922,202392.734375,197066.484375,222424.71875,210263.9375,222864.875,179102.84375,-705770.375,181166.171875,-0.001708984375,0.985107421875,-0.22607421875,-2.288818120956421,0.0915527269244194,0.3662109076976776,86.66667175292969,139568.0,1.0
12:07:05.657692,202409.625,197079.28125,222431.609375,210264.484375,222892.5,179119.203125,-705767.1875,181167.6875,-0.00146484375,0.986328125,-0.22607421875,-2.227782964706421,-0.03051757626235485,0.2746581733226776,86.66667175292969,139569.0,1.0
12:07:05.659983,202421.78125,197086.421875,222444.390625,210268.140625,222925.578125,179129.84375,-705763.4375,181175.734375,0.0,0.985107421875,-0.2255859375,-2.136230230331421,-0.03051757626235485,0.2746581733226776,86.66667175292969,139570.0,1.0
12:07:05.662520,202403.734375,197071.3125,222435.453125,210267.25,222899.296875,179112.9375,-705768.4375,181173.328125,0.001220703125,0.985595703125,-0.22509765625,-2.105712652206421,-0.0610351525247097,0.2136230319738388,86.66667175292969,139571.0,1.0
12:07:05.665213,202389.15625,197062.90625,222420.4375,210263.140625,222864.515625,179097.109375,-705772.4375,181166.703125,-0.001220703125,0.985107421875,-0.223876953125,-2.044677495956421,-0.0610351525247097,0.2746581733226776,86.66667175292969,139572.0,1.0
12:07:05.667433,202402.296875,197075.78125,222425.609375,210261.796875,222884.546875,179112.859375,-705767.4375,181166.078125,-0.001220703125,0.986572265625,-0.22607421875,-2.014159917831421,-0.1220703050494194,0.3356933295726776,86.66667175292969,139573.0,1.0
12:07:05.669903,202419.015625,197086.96875,222440.453125,210266.796875,222919.953125,179128.40625,-705758.75,181175.5625,-0.000244140625,0.9892578125,-0.226318359375,-2.105712652206421,-0.0915527269244194,0.3051757514476776,86.66667175292969,139574.0,1.0
12:07:05.672373,202401.3125,197068.546875,222430.359375,210261.078125,222895.625,179106.140625,-705760.3125,181168.5,0.000732421875,0.98681640625,-0.222900390625,-2.014159917831421,-0.0915527269244194,0.3662109076976776,86.66667175292969,139575.0,1.0
12:07:05.674858,202386.921875,197059.609375,222417.65625,210260.546875,222858.078125,179093.265625,-705762.8125,181162.78125,0.002197265625,0.98779296875,-0.22265625,-2.075195074081421,-0.0610351525247097,0.4882812201976776,86.66667175292969,139576.0,1.0
12:07:05.678861,202401.40625,197073.46875,222423.65625,210263.765625,222874.171875,179110.34375,-705759.125,181165.453125,0.00244140625,0.98876953125,-0.223876953125,-2.014159917831421,-0.1220703050494194,0.5187987685203552,86.66667175292969,139577.0,1.0
12:07:05.679053,202421.34375,197085.890625,222437.953125,210267.96875,222912.4375,179127.78125,-705755.75,181174.671875,0.00048828125,0.989013671875,-0.222900390625,-1.9531248807907104,-0.03051757626235485,0.5493163466453552,86.66667175292969,139578.0,1.0
12:07:05.679120,202411.0625,197075.421875,222436.4375,210267.15625,222904.390625,179116.78125,-705751.6875,181175.109375,-0.00048828125,0.98876953125,-0.2216796875,-1.9531248807907104,-0.0610351525247097,0.6408690810203552,86.66667175292969,139579.0,1.0
12:07:05.681131,202390.234375,197062.734375,222419.984375,210262.328125,222860.671875,179099.078125,-705748.6875,181166.078125,-0.001708984375,0.98876953125,-0.220947265625,-1.8920897245407104,-0.0610351525247097,0.7934569716453552,86.66667175292969,139580.0,1.0
12:07:05.687312,202390.234375,197065.5,222413.71875,210257.140625,222859.78125,179103.46875,-705747.4375,181160.265625,-0.001708984375,0.98876953125,-0.220947265625,-1.8310545682907104,-0.03051757626235485,0.7934569716453552,86.66667175292969,139581.0,1.0
12:07:05.687386,202392.640625,197058.53125,222410.859375,210246.421875,222883.46875,179103.203125,-705755.625,181157.5,-0.00048828125,0.986572265625,-0.222900390625,-1.7700194120407104,-0.03051757626235485,0.7324218153953552,86.66667175292969,139582.0,1.0
12:07:05.687414,202380.484375,197046.46875,222405.953125,210238.546875,222880.609375,179091.03125,-705768.1875,181151.234375,-0.00048828125,0.987060546875,-0.224609375,-1.8615721464157104,-0.03051757626235485,0.8239745497703552,86.66667175292969,139583.0,1.0
12:07:05.689852,202358.3125,197026.796875,222388.953125,210235.421875,222834.921875,179065.109375,-705772.25,181141.9375,0.0,0.98828125,-0.224609375,-1.7700194120407104,-0.0915527269244194,0.8544921278953552,86.66667175292969,139584.0,1.0
12:07:05.692407,202360.453125,197032.328125,222384.40625,210234.625,222827.234375,179067.34375,-705772.875,181135.5,0.000244140625,0.98681640625,-0.223876953125,-1.7395018339157104,-0.1220703050494194,0.9155272841453552,86.66667175292969,139585.0,1.0
12:07:05.694864,202386.46875,197049.40625,222401.296875,210243.46875,222868.1875,179082.8125,-705770.0625,181146.59375,0.001220703125,0.98681640625,-0.222900390625,-1.7700194120407104,-0.1525878757238388,1.0681151151657104,86.66667175292969,139586.0,1.0
12:07:05.697373,202391.484375,197051.46875,222410.953125,210247.484375,222885.265625,179086.390625,-705770.125,181152.765625,0.0,0.985107421875,-0.223876953125,-1.7089842557907104,-0.1525878757238388,1.0986326932907104,86.66667175292969,139587.0,1.0
12:07:05.700073,202378.421875,197038.234375,222404.703125,210254.734375,222852.171875,179066.71875,-705773.0,181155.984375,-0.000732421875,0.985595703125,-0.222900390625,-1.6479490995407104,-0.1220703050494194,1.0070799589157104,86.66667175292969,139588.0,1.0
12:07:05.702383,202383.4375,197048.609375,222406.03125,210258.84375,222844.21875,179075.03125,-705779.625,181154.734375,0.00146484375,0.98583984375,-0.22216796875,-1.6174315214157104,-0.03051757626235485,0.9460448622703552,86.66667175292969,139589.0,1.0
12:07:05.713023,202411.953125,197070.328125,222424.71875,210268.765625,222885.265625,179100.421875,-705768.625,181167.953125,0.001220703125,0.986572265625,-0.2236328125,-1.5869139432907104,-0.0915527269244194,0.8850097060203552,86.66667175292969,139590.0,1.0
12:07:05.713081,202418.125,197073.46875,222435.8125,210270.296875,222912.265625,179107.046875,-705765.375,181173.6875,0.00146484375,0.985107421875,-0.223876953125,-1.4648436307907104,-0.0915527269244194,1.0375975370407104,86.66667175292969,139591.0,1.0
12:07:05.720481,202402.46875,197061.390625,222432.59375,210271.71875,222887.84375,179092.734375,-705766.125,181174.9375,0.00146484375,0.9853515625,-0.22314453125,-1.4343260526657104,-0.0610351525247097,0.9460448622703552,86.66667175292969,139592.0,1.0
12:07:05.720538,202394.078125,197061.390625,222424.1875,210268.6875,222863.796875,179091.296875,-705767.4375,181168.9375,0.00244140625,0.9853515625,-0.223876953125,-1.3732908964157104,0.03051757626235485,1.0070799589157104,86.66667175292969,139593.0,1.0
12:07:05.723457,202413.296875,197075.609375,222430.171875,210269.578125,222891.34375,179109.28125,-705762.375,181173.328125,0.00146484375,0.98681640625,-0.22265625,-1.3732908964157104,0.03051757626235485,1.0070799589157104,86.66667175292969,139594.0,1.0
12:07:05.723539,202423.125,197081.234375,222440.09375,210269.484375,222920.9375,179119.5625,-705757.1875,181179.578125,0.003173828125,0.988037109375,-0.22314453125,-1.3427733182907104,0.0,1.0375975370407104,86.66667175292969,139595.0,1.0
12:07:05.732337,202403.28125,197064.25,222430.625,210265.46875,222892.5,179101.234375,-705758.75,181174.390625,0.001708984375,0.986328125,-0.220703125,-1.3122557401657104,0.0,0.9765624403953552,86.66667175292969,139596.0,1.0
12:07:05.736679,202391.921875,197064.078125,222421.140625,210265.109375,222862.375,179100.15625,-705758.5,181169.65625,0.002685546875,0.985107421875,-0.22314453125,-1.3122557401657104,0.03051757626235485,0.9765624403953552,86.66667175292969,139597.0,1.0
12:07:05.736686,202405.34375,197071.40625,222423.203125,210265.375,222880.34375,179109.359375,-705762.5625,181169.484375,0.003662109375,0.9853515625,-0.222412109375,-1.3427733182907104,0.0915527269244194,0.9460448622703552,86.66667175292969,139598.0,1.0
12:07:05.742284,202413.65625,197069.171875,222428.921875,210261.171875,222908.328125,179112.9375,-705757.4375,181170.546875,0.00341796875,0.982421875,-0.222900390625,-1.2512205839157104,0.2136230319738388,0.8850097060203552,86.66667175292969,139599.0,1.0
12:07:05.758076,202397.65625,197055.671875,222423.65625,210257.328125,222889.546875,179097.5625,-705755.5625,181167.0625,0.005126953125,0.981689453125,-0.224609375,-1.2207030057907104,0.2441406100988388,0.7629393935203552,86.66667175292969,139600.0,1.0
12:07:05.758095,202385.484375,197049.328125,222414.53125,210258.125,222854.859375,179087.375,-705748.875,181162.78125,0.005615234375,0.982666015625,-0.229736328125,-1.1901854276657104,0.2136230319738388,0.8239745497703552,86.66667175292969,139601.0,1.0
12:07:05.760510,202398.09375,197063.625,222419.890625,210261.078125,222871.3125,179102.125,-705739.125,181164.65625,0.006591796875,0.982177734375,-0.23046875,-1.0681151151657104,0.2746581733226776,0.8850097060203552,86.66667175292969,139602.0,1.0
12:07:05.760553,202416.15625,197076.953125,222432.765625,210263.765625,222909.390625,179117.859375,-705738.1875,181173.6875,0.009033203125,0.983642578125,-0.226806640625,-0.9155272841453552,0.3967284858226776,0.9460448622703552,86.66667175292969,139603.0,1.0
12:07:05.762439,202409.09375,197071.5,222434.203125,210263.765625,222904.125,179111.421875,-705747.9375,181173.765625,0.01025390625,0.9853515625,-0.227294921875,-0.7934569716453552,0.5187987685203552,0.8544921278953552,86.66667175292969,139604.0,1.0
12:07:05.769713,202384.140625,197050.484375,222414.078125,210256.078125,222856.828125,179084.953125,-705758.625,181163.046875,0.01220703125,0.984619140625,-0.228759765625,-0.7019042372703552,0.5798339247703552,0.8544921278953552,86.66667175292969,139605.0,1.0
12:07:05.774232,202388.53125,197059.609375,222411.484375,210253.125,222858.796875,179094.171875,-705753.25,181158.75,0.01171875,0.984130859375,-0.227294921875,-0.6408690810203552,0.6713866591453552,0.8239745497703552,86.66667175292969,139606.0,1.0
12:07:05.774309,202409.625,197074.0,222423.296875,210254.015625,222895.71875,179111.953125,-705745.125,181162.0625,0.011962890625,0.982177734375,-0.227783203125,-0.5798339247703552,0.7629393935203552,0.8239745497703552,86.66667175292969,139607.0,1.0
12:07:05.776284,202404.890625,197066.671875,222424.359375,210252.953125,222897.328125,179104.8125,-705748.4375,181160.8125,0.00927734375,0.98046875,-0.22705078125,-0.4882812201976776,0.9155272841453552,0.8544921278953552,86.66667175292969,139608.0,1.0
12:07:05.783684,202386.296875,197051.015625,222414.0,210253.125,222857.90625,179085.671875,-705756.125,181156.515625,0.0078125,0.982421875,-0.225830078125,-0.3967284858226776,0.9460448622703552,0.7324218153953552,86.66667175292969,139609.0,1.0
12:07:05.796427,202390.765625,197061.296875,222414.796875,210255.625,222857.1875,179096.21875,-705751.5625,181156.421875,0.004638671875,0.9833984375,-0.226318359375,-0.3051757514476776,1.0681151151657104,0.6103515028953552,86.66667175292969,139610.0,1.0
12:07:05.796463,202416.25,197078.921875,222430.09375,210262.78125,222897.0625,179116.875,-705745.875,181166.34375,0.00146484375,0.981689453125,-0.225830078125,-0.2136230319738388,1.1596678495407104,0.4272460639476776,86.66667175292969,139611.0,1.0
12:07:05.796740,202418.296875,197080.53125,222438.140625,210261.96875,222911.359375,179120.625,-705747.6875,181167.15625,-0.00048828125,0.98046875,-0.226318359375,-0.1220703050494194,1.0681151151657104,0.2136230319738388,86.66667175292969,139612.0,1.0
12:07:05.796773,202399.171875,197062.46875,222427.578125,210261.0,222872.46875,179095.5,-705747.625,181162.59375,-0.003173828125,0.9814453125,-0.223388671875,-0.0915527269244194,0.9460448622703552,0.0610351525247097,86.66667175292969,139613.0,1.0
12:07:05.798702,202399.4375,197067.921875,222424.09375,210262.328125,222859.953125,179097.203125,-705742.125,181160.984375,-0.0029296875,0.983642578125,-0.22119140625,-0.1831054538488388,0.9155272841453552,-0.1220703050494194,86.66667175292969,139614.0,1.0
12:07:05.808666,202423.671875,197089.640625,222439.125,210270.5625,222898.84375,179120.890625,-705743.125,181173.6875,-0.0048828125,0.98486328125,-0.22412109375,-0.1525878757238388,0.7629393935203552,-0.3051757514476776,86.66667175292969,139615.0,1.0
12:07:05.812958,202424.203125,197087.328125,222441.53125,210265.46875,222917.0,179122.0625,-705747.8125,181175.109375,-0.005126953125,0.988037109375,-0.22509765625,-0.1525878757238388,0.6713866591453552,-0.3967284858226776,86.66667175292969,139616.0,1.0
12:07:05.812971,202399.796875,197063.359375,222425.4375,210260.453125,222878.28125,179095.421875,-705746.875,181167.875,-0.0078125,0.98974609375,-0.224853515625,-0.2441406100988388,0.3967284858226776,-0.5187987685203552,86.66667175292969,139617.0,1.0
12:07:05.827908,202396.3125,197066.578125,222421.59375,210263.5,222859.859375,179097.921875,-705753.9375,181167.0625,-0.0068359375,0.990234375,-0.22314453125,-0.3051757514476776,0.2746581733226776,-0.4882812201976776,86.66667175292969,139618.0,1.0
12:07:05.827918,202414.375,197081.0625,222430.625,210266.265625,222890.4375,179117.859375,-705754.0625,181173.421875,-0.0029296875,0.993408203125,-0.228271484375,-0.4272460639476776,0.2136230319738388,-0.6103515028953552,86.66667175292969,139619.0,1.0
12:07:05.830716,202419.109375,197079.546875,222434.828125,210263.671875,222914.40625,179119.921875,-705753.3125,181175.734375,-0.001220703125,0.995361328125,-0.224365234375,-0.5798339247703552,0.0915527269244194,-0.6103515028953552,86.66667175292969,139620.0,1.0
12:07:05.830731,202396.484375,197057.375,222422.125,210258.75,222882.75,179096.578125,-705748.875,181170.109375,0.000732421875,0.99462890625,-0.225830078125,-0.6713866591453552,-0.0915527269244194,-0.4882812201976776,86.66667175292969,139621.0,1.0
12:07:05.832432,202386.390625,197053.078125,222414.703125,210261.171875,222855.21875,179092.375,-705743.75,181169.65625,0.000732421875,0.9951171875,-0.226318359375,-0.7629393935203552,-0.1525878757238388,-0.3967284858226776,86.66667175292969,139622.0,1.0
12:07:05.838570,202404.71875,197068.28125,222423.65625,210264.484375,222880.96875,179109.28125,-705742.75,181172.609375,0.001220703125,0.99462890625,-0.2255859375,-0.8544921278953552,-0.1220703050494194,-0.2136230319738388,86.66667175292969,139623.0,1.0
12:07:05.845411,202420.453125,197080.609375,222436.4375,210266.09375,222916.375,179124.296875,-705746.6875,181179.046875,0.001708984375,0.9951171875,-0.228271484375,-1.0986326932907104,-0.1525878757238388,-0.2136230319738388,86.66667175292969,139624.0,1.0
12:07:05.845439,202404.71875,197068.453125,222429.546875,210261.171875,222896.875,179109.09375,-705751.5625,181172.78125,0.000244140625,0.996337890625,-0.230712890625,-1.1596678495407104,0.0,-0.1220703050494194,86.66667175292969,139625.0,1.0
12:07:05.847340,202385.3125,197055.140625,222412.203125,210253.84375,222854.328125,179091.84375,-705747.9375,181160.984375,-0.001220703125,0.996337890625,-0.22412109375,-1.3122557401657104,-0.0915527269244194,-0.03051757626235485,86.66667175292969,139626.0,1.0
12:07:05.862437,202398.28125,197068.28125,222415.875,210256.078125,222867.828125,179108.109375,-705743.125,181162.328125,0.0009765625,0.995849609375,-0.2265625,-1.3427733182907104,-0.0915527269244194,0.03051757626235485,86.66667175292969,139627.0,1.0
12:07:05.865398,202415.171875,197078.921875,222426.328125,210258.671875,222901.984375,179121.703125,-705737.6875,181169.65625,-0.002197265625,0.993896484375,-0.224853515625,-1.5563963651657104,-0.1525878757238388,0.1831054538488388,86.66667175292969,139628.0,1.0
12:07:05.865409,202399.34375,197063.625,222419.71875,210252.765625,222890.796875,179104.265625,-705736.1875,181165.71875,-0.00537109375,0.993896484375,-0.2275390625,-1.7089842557907104,-0.2441406100988388,0.3967284858226776,86.66667175292969,139629.0,1.0
12:07:05.867285,202377.359375,197047.4375,222403.71875,210247.84375,222847.0,179084.0625,-705742.6875,181156.78125,-0.006103515625,0.992919921875,-0.226318359375,-1.8310545682907104,-0.3662109076976776,0.3967284858226776,86.66667175292969,139630.0,1.0
12:07:05.873577,202385.578125,197058.984375,222403.53125,210246.6875,222851.1875,179096.578125,-705748.75,181154.015625,-0.007080078125,0.991943359375,-0.22509765625,-1.9226073026657104,-0.3356933295726776,0.4577636420726776,86.66667175292969,139631.0,1.0
12:07:05.881556,202408.109375,197074.09375,222417.921875,210253.03125,222890.53125,179114.015625,-705741.375,181163.84375,-0.0068359375,0.99267578125,-0.22314453125,-1.9226073026657104,-0.4577636420726776,0.5798339247703552,86.66667175292969,139632.0,1.0
12:07:05.881632,202397.5625,197060.3125,222414.359375,210246.15625,222889.734375,179103.46875,-705742.0,181159.90625,-0.0068359375,0.992919921875,-0.223388671875,-2.075195074081421,-0.5187987685203552,0.8239745497703552,86.66667175292969,139633.0,1.0
12:07:05.886998,202375.296875,197042.796875,222396.5625,210241.234375,222843.6875,179081.203125,-705744.0,181149.625,-0.0078125,0.99267578125,-0.2255859375,-2.288818120956421,-0.6408690810203552,0.7324218153953552,86.66667175292969,139634.0,1.0
12:07:05.887086,202383.796875,197054.59375,222399.875,210245.4375,222842.515625,179088.890625,-705743.125,181149.625,-0.007568359375,0.994140625,-0.22216796875,-2.380370855331421,-0.8239745497703552,0.8239745497703552,86.66667175292969,139635.0,1.0
12:07:05.896650,202408.5625,197072.921875,222418.109375,210253.03125,222886.421875,179112.046875,-705741.5,181161.703125,-0.005859375,0.990234375,-0.220947265625,-2.532958745956421,-0.9155272841453552,0.8850097060203552,86.66667175292969,139636.0,1.0
12:07:05.896662,202409.546875,197072.921875,222425.796875,210253.921875,222902.609375,179114.46875,-705741.875,181165.90625,-0.00439453125,0.989013671875,-0.22509765625,-2.655029058456421,-0.9765624403953552,0.8239745497703552,86.66667175292969,139637.0,1.0
12:07:05.899196,202388.34375,197056.65625,222414.703125,210252.5,222865.140625,179091.84375,-705746.6875,181162.5,-0.005126953125,0.987548828125,-0.225830078125,-2.685546636581421,-0.9765624403953552,0.9765624403953552,86.66667175292969,139638.0,1.0
12:07:05.899213,202386.46875,197060.5,222411.484375,210253.578125,222853.96875,179088.796875,-705753.3125,181161.34375,-0.00341796875,0.98828125,-0.22607421875,-2.716064214706421,-0.9460448622703552,1.0375975370407104,86.66667175292969,139639.0,1.0
12:07:05.908615,202412.40625,197080.796875,222427.40625,210264.296875,222894.28125,179110.4375,-705750.1875,181176.8125,-0.001220703125,0.98876953125,-0.22705078125,-2.807616949081421,-1.0986326932907104,1.0070799589157104,86.66667175292969,139640.0,1.0
12:07:05.912943,202417.046875,197083.5625,222432.328125,210259.296875,222911.984375,179113.65625,-705747.875,181175.46875,0.001220703125,0.98583984375,-0.2255859375,-2.777099370956421,-1.0986326932907104,1.0070799589157104,86.66667175292969,139641.0,1.0
12:07:05.912970,202392.90625,197060.671875,222419.1875,210252.671875,222874.984375,179084.953125,-705752.0,181167.15625,0.00146484375,0.98828125,-0.225830078125,-2.838134527206421,-1.0375975370407104,1.0070799589157104,86.66667175292969,139642.0,1.0
12:07:05.922525,202384.953125,197057.28125,222412.75,210252.765625,222854.59375,179081.734375,-705756.375,181164.734375,0.00439453125,0.987548828125,-0.226806640625,-2.746581792831421,-0.9460448622703552,1.0375975370407104,86.66667175292969,139643.0,1.0
12:07:05.926745,202404.359375,197074.796875,222423.828125,210256.515625,222885.703125,179101.5,-705757.1875,181171.359375,0.005859375,0.984375,-0.22607421875,-2.716064214706421,-0.8544921278953552,1.1291502714157104,86.66667175292969,139644.0,1.0
12:07:05.926759,202412.40625,197081.421875,222432.328125,210254.90625,222913.15625,179110.609375,-705754.75,181174.390625,0.005126953125,0.98583984375,-0.224853515625,-2.716064214706421,-0.7019042372703552,1.0681151151657104,86.66667175292969,139645.0,1.0
12:07:05.933575,202390.3125,197059.875,222421.765625,210249.09375,222883.828125,179087.1875,-705758.0,181167.0625,0.0087890625,0.98681640625,-0.22509765625,-2.716064214706421,-0.5798339247703552,1.0986326932907104,86.66667175292969,139646.0,1.0
12:07:05.933604,202372.53125,197049.234375,222404.703125,210241.328125,222846.09375,179074.859375,-705751.0,181154.453125,0.0107421875,0.98681640625,-0.22412109375,-2.716064214706421,-0.3967284858226776,1.1291502714157104,86.66667175292969,139647.0,1.0
12:07:05.939838,202392.90625,197068.640625,222413.1875,210244.90625,222869.96875,179097.734375,-705739.8125,181157.859375,0.0078125,0.98486328125,-0.223876953125,-2.685546636581421,-0.2441406100988388,1.2512205839157104,86.66667175292969,139648.0,1.0
12:07:05.948131,202407.21875,197079.625,222426.0625,210247.40625,222905.28125,179111.953125,-705742.25,181166.703125,0.008544921875,0.9853515625,-0.224853515625,-2.655029058456421,-0.2136230319738388,1.2817381620407104,86.66667175292969,139649.0,1.0
12:07:05.948147,202391.65625,197065.421875,222420.34375,210244.0,222887.671875,179096.84375,-705739.375,181163.484375,0.009765625,0.984375,-0.22509765625,-2.532958745956421,0.0,1.3122557401657104,86.66667175292969,139650.0,1.0
12:07:05.991503,202374.40625,197052.90625,222404.34375,210238.640625,222844.484375,179077.171875,-705737.5,181152.671875,0.009765625,0.98291015625,-0.22509765625,-2.471923589706421,0.0,1.2207030057907104,86.66667175292969,139651.0,1.0
12:07:05.991587,202388.96875,197068.90625,222408.890625,210241.40625,222858.703125,179092.828125,-705733.75,181153.484375,0.0078125,0.983642578125,-0.224853515625,-2.380370855331421,0.2136230319738388,1.3122557401657104,86.66667175292969,139652.0,1.0
12:07:05.993229,202409.0,197079.71875,222421.765625,210244.8125,222897.328125,179108.375,-705729.0,181160.8125,0.005615234375,0.983154296875,-0.222412109375,-2.380370855331421,0.4577636420726776,1.2512205839157104,86.66667175292969,139653.0,1.0
12:07:05.993289,202398.546875,197070.78125,222420.703125,210241.6875,222891.0625,179098.640625,-705728.3125,181156.25,0.007080078125,0.98291015625,-0.221435546875,-2.319335699081421,0.5798339247703552,1.1291502714157104,86.66667175292969,139654.0,1.0
12:07:05.998813,202375.296875,197051.015625,222402.375,210233.359375,222845.203125,179074.046875,-705734.75,181142.921875,0.005126953125,0.98193359375,-0.222900390625,-2.197265386581421,0.6408690810203552,1.0986326932907104,86.66667175292969,139655.0,1.0
12:07:05.998880,202388.171875,197066.484375,222408.984375,210238.109375,222854.953125,179090.5,-705728.5625,181144.796875,0.00341796875,0.98291015625,-0.224365234375,-2.105712652206421,0.7934569716453552,1.0375975370407104,86.66667175292969,139656.0,1.0
12:07:05.998906,202411.859375,197084.90625,222427.046875,210244.8125,222897.78125,179111.515625,-705731.9375,181155.171875,0.003173828125,0.98388671875,-0.2255859375,-1.9836424589157104,0.9155272841453552,0.8850097060203552,86.66667175292969,139657.0,1.0
12:07:06.002298,202404.53125,197079.453125,222426.78125,210239.796875,222899.03125,179107.484375,-705739.3125,181152.671875,0.003173828125,0.9814453125,-0.222900390625,-1.8920897245407104,0.9155272841453552,0.7629393935203552,86.66667175292969,139658.0,1.0
12:07:06.002366,202382.359375,197061.75,222411.40625,210237.296875,222855.671875,179083.34375,-705741.0625,181146.0625,0.006591796875,0.980224609375,-0.22314453125,-1.6784666776657104,0.8850097060203552,0.7324218153953552,86.66667175292969,139659.0,1.0
12:07:06.002393,202384.859375,197069.625,222408.71875,210237.484375,222851.015625,179089.515625,-705741.6875,181144.265625,0.0048828125,0.981689453125,-0.22021484375,-1.5869139432907104,0.9155272841453552,0.8239745497703552,86.66667175292969,139660.0,1.0
12:07:06.005039,202409.0,197085.4375,222421.859375,210242.125,222890.53125,179111.953125,-705744.625,181153.125,0.005126953125,0.983154296875,-0.220947265625,-1.4953612089157104,0.9155272841453552,0.7629393935203552,86.66667175292969,139661.0,1.0
12:07:06.007915,202410.078125,197085.53125,222428.296875,210243.296875,222906.265625,179112.765625,-705748.5625,181158.65625,0.005615234375,0.984619140625,-0.222412109375,-1.3427733182907104,1.0375975370407104,0.6408690810203552,86.66667175292969,139662.0,1.0
12:07:06.009878,202390.5,197068.015625,222416.40625,210243.734375,222867.375,179090.140625,-705748.4375,181155.53125,0.003662109375,0.984130859375,-0.221923828125,-1.3732908964157104,1.0375975370407104,0.7019042372703552,86.66667175292969,139663.0,1.0
12:07:06.012382,202392.109375,197073.015625,222414.984375,210248.296875,222856.015625,179094.96875,-705743.5625,181155.71875,0.004638671875,0.98486328125,-0.22314453125,-1.2207030057907104,1.1291502714157104,0.7019042372703552,86.66667175292969,139664.0,1.0
12:07:06.039937,202413.921875,197087.5,222428.03125,210254.734375,222892.328125,179114.015625,-705750.1875,181164.390625,0.003662109375,0.9833984375,-0.22412109375,-1.2207030057907104,1.1291502714157104,0.5798339247703552,86.66667175292969,139665.0,1.0
12:07:06.042593,202417.671875,197087.953125,222433.3125,210253.484375,222913.78125,179116.421875,-705755.1875,181166.625,0.001953125,0.980712890625,-0.22412109375,-1.0986326932907104,1.1291502714157104,0.6103515028953552,86.66667175292969,139666.0,1.0
12:07:06.044830,202396.75,197069.171875,222419.890625,210249.453125,222876.234375,179093.09375,-705755.75,181159.5625,0.00146484375,0.97998046875,-0.224365234375,-0.8850097060203552,1.0986326932907104,0.5493163466453552,86.66667175292969,139667.0,1.0
12:07:06.047309,202389.515625,197068.015625,222411.671875,210247.9375,222852.09375,179090.59375,-705749.75,181153.03125,0.001708984375,0.982666015625,-0.224853515625,-0.6103515028953552,1.0681151151657104,0.5187987685203552,86.66667175292969,139668.0,1.0
12:07:06.049966,202412.9375,197089.203125,222424.90625,210255.359375,222885.796875,179111.515625,-705747.875,181162.5,0.0009765625,0.984130859375,-0.22509765625,-0.4882812201976776,1.1291502714157104,0.4577636420726776,86.66667175292969,139669.0,1.0
12:07:06.052423,202423.484375,197091.34375,222433.9375,210253.84375,222912.96875,179117.953125,-705748.4375,181167.875,0.001220703125,0.984619140625,-0.222900390625,-0.4577636420726776,1.0681151151657104,0.5798339247703552,86.66667175292969,139670.0,1.0
12:07:06.054857,202402.65625,197068.90625,222421.59375,210248.390625,222881.6875,179093.359375,-705747.5,181159.828125,0.0009765625,0.9853515625,-0.222412109375,-0.4882812201976776,1.0681151151657104,0.4577636420726776,86.66667175292969,139671.0,1.0
12:07:06.057342,202391.75,197064.96875,222412.921875,210247.484375,222850.125,179084.953125,-705750.5625,181154.546875,0.0,0.984130859375,-0.224853515625,-0.3967284858226776,1.0986326932907104,0.3967284858226776,86.66667175292969,139672.0,1.0
12:07:06.059799,202412.125,197082.578125,222423.828125,210254.734375,222875.875,179104.453125,-705747.5,181161.875,-0.000244140625,0.9853515625,-0.228515625,-0.3662109076976776,1.0070799589157104,0.2746581733226776,86.66667175292969,139673.0,1.0
12:07:06.062327,202428.84375,197092.953125,222437.234375,210259.828125,222913.953125,179121.171875,-705740.1875,181172.34375,-0.001953125,0.983154296875,-0.22900390625,-0.2441406100988388,0.9460448622703552,0.1831054538488388,86.66667175292969,139674.0,1.0
12:07:06.064794,202414.640625,197079.28125,222431.875,210257.421875,222897.5,179104.0,-705739.375,181170.203125,-0.0029296875,0.984375,-0.228271484375,-0.2136230319738388,0.8544921278953552,0.2136230319738388,86.66667175292969,139675.0,1.0
12:07:06.067348,202394.4375,197063.71875,222415.609375,210251.0625,222855.3125,179082.984375,-705743.5625,181159.46875,-0.003662109375,0.98486328125,-0.228759765625,-0.1220703050494194,0.7629393935203552,0.2441406100988388,86.66667175292969,139676.0,1.0
12:07:06.070430,202404.984375,197074.796875,222418.828125,210251.25,222868.359375,179096.40625,-705743.375,181158.484375,-0.003662109375,0.983642578125,-0.2265625,-0.03051757626235485,0.6408690810203552,0.1831054538488388,86.66667175292969,139677.0,1.0
12:07:06.070463,202423.3125,197087.59375,222432.765625,210254.109375,222905.109375,179114.375,-705738.75,181166.796875,-0.004638671875,0.983642578125,-0.228759765625,-0.03051757626235485,0.5187987685203552,0.1220703050494194,86.66667175292969,139678.0,1.0
12:07:06.072352,202410.875,197076.234375,222428.828125,210250.265625,222893.65625,179103.546875,-705743.9375,181163.21875,-0.0029296875,0.98486328125,-0.22705078125,-0.0610351525247097,0.3967284858226776,0.1220703050494194,86.66667175292969,139679.0,1.0
12:07:06.075492,202388.171875,197059.78125,222412.03125,210244.625,222850.296875,179083.96875,-705746.625,181153.125,-0.00390625,0.9853515625,-0.2265625,-0.03051757626235485,0.2746581733226776,0.1525878757238388,86.66667175292969,139680.0,1.0
12:07:06.075506,202394.4375,197069.4375,222412.203125,210245.078125,222853.703125,179094.4375,-705737.25,181150.703125,-0.00341796875,0.986083984375,-0.229248046875,0.0,0.1220703050494194,0.0610351525247097,86.66667175292969,139681.0,1.0
12:07:06.077879,202414.71875,197083.03125,222425.265625,210246.953125,222892.046875,179111.78125,-705729.875,181155.890625,-0.0048828125,0.9873046875,-0.230224609375,-0.03051757626235485,0.03051757626235485,0.1525878757238388,86.66667175292969,139682.0,1.0
12:07:06.077896,202409.453125,197077.75,222426.78125,210243.921875,222896.53125,179107.75,-705739.1875,181155.71875,-0.0029296875,0.988525390625,-0.228759765625,-0.1220703050494194,-0.1525878757238388,0.0610351525247097,86.66667175292969,139683.0,1.0
12:07:06.092354,202383.796875,197058.703125,222406.84375,210236.9375,222849.40625,179085.84375,-705747.3125,181145.34375,-0.002685546875,0.987060546875,-0.22607421875,-0.1525878757238388,-0.1220703050494194,0.1220703050494194,86.66667175292969,139684.0,1.0
12:07:06.097546,202379.234375,197060.046875,222397.453125,210229.796875,222838.3125,179088.890625,-705750.625,181137.109375,-0.000244140625,0.990234375,-0.225341796875,-0.2136230319738388,-0.2136230319738388,0.1831054538488388,86.66667175292969,139685.0,1.0
12:07:06.100482,202399.4375,197072.296875,222409.609375,210233.90625,222877.125,179103.203125,-705749.5625,181146.6875,-0.0009765625,0.989990234375,-0.226806640625,-0.3662109076976776,-0.2746581733226776,0.1525878757238388,86.66667175292969,139686.0,1.0
12:07:06.100499,202400.328125,197073.109375,222415.609375,210235.15625,222893.75,179107.75,-705742.0625,181150.53125,-0.000244140625,0.990966796875,-0.22802734375,-0.3356933295726776,-0.3356933295726776,0.1831054538488388,86.66667175292969,139687.0,1.0
12:07:06.102611,202375.203125,197050.578125,222398.078125,210230.59375,222849.3125,179079.59375,-705743.125,181143.28125,-0.000732421875,0.9931640625,-0.22900390625,-0.4882812201976776,-0.4272460639476776,0.2746581733226776,86.66667175292969,139688.0,1.0
12:07:06.104904,202371.0,197054.859375,222390.390625,210228.265625,222831.34375,179083.609375,-705748.3125,181136.484375,0.000732421875,0.99462890625,-0.229248046875,-0.6713866591453552,-0.3662109076976776,0.3662109076976776,86.66667175292969,139689.0,1.0
12:07:06.110218,202391.484375,197066.046875,222399.6875,210231.671875,222863.4375,179098.015625,-705748.9375,181142.390625,0.0009765625,0.993896484375,-0.230224609375,-0.7324218153953552,-0.3967284858226776,0.3967284858226776,86.66667175292969,139690.0,1.0
12:07:06.114196,202397.828125,197069.625,222406.390625,210230.765625,222884.546875,179104.359375,-705747.6875,181144.453125,-0.00146484375,0.99365234375,-0.22802734375,-0.8544921278953552,-0.4272460639476776,0.3967284858226776,86.66667175292969,139691.0,1.0
12:07:06.114255,202377.0,197049.6875,222393.609375,210227.90625,222848.328125,179080.484375,-705750.1875,181137.734375,-0.000732421875,0.9931640625,-0.2275390625,-0.9155272841453552,-0.4882812201976776,0.3967284858226776,86.66667175292969,139692.0,1.0
12:07:06.121621,202370.015625,197047.625,222384.578125,210227.203125,222822.9375,179074.9375,-705752.875,181132.375,0.0,0.993896484375,-0.2275390625,-1.1596678495407104,-0.6103515028953552,0.3967284858226776,86.66667175292969,139693.0,1.0
12:07:06.121628,202390.234375,197063.359375,222394.765625,210231.9375,222852.265625,179093.984375,-705749.9375,181139.53125,0.002197265625,0.989013671875,-0.228515625,-1.2207030057907104,-0.6713866591453552,0.5798339247703552,86.66667175292969,139694.0,1.0
12:07:06.127450,202400.6875,197068.546875,222405.671875,210233.71875,222881.765625,179102.5625,-705750.0,181146.0625,-0.00048828125,0.99072265625,-0.232177734375,-1.2817381620407104,-0.5798339247703552,0.5798339247703552,86.66667175292969,139695.0,1.0
12:07:06.134475,202382.453125,197048.34375,222398.4375,210231.75,222856.203125,179080.21875,-705759.6875,181141.765625,-0.0009765625,0.990966796875,-0.228515625,-1.4038084745407104,-0.5798339247703552,0.4882812201976776,86.66667175292969,139696.0,1.0
12:07:06.134524,202370.734375,197043.421875,222387.796875,210230.953125,222824.109375,179070.46875,-705765.0625,181136.484375,-0.00048828125,0.988525390625,-0.229736328125,-1.5258787870407104,-0.6408690810203552,0.6103515028953552,86.66667175292969,139697.0,1.0
12:07:06.136165,202384.234375,197055.140625,222389.671875,210231.75,222841.0,179080.84375,-705767.375,181136.84375,0.001220703125,0.98974609375,-0.232177734375,-1.4953612089157104,-0.6713866591453552,0.6103515028953552,86.66667175292969,139698.0,1.0
12:07:06.147285,202397.109375,197062.203125,222400.046875,210230.59375,222873.375,179090.234375,-705758.5,181139.96875,0.00146484375,0.9912109375,-0.228759765625,-1.6479490995407104,-0.7019042372703552,0.5798339247703552,86.66667175292969,139699.0,1.0
12:07:06.156078,202383.703125,197052.625,222398.703125,210231.84375,222859.859375,179081.203125,-705751.25,181141.5,0.00146484375,0.99072265625,-0.23046875,-1.6784666776657104,-0.7629393935203552,0.5493163466453552,86.66667175292969,139700.0,1.0
12:07:06.156093,202366.171875,197038.765625,222384.765625,210229.609375,222820.609375,179062.34375,-705750.5625,181134.609375,0.00048828125,0.98974609375,-0.228271484375,-1.8615721464157104,-0.7629393935203552,0.5187987685203552,86.66667175292969,139701.0,1.0
12:07:06.156096,202379.5,197050.390625,222389.046875,210231.046875,222834.03125,179071.1875,-705756.8125,181134.171875,0.002197265625,0.990234375,-0.22705078125,-2.044677495956421,-0.7019042372703552,0.5493163466453552,86.66667175292969,139702.0,1.0
12:07:06.159186,202401.84375,197065.421875,222407.5625,210239.796875,222878.46875,179092.46875,-705762.875,181148.375,0.004638671875,0.989501953125,-0.229248046875,-2.014159917831421,-0.7324218153953552,0.6408690810203552,86.66667175292969,139703.0,1.0
12:07:06.159193,202393.625,197055.578125,222410.15625,210241.328125,222877.390625,179083.34375,-705765.6875,181151.6875,0.004150390625,0.991455078125,-0.228515625,-2.105712652206421,-0.6408690810203552,0.4882812201976776,86.66667175292969,139704.0,1.0
12:07:06.164860,202371.90625,197040.203125,222394.234375,210237.65625,222835.640625,179064.75,-705779.8125,181143.828125,0.004150390625,0.99072265625,-0.22900390625,-2.136230230331421,-0.5798339247703552,0.5493163466453552,86.66667175292969,139705.0,1.0
12:07:06.180429,202377.265625,197052.265625,222391.546875,210234.703125,222836.265625,179076.90625,-705782.8125,181138.28125,0.005126953125,0.990966796875,-0.230712890625,-2.136230230331421,-0.7019042372703552,0.6713866591453552,86.66667175292969,139706.0,1.0
12:07:06.180445,202396.84375,197063.625,222405.765625,210236.140625,222876.671875,179093.265625,-705782.1875,181146.953125,0.00439453125,0.98876953125,-0.228759765625,-2.258300542831421,-0.5493163466453552,0.6103515028953552,86.66667175292969,139707.0,1.0
12:07:06.182967,202386.46875,197049.328125,222402.28125,210229.4375,222876.234375,179082.28125,-705778.6875,181143.375,0.005126953125,0.987548828125,-0.226318359375,-2.349853277206421,-0.4882812201976776,0.6408690810203552,86.66667175292969,139708.0,1.0
12:07:06.182985,202361.078125,197030.015625,222383.59375,210222.375,222828.3125,179060.09375,-705774.9375,181132.90625,0.005126953125,0.98779296875,-0.225341796875,-2.410888433456421,-0.3356933295726776,0.6408690810203552,86.66667175292969,139709.0,1.0
12:07:06.189877,202361.96875,197034.921875,222379.390625,210222.015625,222820.265625,179067.078125,-705766.375,181128.984375,0.005126953125,0.98681640625,-0.229736328125,-2.441406011581421,-0.3051757514476776,0.6408690810203552,86.66667175292969,139710.0,1.0
12:07:06.194268,202381.109375,197045.65625,222387.078125,210223.796875,222853.078125,179081.296875,-705764.75,181133.359375,0.00634765625,0.986328125,-0.22607421875,-2.502441167831421,-0.2441406100988388,0.7019042372703552,86.66667175292969,139711.0,1.0
12:07:06.194293,202378.515625,197042.171875,222389.859375,210222.015625,222866.84375,179080.21875,-705763.875,181134.609375,0.0068359375,0.9853515625,-0.2255859375,-2.471923589706421,-0.2136230319738388,0.6713866591453552,86.66667175292969,139712.0,1.0
12:07:06.206751,202352.046875,197018.921875,222373.765625,210215.75,222823.125,179054.015625,-705770.125,181125.21875,0.005126953125,0.986083984375,-0.223876953125,-2.471923589706421,0.0,0.6713866591453552,86.66667175292969,139713.0,1.0
12:07:06.206780,202344.09375,197017.765625,222360.625,210208.875,222797.8125,179052.328125,-705772.4375,181112.796875,0.00341796875,0.986328125,-0.22412109375,-2.563476324081421,0.0,0.5798339247703552,86.66667175292969,139714.0,1.0
12:07:06.209228,202362.25,197027.859375,222369.203125,210210.65625,222828.390625,179065.015625,-705767.1875,181117.09375,0.003662109375,0.986572265625,-0.225830078125,-2.532958745956421,0.03051757626235485,0.6713866591453552,86.66667175292969,139715.0,1.0
12:07:06.209246,202365.546875,197025.1875,222375.8125,210211.46875,222852.796875,179064.21875,-705760.0,181121.828125,0.00537109375,0.988037109375,-0.22412109375,-2.532958745956421,0.1525878757238388,0.6713866591453552,86.66667175292969,139716.0,1.0
12:07:06.216822,202339.53125,197002.734375,222358.828125,210204.578125,222813.640625,179037.125,-705760.0,181113.0625,0.00390625,0.987060546875,-0.22509765625,-2.410888433456421,0.1525878757238388,0.6713866591453552,86.66667175292969,139717.0,1.0
12:07:06.220456,202331.390625,197000.859375,222349.796875,210203.0625,222788.4375,179031.84375,-705765.0625,181108.859375,0.003662109375,0.986572265625,-0.22314453125,-2.471923589706421,0.2441406100988388,0.6713866591453552,86.66667175292969,139718.0,1.0
12:07:06.220508,202350.4375,197016.59375,222358.109375,210204.21875,222815.609375,179051.15625,-705773.5,181111.09375,0.00244140625,0.983642578125,-0.222900390625,-2.502441167831421,0.3356933295726776,0.6103515028953552,86.66667175292969,139719.0,1.0
12:07:06.229857,202359.828125,197020.71875,222367.953125,210204.484375,222844.578125,179059.46875,-705773.5,181116.46875,0.001220703125,0.983154296875,-0.22216796875,-2.441406011581421,0.3051757514476776,0.6103515028953552,86.66667175292969,139720.0,1.0
12:07:06.237349,202340.78125,197000.15625,222357.84375,210204.84375,222816.765625,179034.171875,-705768.4375,181113.328125,0.00146484375,0.98388671875,-0.2216796875,-2.380370855331421,0.3967284858226776,0.6103515028953552,86.66667175292969,139721.0,1.0
12:07:06.237434,202323.265625,196986.015625,222341.3125,210200.28125,222778.59375,179016.921875,-705773.25,181103.859375,0.0,0.98388671875,-0.223876953125,-2.349853277206421,0.3662109076976776,0.5798339247703552,86.66667175292969,139722.0,1.0
12:07:06.237463,202336.859375,196996.296875,222344.609375,210201.71875,222795.5,179027.921875,-705782.9375,181104.65625,0.002197265625,0.9833984375,-0.224609375,-2.288818120956421,0.4577636420726776,0.4577636420726776,86.66667175292969,139723.0,1.0
12:07:06.239779,202353.75,197007.296875,222359.015625,210206.1875,222832.6875,179041.5,-705781.75,181114.671875,0.002197265625,0.98583984375,-0.22412109375,-2.166747808456421,0.3967284858226776,0.4882812201976776,86.66667175292969,139724.0,1.0
12:07:06.243544,202344.0,197000.78125,222359.1875,210208.0625,222821.78125,179033.28125,-705779.5,181116.8125,0.001220703125,0.984619140625,-0.223388671875,-2.105712652206421,0.4272460639476776,0.4882812201976776,86.66667175292969,139725.0,1.0
12:07:06.259277,202326.296875,196983.96875,222346.484375,210207.078125,222785.390625,179015.484375,-705781.75,181111.453125,0.00048828125,0.984130859375,-0.220703125,-2.136230230331421,0.3662109076976776,0.5187987685203552,86.66667175292969,139726.0,1.0
12:07:06.259295,202342.484375,196999.4375,222356.78125,210212.265625,222806.765625,179032.203125,-705785.0625,181117.625,-0.000732421875,0.982421875,-0.223388671875,-1.9836424589157104,0.3356933295726776,0.4882812201976776,86.66667175292969,139727.0,1.0
12:07:06.262382,202357.59375,197010.78125,222369.828125,210212.0,222845.46875,179046.6875,-705785.5,181124.515625,-0.000732421875,0.984619140625,-0.2216796875,-1.9531248807907104,0.3356933295726776,0.4272460639476776,86.66667175292969,139728.0,1.0
12:07:06.262410,202346.234375,197001.40625,222367.328125,210208.6875,222838.671875,179037.578125,-705778.5625,181121.5625,-0.003173828125,0.98291015625,-0.220947265625,-1.8615721464157104,0.3356933295726776,0.4577636420726776,86.66667175292969,139729.0,1.0
12:07:06.262421,202323.4375,196982.71875,222349.171875,210204.578125,222792.71875,179016.828125,-705773.625,181113.0625,-0.0009765625,0.984130859375,-0.222412109375,-1.8005369901657104,0.2746581733226776,0.5798339247703552,86.66667175292969,139730.0,1.0
12:07:06.266073,202327.90625,196991.125,222348.28125,210204.390625,222795.578125,179026.84375,-705772.1875,181111.8125,-0.00146484375,0.983154296875,-0.220947265625,-1.6784666776657104,0.3662109076976776,0.4577636420726776,86.66667175292969,139731.0,1.0
12:07:06.270009,202346.234375,197004.171875,222359.71875,210207.96875,222834.03125,179045.34375,-705771.75,181120.9375,-0.001953125,0.983642578125,-0.224609375,-1.6174315214157104,0.2746581733226776,0.4577636420726776,86.66667175292969,139732.0,1.0
12:07:06.280048,202336.140625,196997.28125,222357.046875,210201.0,222836.4375,179042.21875,-705777.3125,181117.359375,-0.001708984375,0.984619140625,-0.222412109375,-1.5563963651657104,0.1831054538488388,0.4882812201976776,86.66667175292969,139733.0,1.0
12:07:06.284347,202306.453125,196972.609375,222333.4375,210189.828125,222784.59375,179012.71875,-705779.0625,181103.671875,-0.000732421875,0.983154296875,-0.2236328125,-1.4343260526657104,0.1831054538488388,0.4272460639476776,86.66667175292969,139734.0,1.0
12:07:06.284393,202305.015625,196974.40625,222325.84375,210187.5,222774.296875,179016.46875,-705777.5625,181098.84375,-0.0009765625,0.98291015625,-0.221923828125,-1.3427733182907104,0.1831054538488388,0.4577636420726776,86.66667175292969,139735.0,1.0
12:07:06.291209,202324.515625,196988.4375,222338.71875,210190.8125,222813.375,179034.625,-705779.3125,181107.796875,-0.000244140625,0.98486328125,-0.221923828125,-1.4038084745407104,0.1220703050494194,0.4882812201976776,86.66667175292969,139736.0,1.0
12:07:06.310400,202322.8125,196984.6875,222341.21875,210188.125,222825.984375,179030.234375,-705780.875,181107.875,-0.00146484375,0.9833984375,-0.221435546875,-1.3732908964157104,0.0915527269244194,0.5798339247703552,86.66667175292969,139737.0,1.0
12:07:06.310411,202301.453125,196967.421875,222325.921875,210184.1875,222784.3125,179010.296875,-705779.6875,181099.75,-0.0029296875,0.984375,-0.22314453125,-1.3732908964157104,0.0,0.6408690810203552,86.66667175292969,139738.0,1.0
12:07:06.313502,202292.6875,196967.34375,222316.0,210178.65625,222764.46875,179010.5625,-705774.8125,181091.78125,-0.0009765625,0.986572265625,-0.221435546875,-1.2817381620407104,0.0610351525247097,0.6103515028953552,86.66667175292969,139739.0,1.0
12:07:06.313509,202313.34375,196981.734375,222326.375,210182.671875,222798.53125,179030.59375,-705758.25,181100.8125,0.0,0.98681640625,-0.220947265625,-1.3122557401657104,0.0610351525247097,0.7019042372703552,86.66667175292969,139740.0,1.0
12:07:06.313510,202316.5625,196979.765625,222331.828125,210181.328125,222820.265625,179033.546875,-705750.3125,181104.125,-0.000732421875,0.98779296875,-0.22314453125,-1.2817381620407104,0.0915527269244194,0.7019042372703552,86.66667175292969,139741.0,1.0
12:07:06.339240,202291.875,196957.234375,222315.921875,210171.9375,222781.453125,179007.703125,-705753.4375,181091.703125,-0.0009765625,0.987060546875,-0.22412109375,-1.2817381620407104,-0.0610351525247097,0.6713866591453552,86.66667175292969,139742.0,1.0
12:07:06.339253,202283.203125,196957.140625,222306.34375,210171.046875,222755.625,179005.65625,-705752.6875,181086.0625,-0.000244140625,0.98779296875,-0.225341796875,-1.2512205839157104,0.0,0.7324218153953552,86.66667175292969,139743.0,1.0
12:07:06.361117,202294.109375,196963.21875,222310.453125,210169.53125,222779.671875,179015.3125,-705747.875,181088.125,-0.000244140625,0.9873046875,-0.22509765625,-1.1901854276657104,-0.0610351525247097,0.7629393935203552,86.66667175292969,139744.0,1.0
12:07:06.363553,202295.28125,196957.5,222312.25,210164.4375,222802.109375,179013.078125,-705752.625,181087.5,0.000244140625,0.9853515625,-0.22216796875,-1.1596678495407104,0.03051757626235485,0.6713866591453552,86.66667175292969,139745.0,1.0
12:07:06.366126,202270.328125,196934.796875,222296.6875,210155.9375,222767.859375,178985.53125,-705767.375,181075.78125,0.00048828125,0.985595703125,-0.2236328125,-1.0986326932907104,-0.03051757626235485,0.6713866591453552,86.66667175292969,139746.0,1.0
12:07:06.368560,202256.03125,196926.484375,222283.453125,210152.625,222731.921875,178973.46875,-705777.1875,181066.21875,0.002685546875,0.98681640625,-0.221923828125,-1.1596678495407104,0.0,0.7629393935203552,86.66667175292969,139747.0,1.0
12:07:06.371085,202271.046875,196936.40625,222289.0,210154.953125,222752.21875,178987.859375,-705780.3125,181068.890625,0.002685546875,0.9892578125,-0.222900390625,-1.2512205839157104,-0.1220703050494194,0.8239745497703552,86.66667175292969,139748.0,1.0
12:07:06.373579,202285.4375,196944.53125,222300.359375,210158.171875,222786.375,178998.953125,-705778.6875,181076.9375,0.000732421875,0.989013671875,-0.22314453125,-1.1596678495407104,-0.1525878757238388,0.8544921278953552,86.66667175292969,139749.0,1.0
12:07:06.376051,202273.734375,196934.96875,222299.375,210156.5625,222773.5,178987.140625,-705777.625,181077.484375,0.000732421875,0.98779296875,-0.226806640625,-1.1901854276657104,-0.0610351525247097,0.7934569716453552,86.66667175292969,139750.0,1.0
12:07:06.378609,202267.921875,196934.25,222298.296875,210159.421875,222748.015625,178980.53125,-705770.5625,181082.9375,-0.0009765625,0.98876953125,-0.2265625,-1.2207030057907104,-0.0610351525247097,0.7934569716453552,86.66667175292969,139751.0,1.0
12:07:06.381142,202289.203125,196955.453125,222312.0625,210168.640625,222772.15625,179002.96875,-705766.125,181093.3125,0.00048828125,0.986572265625,-0.2255859375,-1.2512205839157104,-0.03051757626235485,0.8544921278953552,86.66667175292969,139752.0,1.0
12:07:06.383568,202312.53125,196971.09375,222330.671875,210175.96875,222815.4375,179023.53125,-705762.375,181107.15625,0.003173828125,0.98583984375,-0.225830078125,-1.2512205839157104,-0.1220703050494194,0.8239745497703552,86.66667175292969,139753.0,1.0
12:07:06.386128,202303.5,196962.15625,222330.671875,210176.0625,222811.671875,179013.609375,-705760.125,181107.25,0.00439453125,0.984375,-0.22509765625,-1.2817381620407104,-0.0915527269244194,0.8544921278953552,86.66667175292969,139754.0,1.0
12:07:06.388605,202284.109375,196947.84375,222315.28125,210174.0,222767.6875,178993.40625,-705758.0,181099.921875,0.0068359375,0.986572265625,-0.22607421875,-1.1596678495407104,-0.03051757626235485,0.8850097060203552,86.66667175292969,139755.0,1.0
12:07:06.391307,202291.4375,196956.25,222315.28125,210175.15625,222769.921875,179003.5,-705756.8125,181099.390625,0.006103515625,0.986572265625,-0.228271484375,-1.2512205839157104,0.0915527269244194,0.8239745497703552,86.66667175292969,139756.0,1.0
12:07:06.394235,202314.953125,196971.8125,222332.015625,210183.390625,222810.875,179023.265625,-705750.75,181111.984375,0.0078125,0.98681640625,-0.22802734375,-1.2207030057907104,0.1220703050494194,0.7934569716453552,86.66667175292969,139757.0,1.0
12:07:06.394240,202308.15625,196966.265625,222331.65625,210179.359375,222812.578125,179016.734375,-705746.4375,181109.21875,0.005859375,0.985595703125,-0.2275390625,-1.2512205839157104,0.1220703050494194,0.8239745497703552,86.66667175292969,139758.0,1.0
12:07:06.396635,202282.765625,196944.0,222310.734375,210170.6875,222763.671875,178990.0,-705757.1875,181095.71875,0.006103515625,0.984375,-0.22607421875,-1.2817381620407104,0.1831054538488388,0.7629393935203552,86.66667175292969,139759.0,1.0
12:07:06.396652,202283.390625,196951.421875,222306.53125,210169.703125,222755.4375,178996.0,-705755.5,181092.234375,0.004150390625,0.984375,-0.2265625,-1.2207030057907104,0.2441406100988388,0.7629393935203552,86.66667175292969,139760.0,1.0
12:07:06.398537,202297.421875,196961.4375,222314.21875,210166.671875,222790.21875,179010.296875,-705749.125,181096.34375,0.00341796875,0.98388671875,-0.22802734375,-1.1901854276657104,0.2746581733226776,0.8239745497703552,86.66667175292969,139761.0,1.0
12:07:06.401628,202292.78125,196956.078125,222315.203125,210157.109375,222803.0,179007.53125,-705745.75,181090.625,0.00146484375,0.98291015625,-0.228271484375,-1.1901854276657104,0.1831054538488388,0.8850097060203552,86.66667175292969,139762.0,1.0
12:07:06.401632,202269.890625,196937.203125,222300.265625,210152.359375,222762.765625,178986.25,-705754.25,181082.671875,0.00146484375,0.982177734375,-0.229248046875,-1.1291502714157104,0.3356933295726776,0.8239745497703552,86.66667175292969,139763.0,1.0
12:07:06.403567,202263.8125,196941.671875,222292.21875,210150.125,222744.890625,178989.109375,-705752.4375,181074.703125,0.002685546875,0.982177734375,-0.228515625,-1.1291502714157104,0.3967284858226776,0.7629393935203552,86.66667175292969,139764.0,1.0
12:07:06.406126,202278.734375,196948.375,222297.40625,210149.6875,222772.78125,179001.546875,-705746.8125,181078.28125,0.00439453125,0.983642578125,-0.23046875,-1.0681151151657104,0.3967284858226776,0.7934569716453552,86.66667175292969,139765.0,1.0
12:07:06.415454,202280.25,196947.84375,222301.609375,210144.859375,222792.28125,179007.0,-705748.5,181078.28125,0.005126953125,0.98486328125,-0.23046875,-1.0986326932907104,0.3662109076976776,0.8239745497703552,86.66667175292969,139766.0,1.0
12:07:06.415467,202255.21875,196924.15625,222286.671875,210139.84375,222755.796875,178980.703125,-705749.75,181070.859375,0.005615234375,0.986572265625,-0.22998046875,-0.9460448622703552,0.4882812201976776,0.7934569716453552,86.66667175292969,139767.0,1.0
12:07:06.417290,202244.765625,196919.421875,222275.5,210137.515625,222727.09375,178968.640625,-705756.75,181063.09375,0.007568359375,0.98876953125,-0.229736328125,-0.9460448622703552,0.4882812201976776,0.7629393935203552,86.66667175292969,139768.0,1.0
12:07:06.421096,202263.890625,196937.03125,222285.421875,210140.5625,222755.265625,178990.453125,-705758.75,181067.5625,0.00927734375,0.985595703125,-0.227294921875,-0.9155272841453552,0.5798339247703552,0.7934569716453552,86.66667175292969,139769.0,1.0
12:07:06.431678,202273.28125,196943.640625,222294.1875,210139.578125,222784.765625,179000.203125,-705750.9375,181070.78125,0.007568359375,0.983154296875,-0.22802734375,-0.9155272841453552,0.6103515028953552,0.7019042372703552,86.66667175292969,139770.0,1.0
12:07:06.431690,202255.140625,196925.3125,222284.359375,210134.84375,222758.75,178980.4375,-705748.5,181064.515625,0.006591796875,0.98388671875,-0.23095703125,-0.9155272841453552,0.6713866591453552,0.7019042372703552,86.66667175292969,139771.0,1.0
12:07:06.434171,202245.828125,196921.03125,222276.75,210135.734375,222728.703125,178972.65625,-705754.125,181061.03125,0.0048828125,0.9814453125,-0.230712890625,-0.8544921278953552,0.6713866591453552,0.5798339247703552,86.66667175292969,139772.0,1.0
12:07:06.434188,202263.09375,196935.859375,222284.984375,210140.03125,222751.6875,178989.375,-705752.0625,181065.5,0.0029296875,0.98095703125,-0.23046875,-0.7629393935203552,0.7019042372703552,0.5187987685203552,86.66667175292969,139773.0,1.0
12:07:06.443740,202282.140625,196949.1875,222300.453125,210146.015625,222790.671875,179004.3125,-705742.9375,181076.765625,0.0009765625,0.982177734375,-0.227783203125,-0.7629393935203552,0.8544921278953552,0.4577636420726776,86.66667175292969,139774.0,1.0
12:07:06.447866,202268.28125,196935.78125,222295.796875,210145.125,222775.109375,178987.765625,-705744.3125,181075.328125,-0.001953125,0.9833984375,-0.226318359375,-0.7019042372703552,0.7629393935203552,0.2136230319738388,86.66667175292969,139775.0,1.0
12:07:06.447873,202253.703125,196926.75,222285.875,210147.453125,222740.421875,178976.78125,-705739.5625,181074.984375,-0.003662109375,0.9853515625,-0.224609375,-0.7629393935203552,0.6103515028953552,-0.1220703050494194,86.66667175292969,139776.0,1.0
12:07:06.462360,202271.046875,196942.390625,222293.65625,210154.59375,222756.875,178994.75,-705734.4375,181080.96875,-0.006591796875,0.9873046875,-0.224365234375,-0.7934569716453552,0.4577636420726776,-0.2746581733226776,86.66667175292969,139777.0,1.0
12:07:06.465477,202297.421875,196960.71875,222312.0625,210164.4375,222800.5,179015.84375,-705733.5,181095.453125,-0.005615234375,0.98828125,-0.226318359375,-0.8850097060203552,0.4577636420726776,-0.3967284858226776,86.66667175292969,139778.0,1.0
12:07:06.465498,202287.140625,196950.625,222311.0,210163.71875,222794.515625,179005.65625,-705735.0,181095.546875,-0.005615234375,0.990234375,-0.22705078125,-0.9765624403953552,0.3051757514476776,-0.4882812201976776,86.66667175292969,139779.0,1.0
12:07:06.467438,202271.578125,196940.421875,222301.15625,210166.578125,222755.265625,178990.8125,-705737.9375,181093.21875,-0.005615234375,0.991943359375,-0.226318359375,-1.0070799589157104,0.2746581733226776,-0.6103515028953552,86.66667175292969,139780.0,1.0
12:07:06.469818,202282.21875,196954.375,222304.375,210169.796875,222758.484375,179002.703125,-705734.8125,181094.296875,-0.0048828125,0.994873046875,-0.226806640625,-1.1596678495407104,0.0915527269244194,-0.7019042372703552,86.66667175292969,139781.0,1.0
12:07:06.474159,202301.984375,196961.25,222315.203125,210170.953125,222794.875,179014.6875,-705729.4375,181101.171875,-0.001953125,0.993896484375,-0.22607421875,-1.2512205839157104,0.03051757626235485,-0.6408690810203552,86.66667175292969,139782.0,1.0
12:07:06.474177,202296.171875,196960.09375,222316.890625,210165.953125,222800.234375,179011.375,-705730.8125,181097.59375,-0.001953125,0.99560546875,-0.226318359375,-1.4038084745407104,-0.0610351525247097,-0.5493163466453552,86.66667175292969,139783.0,1.0
12:07:06.483536,202274.359375,196945.96875,222303.125,210163.625,222758.75,178994.390625,-705743.5,181092.859375,0.00146484375,0.995361328125,-0.22607421875,-1.5869139432907104,-0.0610351525247097,-0.4882812201976776,86.66667175292969,139784.0,1.0
12:07:06.487907,202276.234375,196951.15625,222297.859375,210161.03125,222751.140625,178999.390625,-705748.0625,181087.859375,0.001708984375,0.996826171875,-0.226318359375,-1.7395018339157104,-0.1220703050494194,-0.3662109076976776,86.66667175292969,139785.0,1.0
12:07:06.487914,202296.078125,196964.75,222309.03125,210162.734375,222787.625,179016.109375,-705750.125,181094.828125,0.0009765625,0.994384765625,-0.227783203125,-1.9226073026657104,-0.1831054538488388,-0.3967284858226776,86.66667175292969,139786.0,1.0
12:07:06.493572,202293.21875,196961.4375,222312.25,210157.8125,222801.484375,179015.3125,-705746.6875,181094.734375,0.001953125,0.99755859375,-0.22705078125,-1.9836424589157104,-0.1831054538488388,-0.2441406100988388,86.66667175292969,139787.0,1.0
12:07:06.504579,202268.1875,196940.875,222294.90625,210149.5,222759.375,178991.796875,-705743.3125,181085.078125,0.000732421875,0.99658203125,-0.2294921875,-2.197265386581421,-0.2136230319738388,0.0,86.66667175292969,139788.0,1.0
12:07:06.504695,202261.125,196945.078125,222285.34375,210144.3125,222738.8125,178993.84375,-705752.4375,181076.234375,-0.00048828125,0.99462890625,-0.224365234375,-2.380370855331421,-0.1220703050494194,0.0610351525247097,86.66667175292969,139789.0,1.0
12:07:06.506641,202280.078125,196959.109375,222294.28125,210145.5625,222772.15625,179013.515625,-705742.75,181081.765625,-0.0029296875,0.995361328125,-0.22314453125,-2.563476324081421,-0.1831054538488388,0.3662109076976776,86.66667175292969,139790.0,1.0
12:07:06.506649,202280.96875,196955.0,222295.890625,210140.921875,222789.5,179012.71875,-705739.3125,181079.265625,-0.004150390625,0.995849609375,-0.222900390625,-2.655029058456421,-0.2136230319738388,0.4882812201976776,86.66667175292969,139791.0,1.0
12:07:06.516058,202260.5,196935.953125,222282.125,210136.890625,222753.46875,178988.3125,-705739.125,181070.953125,-0.00341796875,0.992919921875,-0.221923828125,-2.746581792831421,-0.1525878757238388,0.5187987685203552,86.66667175292969,139792.0,1.0
12:07:06.518540,202246.46875,196928.09375,222268.890625,210131.078125,222724.859375,178981.25,-705750.1875,181061.484375,-0.005126953125,0.994384765625,-0.223388671875,-2.868652105331421,-0.2441406100988388,0.6408690810203552,86.66667175292969,139793.0,1.0
12:07:06.522323,202261.03125,196941.3125,222276.578125,210133.3125,222752.9375,179000.015625,-705748.875,181066.9375,-0.006103515625,0.99560546875,-0.2216796875,-2.929687261581421,-0.1831054538488388,0.7629393935203552,86.66667175292969,139794.0,1.0
12:07:06.533521,202272.203125,196949.09375,222286.59375,210135.28125,222784.9375,179010.03125,-705740.25,181074.265625,-0.007568359375,0.9921875,-0.220703125,-2.990722417831421,-0.2746581733226776,0.8544921278953552,86.66667175292969,139795.0,1.0
12:07:06.533593,202252.09375,196930.40625,222276.3125,210131.359375,222757.9375,178987.328125,-705742.4375,181068.8125,-0.008056640625,0.991455078125,-0.22021484375,-3.204345464706421,-0.3356933295726776,0.8239745497703552,86.66667175292969,139796.0,1.0
12:07:06.536559,202235.640625,196919.765625,222262.8125,210127.15625,222722.09375,178974.984375,-705755.8125,181061.203125,-0.0087890625,0.98974609375,-0.22119140625,-3.234863042831421,-0.5798339247703552,0.9460448622703552,86.66667175292969,139797.0,1.0
12:07:06.536627,202252.71875,196936.40625,222271.5625,210130.640625,222745.0625,178993.578125,-705755.5625,181066.21875,-0.009033203125,0.989501953125,-0.219970703125,-3.356933355331421,-0.6408690810203552,1.0681151151657104,86.66667175292969,139798.0,1.0
12:07:06.541719,202269.171875,196947.75,222285.96875,210133.9375,222782.890625,179009.59375,-705754.9375,181074.265625,-0.0068359375,0.9892578125,-0.2197265625,-3.417968511581421,-0.7324218153953552,1.0681151151657104,86.66667175292969,139799.0,1.0
12:07:06.552656,202260.40625,196937.65625,222285.6875,210134.484375,222771.265625,178993.9375,-705754.875,181073.546875,-0.00634765625,0.988525390625,-0.216064453125,-3.356933355331421,-0.8544921278953552,1.0681151151657104,86.66667175292969,139800.0,1.0
12:07:06.562260,202248.15625,196925.40625,222276.125,210135.734375,222733.625,178974.71875,-705754.6875,181070.0625,-0.003173828125,0.98876953125,-0.2197265625,-3.448486089706421,-0.7934569716453552,1.0681151151657104,86.66667175292969,139801.0,1.0
12:07:06.562271,202265.765625,196942.65625,222285.96875,210144.5,222752.125,178993.5,-705753.875,181077.5625,-0.0029296875,0.98828125,-0.22021484375,-3.448486089706421,-0.8544921278953552,1.0681151151657104,86.66667175292969,139802.0,1.0
12:07:06.562273,202289.28125,196958.125,222304.296875,210154.328125,222795.578125,179013.15625,-705755.625,181092.765625,-0.000732421875,0.986328125,-0.22216796875,-3.448486089706421,-0.8544921278953552,1.1901854276657104,86.66667175292969,139803.0,1.0
12:07:06.565463,202278.640625,196946.328125,222300.984375,210150.484375,222789.421875,178999.578125,-705756.625,181088.296875,0.0029296875,0.988037109375,-0.224609375,-3.479003667831421,-0.8239745497703552,1.1291502714157104,86.66667175292969,139804.0,1.0
12:07:06.565471,202261.75,196932.828125,222289.359375,210150.125,222749.53125,178982.3125,-705752.1875,181083.203125,0.00537109375,0.98779296875,-0.22021484375,-3.356933355331421,-0.7324218153953552,1.1291502714157104,86.66667175292969,139805.0,1.0
12:07:06.571069,202271.046875,196945.796875,222293.109375,210153.4375,222755.96875,178996.171875,-705743.9375,181084.8125,0.004638671875,0.987548828125,-0.218994140625,-3.326415777206421,-0.6103515028953552,1.2207030057907104,86.66667175292969,139806.0,1.0
12:07:06.577887,202295.90625,196964.46875,222309.5625,210160.859375,222798.265625,179017.1875,-705747.0,181095.984375,0.006103515625,0.988037109375,-0.22021484375,-3.356933355331421,-0.5187987685203552,1.3427733182907104,86.66667175292969,139807.0,1.0
12:07:06.577900,202288.21875,196956.34375,222308.859375,210155.578125,222801.125,179008.6875,-705761.625,181093.3125,0.008056640625,0.986328125,-0.219970703125,-3.295898199081421,-0.3967284858226776,1.4648436307907104,86.66667175292969,139808.0,1.0
12:07:06.579779,202271.765625,196943.546875,222301.609375,210157.90625,222765.359375,178992.875,-705766.375,181092.859375,0.00830078125,0.984619140625,-0.218017578125,-3.295898199081421,-0.3356933295726776,1.3427733182907104,86.66667175292969,139809.0,1.0
12:07:06.595458,202271.140625,196949.546875,222299.109375,210156.125,222758.75,179000.203125,-705773.5,181087.21875,0.0078125,0.98486328125,-0.2177734375,-3.265380620956421,-0.2746581733226776,1.2817381620407104,86.66667175292969,139810.0,1.0
12:07:06.595478,202291.171875,196962.15625,222310.015625,210157.28125,222795.21875,179016.828125,-705773.625,181091.875,0.009033203125,0.984619140625,-0.21875,-3.204345464706421,-0.1831054538488388,1.3122557401657104,86.66667175292969,139811.0,1.0
12:07:06.597876,202289.203125,196957.0625,222310.640625,210153.4375,222806.140625,179013.078125,-705772.1875,181090.984375,0.009521484375,0.98291015625,-0.21630859375,-3.051757574081421,0.0610351525247097,1.3732908964157104,86.66667175292969,139812.0,1.0
12:07:06.597883,202267.296875,196939.171875,222295.796875,210148.96875,222764.734375,178990.984375,-705769.0625,181084.8125,0.008544921875,0.98193359375,-0.218505859375,-2.960204839706421,0.1220703050494194,1.4038084745407104,86.66667175292969,139813.0,1.0
12:07:06.609164,202257.453125,196937.75,222284.0,210142.703125,222741.3125,178989.734375,-705759.6875,181076.234375,0.00634765625,0.9833984375,-0.2216796875,-2.868652105331421,0.3662109076976776,1.3732908964157104,86.66667175292969,139814.0,1.0
12:07:06.609173,202274.890625,196950.703125,222292.21875,210143.59375,222771.890625,179008.15625,-705757.25,181080.4375,0.005859375,0.9814453125,-0.219970703125,-2.868652105331421,0.4272460639476776,1.2817381620407104,86.66667175292969,139815.0,1.0
12:07:06.618046,202278.921875,196949.1875,222297.59375,210141.1875,222794.6875,179009.40625,-705756.4375,181082.75,0.007080078125,0.982177734375,-0.2197265625,-2.563476324081421,0.6408690810203552,1.3122557401657104,86.66667175292969,139816.0,1.0
12:07:06.618095,202256.921875,196932.734375,222285.0625,210138.421875,222761.078125,178987.328125,-705752.0,181077.125,0.00537109375,0.981201171875,-0.218994140625,-2.502441167831421,0.6408690810203552,1.1596678495407104,86.66667175292969,139817.0,1.0
12:07:06.620567,202249.6875,196929.421875,222275.0625,210138.234375,222734.609375,178981.15625,-705754.375,181071.40625,0.006103515625,0.98193359375,-0.218505859375,-2.349853277206421,0.7629393935203552,1.0986326932907104,86.66667175292969,139818.0,1.0
12:07:06.620637,202264.875,196941.9375,222279.890625,210136.0,222758.65625,178996.265625,-705762.0625,181070.5,0.00439453125,0.98095703125,-0.22119140625,-2.166747808456421,0.9460448622703552,0.9765624403953552,86.66667175292969,139819.0,1.0
12:07:06.628742,202277.125,196949.453125,222292.578125,210138.328125,222791.109375,179006.90625,-705762.4375,181076.40625,0.004150390625,0.981201171875,-0.218994140625,-2.136230230331421,0.9765624403953552,0.9460448622703552,86.66667175292969,139820.0,1.0
12:07:06.639210,202262.203125,196936.578125,222287.296875,210137.96875,222768.9375,178990.1875,-705762.6875,181074.0,0.006103515625,0.980712890625,-0.220703125,-1.8920897245407104,0.9765624403953552,0.8850097060203552,86.66667175292969,139821.0,1.0
12:07:06.639282,202253.4375,196934.875,222279.078125,210137.796875,222737.828125,178983.65625,-705764.3125,181069.4375,0.00439453125,0.981689453125,-0.218017578125,-1.7089842557907104,0.9155272841453552,0.8544921278953552,86.66667175292969,139822.0,1.0
12:07:06.642241,202268.8125,196948.5625,222284.625,210136.71875,222755.796875,178998.5,-705764.0625,181067.46875,0.004150390625,0.98095703125,-0.2197265625,-1.6784666776657104,0.9460448622703552,0.7324218153953552,86.66667175292969,139823.0,1.0
12:07:06.642268,202289.90625,196961.609375,222303.84375,210146.015625,222797.734375,179016.734375,-705758.25,181082.390625,0.00634765625,0.984130859375,-0.220947265625,-1.5563963651657104,1.1596678495407104,0.7324218153953552,86.66667175292969,139824.0,1.0
12:07:06.643737,202274.71875,196947.40625,222299.375,210143.25,222782.796875,179000.640625,-705758.6875,181079.0,0.005859375,0.98291015625,-0.219970703125,-1.4953612089157104,1.0986326932907104,0.7629393935203552,86.66667175292969,139825.0,1.0
12:07:06.680457,202256.203125,196935.0625,222283.8125,210137.703125,222741.484375,178984.46875,-705758.0625,181069.25,0.007080078125,0.98388671875,-0.224365234375,-1.3122557401657104,1.0986326932907104,0.6408690810203552,86.66667175292969,139826.0,1.0
12:07:06.680470,202271.234375,196952.765625,222291.234375,210142.171875,222758.03125,179002.4375,-705750.8125,181072.46875,0.005615234375,0.9833984375,-0.221923828125,-1.2512205839157104,1.1596678495407104,0.6408690810203552,86.66667175292969,139827.0,1.0
12:07:06.682999,202293.40625,196968.3125,222306.96875,210147.53125,222798.796875,179021.203125,-705748.5,181081.6875,0.0048828125,0.98095703125,-0.219970703125,-1.1596678495407104,1.1596678495407104,0.7019042372703552,86.66667175292969,139828.0,1.0
12:07:06.683017,202287.5,196960.359375,222309.203125,210147.359375,222796.828125,179013.703125,-705751.375,181082.125,0.00537109375,0.98095703125,-0.2216796875,-1.0986326932907104,1.2207030057907104,0.6103515028953552,86.66667175292969,139829.0,1.0
12:07:06.731718,202268.1875,196944.625,222295.984375,210145.125,222755.625,178993.3125,-705755.1875,181076.5,0.004150390625,0.9814453125,-0.2216796875,-0.9460448622703552,1.2207030057907104,0.6103515028953552,86.66667175292969,139830.0,1.0
12:07:06.731796,202275.15625,196954.46875,222295.796875,210147.890625,222757.3125,179002.34375,-705757.1875,181076.234375,0.004638671875,0.984130859375,-0.220947265625,-0.7629393935203552,1.1596678495407104,0.6103515028953552,86.66667175292969,139831.0,1.0
12:07:06.731822,202296.53125,196967.421875,222309.390625,210152.1875,222795.046875,179015.75,-705756.125,181085.890625,0.003173828125,0.984375,-0.224365234375,-0.6408690810203552,1.0986326932907104,0.4882812201976776,86.66667175292969,139832.0,1.0
12:07:06.731843,202296.0,196965.1875,222315.640625,210153.96875,222805.328125,179016.921875,-705759.5,181090.0,0.001708984375,0.985595703125,-0.220947265625,-0.5798339247703552,1.2512205839157104,0.5187987685203552,86.66667175292969,139833.0,1.0
12:07:06.733644,202276.328125,196949.640625,222303.3125,210153.890625,222765.625,178995.453125,-705762.0,181086.78125,0.003173828125,0.986083984375,-0.224365234375,-0.4577636420726776,1.1291502714157104,0.5493163466453552,86.66667175292969,139834.0,1.0
12:07:06.736170,202277.671875,196951.875,222302.328125,210156.125,222761.4375,178998.671875,-705758.875,181087.9375,0.001220703125,0.988037109375,-0.223388671875,-0.4882812201976776,1.1901854276657104,0.4272460639476776,86.66667175292969,139835.0,1.0
12:07:06.738634,202298.859375,196966.4375,222314.75,210161.921875,222800.765625,179019.0625,-705756.125,181098.21875,0.000244140625,0.986572265625,-0.22412109375,-0.5187987685203552,1.1596678495407104,0.3051757514476776,86.66667175292969,139836.0,1.0
12:07:06.741114,202295.71875,196966.796875,222316.1875,210156.390625,222813.828125,179022.1875,-705756.5625,181096.171875,-0.000244140625,0.986572265625,-0.22216796875,-0.5493163466453552,1.0070799589157104,0.2136230319738388,86.66667175292969,139837.0,1.0
12:07:06.743722,202273.8125,196949.984375,222302.953125,210152.359375,222774.296875,179002.53125,-705758.6875,181089.640625,-0.00048828125,0.98828125,-0.224365234375,-0.4577636420726776,0.9155272841453552,0.2136230319738388,86.66667175292969,139838.0,1.0
12:07:06.746123,202270.6875,196954.109375,222298.65625,210153.078125,222759.828125,179006.09375,-705769.25,181087.859375,-0.001708984375,0.988525390625,-0.22216796875,-0.4577636420726776,0.7934569716453552,0.1831054538488388,86.66667175292969,139839.0,1.0
12:07:06.748736,202286.515625,196963.3125,222304.03125,210151.203125,222787.71875,179020.140625,-705757.375,181088.828125,-0.003662109375,0.987060546875,-0.22119140625,-0.4577636420726776,0.5798339247703552,0.1525878757238388,86.66667175292969,139840.0,1.0
12:07:06.751311,202291.171875,196963.21875,222307.875,210146.375,222807.203125,179023.71875,-705745.125,181087.40625,-0.00341796875,0.98779296875,-0.222412109375,-0.4272460639476776,0.4882812201976776,0.1831054538488388,86.66667175292969,139841.0,1.0
12:07:06.753778,202271.234375,196945.078125,222296.875,210144.9375,222774.125,179000.734375,-705757.1875,181083.375,-0.00634765625,0.986083984375,-0.2236328125,-0.3967284858226776,0.4577636420726776,0.1525878757238388,86.66667175292969,139842.0,1.0
12:07:06.756117,202258.625,196939.0,222284.171875,210140.65625,222743.8125,178991.53125,-705762.0625,181074.984375,-0.003662109375,0.9853515625,-0.22265625,-0.3356933295726776,0.2746581733226776,0.1831054538488388,86.66667175292969,139843.0,1.0
12:07:06.759030,202277.390625,196954.46875,222292.671875,210142.796875,222771.0,179008.78125,-705762.0625,181079.0,-0.00439453125,0.986083984375,-0.223388671875,-0.3662109076976776,0.2136230319738388,0.1220703050494194,86.66667175292969,139844.0,1.0
12:07:06.761305,202288.390625,196961.4375,222302.421875,210142.4375,222801.65625,179019.421875,-705759.6875,181083.203125,-0.003662109375,0.985595703125,-0.222412109375,-0.4577636420726776,0.1220703050494194,0.1220703050494194,86.66667175292969,139845.0,1.0
12:07:06.763677,202266.125,196941.9375,222291.328125,210136.890625,222775.015625,178998.859375,-705770.3125,181075.15625,-0.004638671875,0.985107421875,-0.219970703125,-0.4272460639476776,0.03051757626235485,0.1220703050494194,86.66667175292969,139846.0,1.0
12:07:06.766195,202250.75,196930.140625,222277.65625,210131.796875,222737.296875,178981.609375,-705768.1875,181064.96875,-0.003173828125,0.986328125,-0.2216796875,-0.4272460639476776,-0.2441406100988388,0.0610351525247097,86.66667175292969,139847.0,1.0
12:07:06.769402,202269.703125,196948.203125,222287.296875,210136.625,222759.640625,179001.546875,-705765.0625,181068.625,-0.003173828125,0.986328125,-0.220947265625,-0.4577636420726776,-0.2746581733226776,0.0915527269244194,86.66667175292969,139848.0,1.0
12:07:06.771113,202284.546875,196956.96875,222298.21875,210137.15625,222793.265625,179014.765625,-705765.1875,181074.34375,-0.001953125,0.98828125,-0.221923828125,-0.5187987685203552,-0.3356933295726776,0.0,86.66667175292969,139849.0,1.0
12:07:06.774891,202269.703125,196943.546875,222292.40625,210134.21875,222776.546875,178999.21875,-705767.0,181070.78125,-0.00146484375,0.989501953125,-0.22216796875,-0.6103515028953552,-0.4882812201976776,0.03051757626235485,86.66667175292969,139850.0,1.0
12:07:06.775697,202254.515625,196933.71875,222280.78125,210133.765625,222737.921875,178981.6875,-705766.9375,181064.609375,-0.001220703125,0.991455078125,-0.2216796875,-0.7324218153953552,-0.5493163466453552,0.1525878757238388,86.66667175292969,139851.0,1.0
12:07:06.775765,202265.0625,196945.25,222283.546875,210133.859375,222748.375,178993.671875,-705765.8125,181063.71875,-0.00146484375,0.99169921875,-0.224609375,-0.7934569716453552,-0.5798339247703552,0.2746581733226776,86.66667175292969,139852.0,1.0
12:07:06.777962,202284.453125,196954.640625,222296.875,210136.71875,222786.90625,179006.90625,-705772.0,181072.65625,-0.001953125,0.992431640625,-0.22607421875,-0.9765624403953552,-0.5798339247703552,0.2746581733226776,86.66667175292969,139853.0,1.0
12:07:06.778018,202275.25,196945.703125,222295.796875,210135.375,222782.890625,178996.984375,-705770.3125,181071.3125,-0.0009765625,0.99267578125,-0.225830078125,-1.0070799589157104,-0.7019042372703552,0.3356933295726776,86.66667175292969,139854.0,1.0
12:07:06.780515,202253.078125,196928.4375,222278.984375,210131.53125,222738.546875,178974.625,-705774.0625,181062.8125,-0.000732421875,0.99462890625,-0.2236328125,-1.0681151151657104,-0.7324218153953552,0.3051757514476776,86.66667175292969,139855.0,1.0
12:07:06.780590,202259.96875,196938.8125,222279.265625,210132.609375,222741.765625,178983.75,-705782.0,181061.296875,-0.001708984375,0.993408203125,-0.225830078125,-1.1901854276657104,-0.6408690810203552,0.3356933295726776,86.66667175292969,139856.0,1.0
12:07:06.782490,202283.390625,196955.359375,222294.1875,210138.0625,222782.796875,179003.328125,-705769.4375,181072.46875,-0.000244140625,0.993408203125,-0.22802734375,-1.2817381620407104,-0.6408690810203552,0.4577636420726776,86.66667175292969,139857.0,1.0
12:07:06.785518,202279.625,196950.53125,222297.765625,210137.96875,222790.578125,179000.640625,-705773.25,181075.875,-0.000732421875,0.993408203125,-0.231201171875,-1.4648436307907104,-0.6103515028953552,0.5187987685203552,86.66667175292969,139858.0,1.0
12:07:06.785604,202260.234375,196935.328125,222284.796875,210136.1875,222750.171875,178980.53125,-705775.6875,181072.390625,0.001220703125,0.9921875,-0.227294921875,-1.5258787870407104,-0.6408690810203552,0.4272460639476776,86.66667175292969,139859.0,1.0
12:07:06.787507,202264.34375,196944.09375,222284.171875,210139.40625,222744.984375,178990.453125,-705768.8125,181073.453125,0.00146484375,0.989013671875,-0.2275390625,-1.6174315214157104,-0.6713866591453552,0.4882812201976776,86.66667175292969,139860.0,1.0
12:07:06.790556,202287.765625,196961.875,222298.21875,210144.046875,222783.6875,179013.703125,-705769.0,181081.140625,-0.001220703125,0.990478515625,-0.22802734375,-1.6479490995407104,-0.7019042372703552,0.5187987685203552,86.66667175292969,139861.0,1.0
12:07:06.790626,202287.59375,196958.3125,222300.8125,210143.0625,222797.109375,179009.40625,-705764.6875,181082.9375,0.000732421875,0.9912109375,-0.228515625,-1.6784666776657104,-0.7324218153953552,0.5798339247703552,86.66667175292969,139862.0,1.0
12:07:06.804969,202266.671875,196939.265625,222288.828125,210141.8125,222757.234375,178985.890625,-705767.4375,181078.828125,0.002197265625,0.988525390625,-0.227783203125,-1.8310545682907104,-0.6713866591453552,0.6408690810203552,86.66667175292969,139863.0,1.0
12:07:06.808146,202264.34375,196942.125,222283.640625,210142.625,222740.421875,178988.390625,-705775.6875,181074.625,0.002685546875,0.98974609375,-0.227294921875,-1.9531248807907104,-0.6408690810203552,0.5493163466453552,86.66667175292969,139864.0,1.0
12:07:06.808212,202287.140625,196959.921875,222296.421875,210149.859375,222776.890625,179010.84375,-705769.25,181083.921875,0.00146484375,0.987548828125,-0.22705078125,-2.075195074081421,-0.7324218153953552,0.4882812201976776,86.66667175292969,139865.0,1.0
12:07:06.809975,202290.53125,196962.421875,222302.140625,210147.0,222799.34375,179018.4375,-705756.5625,181085.078125,0.0029296875,0.9892578125,-0.22607421875,-2.136230230331421,-0.6408690810203552,0.6103515028953552,86.66667175292969,139866.0,1.0
12:07:06.812398,202263.625,196935.78125,222284.625,210136.890625,222759.640625,178990.90625,-705766.125,181073.71875,0.00244140625,0.98876953125,-0.224853515625,-2.166747808456421,-0.6408690810203552,0.4577636420726776,86.66667175292969,139867.0,1.0
12:07:06.828015,202253.25,196932.28125,222273.0,210133.140625,222731.03125,178982.140625,-705774.875,181065.671875,0.002197265625,0.98974609375,-0.223876953125,-2.258300542831421,-0.5798339247703552,0.5187987685203552,86.66667175292969,139868.0,1.0
12:07:06.833054,202272.03125,196949.015625,222281.046875,210137.15625,222758.21875,179002.171875,-705768.375,181070.421875,0.005126953125,0.9892578125,-0.22509765625,-2.258300542831421,-0.5493163466453552,0.4577636420726776,86.66667175292969,139869.0,1.0
12:07:06.833124,202281.953125,196950.171875,222288.828125,210137.15625,222786.640625,179008.15625,-705766.75,181074.53125,0.006591796875,0.989501953125,-0.227783203125,-2.380370855331421,-0.4882812201976776,0.4882812201976776,86.66667175292969,139870.0,1.0
12:07:06.834978,202262.375,196934.609375,222278.984375,210134.125,222760.53125,178990.625,-705772.5625,181069.34375,0.006103515625,0.990478515625,-0.228271484375,-2.441406011581421,-0.3662109076976776,0.6103515028953552,86.66667175292969,139871.0,1.0
12:07:06.837515,202248.421875,196926.75,222266.921875,210132.421875,222726.109375,178979.640625,-705774.0,181063.359375,0.006591796875,0.989501953125,-0.22509765625,-2.471923589706421,-0.3967284858226776,0.5493163466453552,86.66667175292969,139872.0,1.0
12:07:06.839998,202260.859375,196937.75,222271.84375,210132.78125,222744.703125,178993.5,-705766.8125,181064.609375,0.005859375,0.989990234375,-0.227783203125,-2.563476324081421,-0.2441406100988388,0.4882812201976776,86.66667175292969,139873.0,1.0
12:07:06.844382,202274.0,196944.890625,222282.03125,210131.0,222778.953125,179004.046875,-705763.625,181067.203125,0.0048828125,0.98828125,-0.2265625,-2.563476324081421,-0.2136230319738388,0.4577636420726776,86.66667175292969,139874.0,1.0
12:07:06.844456,202262.375,196933.359375,222278.1875,210127.0625,222765.09375,178990.71875,-705772.375,181061.828125,0.0068359375,0.98876953125,-0.225830078125,-2.624511480331421,-0.2136230319738388,0.3662109076976776,86.66667175292969,139875.0,1.0
12:07:06.850066,202249.6875,196928.0,222266.5625,210125.265625,222727.28125,178979.1875,-705779.5,181054.0625,0.00732421875,0.98828125,-0.224365234375,-2.624511480331421,-0.0915527269244194,0.4272460639476776,86.66667175292969,139876.0,1.0
12:07:06.860495,202263.1875,196946.421875,222273.890625,210129.65625,222742.921875,178997.34375,-705779.3125,181056.65625,0.0048828125,0.988525390625,-0.22509765625,-2.685546636581421,0.0610351525247097,0.3662109076976776,86.66667175292969,139877.0,1.0
12:07:06.860571,202282.84375,196958.9375,222289.546875,210132.96875,222784.765625,179015.484375,-705777.3125,181066.390625,0.00439453125,0.9873046875,-0.228271484375,-2.746581792831421,0.03051757626235485,0.3967284858226776,86.66667175292969,139878.0,1.0
12:07:06.866834,202276.59375,196948.375,222291.421875,210133.59375,222783.25,179003.328125,-705777.625,181067.5625,0.0029296875,0.986083984375,-0.225341796875,-2.624511480331421,0.0610351525247097,0.3356933295726776,86.66667175292969,139879.0,1.0
12:07:06.866920,202258.078125,196935.859375,222279.265625,210130.90625,222741.21875,178985.71875,-705774.9375,181061.03125,0.0029296875,0.985595703125,-0.22412109375,-2.593993902206421,0.1831054538488388,0.3356933295726776,86.66667175292969,139880.0,1.0
12:07:06.873038,202265.5,196946.5,222280.78125,210132.6875,222744.796875,178997.515625,-705768.1875,181060.140625,0.001953125,0.984375,-0.222412109375,-2.593993902206421,0.2746581733226776,0.3356933295726776,86.66667175292969,139881.0,1.0
12:07:06.873118,202287.046875,196961.25,222293.734375,210137.078125,222784.40625,179014.59375,-705767.375,181069.25,0.0009765625,0.9853515625,-0.218994140625,-2.716064214706421,0.2136230319738388,0.3051757514476776,86.66667175292969,139882.0,1.0
12:07:06.880207,202282.5,196955.453125,222295.625,210133.3125,222789.765625,179009.765625,-705772.375,181067.5625,0.001708984375,0.98583984375,-0.22119140625,-2.624511480331421,0.1831054538488388,0.2746581733226776,86.66667175292969,139883.0,1.0
12:07:06.886007,202261.84375,196939.796875,222284.4375,210132.78125,222749.890625,178989.828125,-705765.8125,181066.03125,0.0009765625,0.985595703125,-0.221923828125,-2.593993902206421,0.2441406100988388,0.2746581733226776,86.66667175292969,139884.0,1.0
12:07:06.886649,202263.8125,196948.203125,222283.015625,210133.671875,222744.0,178997.78125,-705767.0,181065.5,0.0,0.987060546875,-0.223876953125,-2.655029058456421,0.2746581733226776,0.2746581733226776,86.66667175292969,139885.0,1.0
12:07:06.889437,202286.875,196962.59375,222296.953125,210139.40625,222783.0625,179014.328125,-705767.0,181075.25,-0.00146484375,0.98828125,-0.221923828125,-2.593993902206421,0.2746581733226776,0.2746581733226776,86.66667175292969,139886.0,1.0
12:07:06.889452,202285.796875,196961.078125,222300.0,210135.375,222797.1875,179014.953125,-705761.375,181074.078125,-0.001708984375,0.98583984375,-0.22119140625,-2.563476324081421,0.2441406100988388,0.3662109076976776,86.66667175292969,139887.0,1.0
12:07:06.895013,202265.6875,196948.203125,222289.546875,210134.03125,222760.984375,178997.515625,-705760.5,181069.34375,-0.000732421875,0.989013671875,-0.22021484375,-2.593993902206421,0.2136230319738388,0.3662109076976776,86.66667175292969,139888.0,1.0
12:07:06.905142,202260.40625,196946.234375,222282.203125,210133.046875,222742.03125,178995.375,-705765.5,181064.609375,-0.001708984375,0.987060546875,-0.219970703125,-2.532958745956421,0.2136230319738388,0.3967284858226776,86.66667175292969,139889.0,1.0
12:07:06.909160,202283.921875,196963.40625,222295.984375,210139.40625,222775.828125,179015.671875,-705758.9375,181075.328125,-0.001220703125,0.987060546875,-0.218505859375,-2.563476324081421,0.1831054538488388,0.3967284858226776,86.66667175292969,139890.0,1.0
12:07:06.909197,202288.21875,196966.53125,222304.375,210137.609375,222799.78125,179020.40625,-705753.875,181079.890625,-0.001220703125,0.988037109375,-0.2197265625,-2.532958745956421,0.1220703050494194,0.4272460639476776,86.66667175292969,139891.0,1.0
12:07:06.914841,202269.078125,196949.09375,222295.265625,210137.078125,222770.109375,179001.359375,-705764.5625,181077.296875,-0.001953125,0.989013671875,-0.218994140625,-2.655029058456421,0.03051757626235485,0.6103515028953552,86.66667175292969,139892.0,1.0
12:07:06.921829,202263.359375,196950.53125,222288.46875,210139.40625,222745.515625,178998.671875,-705770.3125,181074.0,-0.0009765625,0.98876953125,-0.21923828125,-2.593993902206421,0.0915527269244194,0.4577636420726776,86.66667175292969,139893.0,1.0
12:07:06.921904,202282.765625,196965.28125,222296.78125,210141.546875,222773.046875,179015.671875,-705766.75,181078.28125,-0.00244140625,0.989501953125,-0.217529296875,-2.593993902206421,-0.03051757626235485,0.5798339247703552,86.66667175292969,139894.0,1.0
12:07:06.941127,202295.640625,196974.40625,222307.875,210143.421875,222806.140625,179029.25,-705760.5,181084.359375,-0.002197265625,0.989501953125,-0.218505859375,-2.502441167831421,0.0,0.5798339247703552,86.66667175292969,139895.0,1.0
12:07:06.941139,202276.859375,196960.09375,222301.078125,210140.46875,222784.859375,179014.859375,-705757.4375,181081.140625,-0.001220703125,0.98974609375,-0.216552734375,-2.563476324081421,0.0,0.5798339247703552,86.66667175292969,139896.0,1.0
12:07:06.941141,202259.96875,196949.8125,222287.03125,210135.28125,222749.71875,179006.453125,-705755.5625,181073.546875,0.000244140625,0.988525390625,-0.218017578125,-2.471923589706421,-0.0610351525247097,0.6713866591453552,86.66667175292969,139897.0,1.0
12:07:06.944221,202262.375,196949.359375,222278.984375,210125.265625,222755.53125,179009.234375,-705757.0,181064.421875,-0.0009765625,0.988037109375,-0.219970703125,-2.563476324081421,-0.1220703050494194,0.7019042372703552,86.66667175292969,139898.0,1.0
