Timestamp,Fz,FC3,FCz,FC4,Cz,C3,C4
12:03:55.039375,202431.625,197429.578125,227643.5,213844.875,226528.765625,178367.828125,-705644.9375,182721.3125,0.004638671875,0.984619140625,-0.232666015625,-2.227782964706421,-0.3662109076976776,1.0375975370407104,93.33334350585938,91886.0,1.0
12:03:55.042505,202429.125,197427.421875,227646.09375,213840.3125,226539.40625,178367.375,-705645.5625,182720.515625,0.0048828125,0.9853515625,-0.23095703125,-2.166747808456421,-0.2441406100988388,0.9155272841453552,93.33334350585938,91887.0,1.0
12:03:55.042511,202413.109375,197409.359375,227633.390625,213837.546875,226506.78125,178347.625,-705646.125,182713.359375,0.005859375,0.9833984375,-0.232421875,-2.136230230331421,-0.1220703050494194,1.0070799589157104,93.33334350585938,91888.0,1.0
12:03:55.044426,202414.375,197414.734375,227633.125,213842.1875,226495.609375,178352.0,-705644.3125,182713.359375,0.002685546875,0.9794921875,-0.23193359375,-2.075195074081421,-0.0915527269244194,0.9765624403953552,93.33334350585938,91889.0,1.0
12:03:55.055144,202434.125,197430.375,227645.828125,213847.015625,226526.265625,178368.625,-705645.0625,182720.6875,0.00341796875,0.9794921875,-0.232666015625,-2.075195074081421,-0.0915527269244194,0.9460448622703552,93.33334350585938,91890.0,1.0
12:03:55.055156,202437.34375,197434.40625,227653.0625,213843.984375,226545.140625,178374.625,-705646.5625,182723.375,0.005615234375,0.978515625,-0.2314453125,-1.9531248807907104,0.03051757626235485,1.0681151151657104,93.33334350585938,91891.0,1.0
12:03:55.057466,202424.375,197419.921875,227644.84375,213843.984375,226518.21875,178357.453125,-705649.25,182722.921875,0.005615234375,0.978759765625,-0.233642578125,-1.7089842557907104,0.2136230319738388,1.0375975370407104,93.33334350585938,91892.0,1.0
12:03:55.057473,202418.921875,197415.890625,227637.5,213842.71875,226496.578125,178348.953125,-705645.0625,182719.171875,0.007080078125,0.980712890625,-0.233642578125,-1.5869139432907104,0.2441406100988388,0.9765624403953552,93.33334350585938,91893.0,1.0
12:03:55.068254,202434.390625,197429.84375,227645.828125,213847.640625,226520.546875,178364.609375,-705644.0625,182722.296875,0.008544921875,0.981689453125,-0.234375,-1.3732908964157104,0.2746581733226776,0.9460448622703552,93.33334350585938,91894.0,1.0
12:03:55.074894,202441.453125,197436.71875,227655.390625,213849.078125,226545.3125,178373.015625,-705639.6875,182725.703125,0.011474609375,0.98046875,-0.235595703125,-1.2817381620407104,0.3967284858226776,0.9155272841453552,93.33334350585938,91895.0,1.0
12:03:55.074917,202431.625,197423.578125,227650.109375,213849.515625,226525.203125,178357.265625,-705637.0,182723.109375,0.01318359375,0.978271484375,-0.235107421875,-1.1596678495407104,0.6103515028953552,0.8239745497703552,93.33334350585938,91896.0,1.0
12:03:55.075668,202422.859375,197416.96875,227641.53125,213850.140625,226497.484375,178349.140625,-705636.5,182720.328125,0.010986328125,0.978515625,-0.234619140625,-1.0375975370407104,0.6103515028953552,0.9460448622703552,93.33334350585938,91897.0,1.0
12:03:55.085829,202434.03125,197429.75,227645.734375,213851.484375,226513.75,178363.984375,-705639.4375,182721.40625,0.010009765625,0.978271484375,-0.23388671875,-0.8850097060203552,0.8850097060203552,0.8239745497703552,93.33334350585938,91898.0,1.0
12:03:55.088752,202442.53125,197437.625,227652.96875,213850.6875,226541.015625,178373.8125,-705638.6875,182725.515625,0.009033203125,0.976806640625,-0.236572265625,-0.7629393935203552,0.9765624403953552,0.7019042372703552,93.33334350585938,91899.0,1.0
12:03:55.088785,202428.40625,197423.9375,227646.53125,213847.46875,226526.625,178360.484375,-705644.8125,182721.765625,0.007568359375,0.978759765625,-0.23876953125,-0.6103515028953552,0.9155272841453552,0.5798339247703552,93.33334350585938,91900.0,1.0
12:03:55.091970,202415.53125,197412.9375,227635.625,213844.78125,226495.421875,178347.625,-705650.125,182717.46875,0.004150390625,0.97900390625,-0.236083984375,-0.4577636420726776,1.0070799589157104,0.4272460639476776,93.33334350585938,91901.0,1.0
12:03:55.102688,202426.703125,197428.859375,227641.4375,213848.0,226509.375,178364.96875,-705648.6875,182719.625,0.001708984375,0.97998046875,-0.232421875,-0.3662109076976776,1.0681151151657104,0.3356933295726776,93.33334350585938,91902.0,1.0
12:03:55.102777,202442.171875,197439.578125,227654.234375,213851.046875,226541.921875,178377.921875,-705645.4375,182727.21875,0.00146484375,0.983154296875,-0.233154296875,-0.3051757514476776,1.0986326932907104,0.2136230319738388,93.33334350585938,91903.0,1.0
12:03:55.104662,202435.828125,197432.15625,227654.859375,213849.96875,226539.234375,178371.046875,-705644.5,182726.6875,-0.002685546875,0.98681640625,-0.23486328125,-0.5187987685203552,0.9765624403953552,0.0,93.33334350585938,91904.0,1.0
12:03:55.108264,202424.46875,197419.921875,227645.46875,213849.78125,226506.953125,178356.015625,-705638.6875,182724.0,-0.002685546875,0.98779296875,-0.232421875,-0.6103515028953552,0.9765624403953552,-0.2136230319738388,93.33334350585938,91905.0,1.0
12:03:55.124040,202429.75,197425.71875,227646.1875,213850.328125,226509.015625,178360.671875,-705642.9375,182723.28125,-0.002685546875,0.98974609375,-0.234375,-0.7019042372703552,0.8544921278953552,-0.3662109076976776,93.33334350585938,91906.0,1.0
12:03:55.124120,202449.59375,197439.5,227660.03125,213857.75,226544.0625,178377.125,-705642.125,182734.109375,-0.002197265625,0.990234375,-0.231689453125,-0.7934569716453552,0.8850097060203552,-0.4882812201976776,93.33334350585938,91907.0,1.0
12:03:55.126573,202440.390625,197429.75,227657.71875,213852.109375,226543.703125,178368.890625,-705648.6875,182728.734375,-0.00146484375,0.990478515625,-0.23388671875,-0.9460448622703552,0.7934569716453552,-0.5493163466453552,93.33334350585938,91908.0,1.0
12:03:55.126655,202424.5625,197412.9375,227645.90625,213848.890625,226510.171875,178350.75,-705649.4375,182726.328125,-0.000244140625,0.990234375,-0.23291015625,-1.0375975370407104,0.7019042372703552,-0.5187987685203552,93.33334350585938,91909.0,1.0
12:03:55.128632,202425.546875,197420.0,227643.765625,213850.328125,226504.625,178356.921875,-705642.3125,182726.59375,0.00146484375,0.99267578125,-0.236328125,-1.1901854276657104,0.6408690810203552,-0.4577636420726776,93.33334350585938,91910.0,1.0
12:03:55.131970,202440.75,197433.140625,227652.625,213853.71875,226534.84375,178372.828125,-705647.1875,182733.921875,0.00048828125,0.99072265625,-0.23779296875,-1.3122557401657104,0.6103515028953552,-0.4882812201976776,93.33334350585938,91911.0,1.0
12:03:55.147787,202435.109375,197429.125,227651.453125,213846.5625,226541.203125,178372.109375,-705648.0,182729.984375,0.0009765625,0.9921875,-0.232421875,-1.4343260526657104,0.5798339247703552,-0.4577636420726776,93.33334350585938,91912.0,1.0
12:03:55.147899,202416.609375,197407.9375,227637.59375,213843.078125,226506.234375,178347.625,-705646.6875,182725.875,-0.000732421875,0.994384765625,-0.235107421875,-1.5869139432907104,0.5798339247703552,-0.3662109076976776,93.33334350585938,91913.0,1.0
12:03:55.150178,202412.671875,197407.75,227631.515625,213842.28125,226492.296875,178344.484375,-705645.25,182724.09375,0.00048828125,0.99609375,-0.23583984375,-1.7395018339157104,0.4882812201976776,-0.1525878757238388,93.33334350585938,91914.0,1.0
12:03:55.150209,202429.828125,197423.21875,227641.171875,213847.28125,226522.25,178362.453125,-705643.1875,182731.0625,-0.00048828125,0.996826171875,-0.235595703125,-1.9531248807907104,0.3967284858226776,-0.0915527269244194,93.33334350585938,91915.0,1.0
12:03:55.152026,202432.515625,197426.53125,227647.25,213846.5625,226540.3125,178367.5625,-705640.875,182732.5,-0.001220703125,0.996826171875,-0.234375,-2.044677495956421,0.4882812201976776,0.0610351525247097,93.33334350585938,91916.0,1.0
12:03:55.155705,202416.609375,197409.546875,227638.21875,213845.765625,226513.296875,178348.953125,-705638.5,182729.8125,-0.0009765625,0.99462890625,-0.232666015625,-2.227782964706421,0.3662109076976776,0.1220703050494194,93.33334350585938,91917.0,1.0
12:03:55.166278,202409.453125,197405.96875,227631.34375,213843.984375,226490.859375,178343.59375,-705638.4375,182725.15625,-0.002685546875,0.994140625,-0.233154296875,-2.380370855331421,0.3356933295726776,0.2441406100988388,93.33334350585938,91918.0,1.0
12:03:55.166306,202425.453125,197422.234375,227641.359375,213845.765625,226516.515625,178362.546875,-705639.6875,182729.453125,-0.004150390625,0.994140625,-0.23095703125,-2.532958745956421,0.2136230319738388,0.3662109076976776,93.33334350585938,91919.0,1.0
12:03:55.168786,202432.515625,197427.875,227647.875,213842.8125,226541.015625,178367.734375,-705646.1875,182731.0625,-0.005126953125,0.995849609375,-0.23193359375,-2.624511480331421,0.0610351525247097,0.4882812201976776,93.33334350585938,91920.0,1.0
12:03:55.168853,202420.359375,197414.109375,227642.421875,213844.609375,226522.15625,178353.15625,-705644.6875,182730.890625,-0.007080078125,0.994384765625,-0.229736328125,-2.807616949081421,0.03051757626235485,0.4577636420726776,93.33334350585938,91921.0,1.0
12:03:55.175642,202409.71875,197405.78125,227632.046875,213842.546875,226491.75,178342.875,-705639.625,182724.890625,-0.007080078125,0.9921875,-0.2294921875,-2.990722417831421,-0.1220703050494194,0.6103515028953552,93.33334350585938,91922.0,1.0
12:03:55.186257,202420.71875,197417.59375,227634.375,213843.265625,226506.59375,178356.921875,-705641.5625,182724.890625,-0.007568359375,0.992431640625,-0.22900390625,-3.173827886581421,-0.2746581733226776,0.7324218153953552,93.33334350585938,91923.0,1.0
12:03:55.186284,202430.640625,197425.453125,227643.046875,213843.53125,226535.828125,178366.921875,-705648.25,182728.46875,-0.00927734375,0.991943359375,-0.230712890625,-3.295898199081421,-0.3051757514476776,0.8850097060203552,93.33334350585938,91924.0,1.0
12:03:55.188222,202417.765625,197413.125,227637.421875,213839.859375,226521.796875,178352.625,-705647.8125,182723.640625,-0.01025390625,0.990234375,-0.22998046875,-3.356933355331421,-0.3662109076976776,0.9765624403953552,93.33334350585938,91925.0,1.0
12:03:55.194476,202404.796875,197402.484375,227623.921875,213837.0,226487.203125,178339.296875,-705652.8125,182717.5625,-0.009521484375,0.99072265625,-0.230224609375,-3.448486089706421,-0.5493163466453552,0.9155272841453552,93.33334350585938,91926.0,1.0
12:03:55.198816,202412.125,197412.671875,227626.421875,213838.96875,226497.21875,178351.1875,-705656.5,182719.265625,-0.0087890625,0.98779296875,-0.229736328125,-3.509521245956421,-0.6408690810203552,1.0070799589157104,93.33334350585938,91927.0,1.0
12:03:55.198832,202424.03125,197420.890625,227636.34375,213839.6875,226527.34375,178362.09375,-705652.125,182723.109375,-0.00537109375,0.988037109375,-0.2294921875,-3.479003667831421,-0.7019042372703552,1.1596678495407104,93.33334350585938,91928.0,1.0
12:03:55.205704,202417.5,197413.828125,227636.609375,213839.953125,226524.390625,178353.25,-705650.75,182721.9375,-0.00341796875,0.98583984375,-0.228271484375,-3.509521245956421,-0.8850097060203552,1.1901854276657104,93.33334350585938,91929.0,1.0
12:03:55.210078,202406.046875,197401.765625,227627.859375,213841.109375,226493.453125,178338.40625,-705651.0625,182723.734375,-0.001953125,0.986572265625,-0.229248046875,-3.540038824081421,-0.9460448622703552,1.2512205839157104,93.33334350585938,91930.0,1.0
12:03:55.210103,202412.125,197411.78125,227628.203125,213841.296875,226495.515625,178349.3125,-705653.5625,182723.734375,0.000732421875,0.984130859375,-0.2294921875,-3.540038824081421,-0.9460448622703552,1.3122557401657104,93.33334350585938,91931.0,1.0
12:03:55.217005,202428.5,197426.171875,227640.1875,213841.296875,226528.421875,178365.765625,-705657.75,182727.578125,-0.00146484375,0.9833984375,-0.228515625,-3.570556402206421,-0.9765624403953552,1.4038084745407104,93.33334350585938,91932.0,1.0
12:03:55.226295,202427.234375,197424.390625,227645.546875,213843.4375,226536.8125,178364.609375,-705656.5,182731.421875,-0.000244140625,0.984130859375,-0.2294921875,-3.509521245956421,-0.9460448622703552,1.3427733182907104,93.33334350585938,91933.0,1.0
12:03:55.226317,202413.921875,197409.71875,227634.828125,213841.390625,226505.078125,178347.078125,-705656.4375,182728.921875,0.003173828125,0.983154296875,-0.2275390625,-3.479003667831421,-0.8850097060203552,1.3427733182907104,93.33334350585938,91934.0,1.0
12:03:55.236231,202416.15625,197416.609375,227634.5625,213840.765625,226499.09375,178352.0,-705651.5,182727.390625,0.00537109375,0.9814453125,-0.230224609375,-3.326415777206421,-0.8544921278953552,1.4953612089157104,93.33334350585938,91935.0,1.0
12:03:55.236258,202435.375,197433.5,227647.875,213846.21875,226532.171875,178370.78125,-705645.5625,182734.8125,0.0048828125,0.98095703125,-0.22998046875,-3.234863042831421,-0.7629393935203552,1.4953612089157104,93.33334350585938,91936.0,1.0
12:03:55.238802,202436.453125,197434.671875,227652.625,213847.375,226545.046875,178372.734375,-705648.375,182735.4375,0.0068359375,0.982177734375,-0.2265625,-3.173827886581421,-0.7019042372703552,1.5258787870407104,93.33334350585938,91937.0,1.0
12:03:55.238821,202419.546875,197415.359375,227640.640625,213847.109375,226513.125,178351.109375,-705655.3125,182732.140625,0.007080078125,0.98193359375,-0.228515625,-3.082275152206421,-0.5187987685203552,1.4953612089157104,93.33334350585938,91938.0,1.0
12:03:55.268851,202418.21875,197415.359375,227635.359375,213847.46875,226498.375,178348.59375,-705657.125,182729.625,0.0087890625,0.97998046875,-0.229248046875,-3.051757574081421,-0.4577636420726776,1.6174315214157104,93.33334350585938,91939.0,1.0
12:03:55.268871,202436.0,197431.265625,227646.625,213852.46875,226526.0,178364.34375,-705649.25,182735.984375,0.0107421875,0.978271484375,-0.230224609375,-2.899169683456421,-0.3967284858226776,1.6174315214157104,93.33334350585938,91940.0,1.0
12:03:55.294421,202438.5,197432.875,227652.265625,213851.578125,226543.703125,178368.359375,-705647.9375,182737.328125,0.0126953125,0.978759765625,-0.230712890625,-2.777099370956421,-0.0915527269244194,1.5258787870407104,93.33334350585938,91941.0,1.0
12:03:55.323092,202423.3125,197415.0,227641.53125,213847.015625,226515.359375,178348.59375,-705648.5625,182731.15625,0.013427734375,0.97998046875,-0.23046875,-2.563476324081421,0.03051757626235485,1.5869139432907104,93.33334350585938,91942.0,1.0
12:03:55.323112,202416.515625,197411.78125,227633.390625,213844.78125,226491.125,178343.765625,-705651.875,182725.15625,0.01171875,0.978759765625,-0.22607421875,-2.532958745956421,0.0610351525247097,1.5258787870407104,93.33334350585938,91943.0,1.0
12:03:55.323117,202430.28125,197424.828125,227638.765625,213845.234375,226511.515625,178358.609375,-705646.6875,182725.703125,0.010498046875,0.979248046875,-0.227294921875,-2.380370855331421,0.2746581733226776,1.6174315214157104,93.33334350585938,91944.0,1.0
12:03:55.327438,202438.59375,197430.640625,227645.46875,213845.234375,226535.390625,178366.03125,-705646.1875,182727.046875,0.0068359375,0.9814453125,-0.227783203125,-2.258300542831421,0.4577636420726776,1.4953612089157104,93.33334350585938,91945.0,1.0
12:03:55.327471,202425.546875,197415.0,227637.6875,213842.546875,226514.828125,178350.03125,-705652.5625,182723.828125,0.00830078125,0.97998046875,-0.227783203125,-2.197265386581421,0.5493163466453552,1.3427733182907104,93.33334350585938,91946.0,1.0
12:03:55.327477,202417.40625,197410.96875,227629.8125,213841.828125,226488.984375,178345.109375,-705653.5625,182721.140625,0.0078125,0.980224609375,-0.227783203125,-2.227782964706421,0.5493163466453552,1.3122557401657104,93.33334350585938,91947.0,1.0
12:03:55.327483,202425.359375,197421.078125,227631.78125,213840.84375,226502.84375,178356.015625,-705647.3125,182718.71875,0.00537109375,0.977294921875,-0.22900390625,-2.044677495956421,0.5493163466453552,1.2512205839157104,93.33334350585938,91948.0,1.0
12:03:55.330077,202436.71875,197429.21875,227641.171875,213842.8125,226531.625,178367.46875,-705643.0625,182724.71875,0.005126953125,0.977294921875,-0.228759765625,-1.8005369901657104,0.6103515028953552,1.0070799589157104,93.33334350585938,91949.0,1.0
12:03:55.330101,202425.1875,197416.96875,227635.984375,213840.40625,226519.5625,178356.5625,-705646.6875,182723.1875,0.0087890625,0.978271484375,-0.226318359375,-1.6479490995407104,0.8239745497703552,1.0070799589157104,93.33334350585938,91950.0,1.0
12:03:55.332005,202411.5,197405.703125,227624.359375,213835.84375,226486.75,178342.34375,-705646.1875,182715.328125,0.010009765625,0.9814453125,-0.229736328125,-1.5563963651657104,0.8544921278953552,0.9460448622703552,93.33334350585938,91951.0,1.0
12:03:55.334511,202419.546875,197416.515625,227626.421875,213835.84375,226493.453125,178353.421875,-705649.25,182713.53125,0.01025390625,0.98388671875,-0.22705078125,-1.5258787870407104,1.0375975370407104,0.7934569716453552,93.33334350585938,91952.0,1.0
12:03:55.336922,202434.484375,197430.546875,227637.59375,213838.34375,226524.21875,178368.71875,-705655.5,182720.6875,0.008544921875,0.98388671875,-0.2294921875,-1.4343260526657104,1.0375975370407104,0.7324218153953552,93.33334350585938,91953.0,1.0
12:03:55.339962,202423.9375,197423.484375,227634.203125,213832.359375,226517.78125,178361.75,-705652.8125,182715.78125,0.00732421875,0.9814453125,-0.22802734375,-1.3122557401657104,1.0986326932907104,0.6713866591453552,93.33334350585938,91954.0,1.0
12:03:55.342627,202411.59375,197409.8125,227623.921875,213834.328125,226484.0625,178344.75,-705651.0625,182713.890625,0.0068359375,0.982177734375,-0.230712890625,-1.2817381620407104,1.1291502714157104,0.6103515028953552,93.33334350585938,91955.0,1.0
12:03:55.342646,202414.1875,197415.0,227620.96875,213832.09375,226482.546875,178351.1875,-705647.9375,182710.40625,0.005126953125,0.983154296875,-0.23193359375,-1.1596678495407104,1.1596678495407104,0.5187987685203552,93.33334350585938,91956.0,1.0
12:03:55.344370,202428.84375,197425.90625,227630.4375,213834.140625,226514.734375,178365.765625,-705642.0,182716.484375,0.00439453125,0.982666015625,-0.232666015625,-1.0986326932907104,1.0986326932907104,0.5493163466453552,93.33334350585938,91957.0,1.0
12:03:55.347300,202425.28125,197422.59375,227633.390625,213832.71875,226521.53125,178364.515625,-705640.375,182715.6875,0.00341796875,0.986083984375,-0.229736328125,-0.9460448622703552,1.1596678495407104,0.4882812201976776,93.33334350585938,91958.0,1.0
12:03:55.349402,202411.421875,197407.75,227623.5625,213834.234375,226489.703125,178346.984375,-705651.0625,182714.515625,0.001220703125,0.98486328125,-0.2314453125,-0.8544921278953552,1.1291502714157104,0.4882812201976776,93.33334350585938,91959.0,1.0
12:03:55.351937,202411.15625,197410.890625,227620.609375,213834.671875,226482.28125,178349.671875,-705654.375,182712.28125,0.00537109375,0.985595703125,-0.22900390625,-0.8544921278953552,1.1596678495407104,0.4272460639476776,93.33334350585938,91960.0,1.0
12:03:55.354429,202428.84375,197424.921875,227632.6875,213836.921875,226515.984375,178367.203125,-705647.75,182718.71875,0.0009765625,0.986328125,-0.23291015625,-0.8239745497703552,1.2512205839157104,0.3967284858226776,93.33334350585938,91961.0,1.0
12:03:55.356925,202427.328125,197424.296875,227637.15625,213834.765625,226527.96875,178364.78125,-705649.625,182718.90625,0.001220703125,0.98583984375,-0.23193359375,-0.7629393935203552,1.2207030057907104,0.4272460639476776,93.33334350585938,91962.0,1.0
12:03:55.360373,202413.296875,197409.90625,227626.0625,213833.875,226496.859375,178345.296875,-705646.125,182715.6875,-0.000732421875,0.985595703125,-0.2353515625,-0.7324218153953552,1.0681151151657104,0.3967284858226776,93.33334350585938,91963.0,1.0
12:03:55.360428,202409.8125,197409.984375,227619.53125,213832.984375,226479.859375,178344.3125,-705639.9375,182710.765625,-0.001953125,0.98583984375,-0.23193359375,-0.6713866591453552,0.9460448622703552,0.3051757514476776,93.33334350585938,91964.0,1.0
12:03:55.363285,202421.15625,197419.828125,227623.828125,213830.921875,226502.84375,178355.84375,-705645.9375,182709.96875,-0.002685546875,0.986083984375,-0.23291015625,-0.7019042372703552,0.8850097060203552,0.3356933295726776,93.33334350585938,91965.0,1.0
12:03:55.365019,202426.703125,197422.59375,227630.53125,213830.484375,226520.640625,178360.765625,-705653.25,182712.375,-0.002685546875,0.98583984375,-0.233642578125,-0.6713866591453552,0.7629393935203552,0.2136230319738388,93.33334350585938,91966.0,1.0
12:03:55.365040,202412.3125,197404.8125,227622.578125,213830.484375,226496.40625,178342.25,-705653.8125,182710.40625,-0.0048828125,0.98486328125,-0.2314453125,-0.6103515028953552,0.5798339247703552,0.2746581733226776,93.33334350585938,91967.0,1.0
12:03:55.367548,202404.359375,197399.703125,227613.90625,213829.140625,226472.71875,178335.453125,-705645.0625,182706.03125,-0.00537109375,0.984619140625,-0.233154296875,-0.5798339247703552,0.5493163466453552,0.3051757514476776,93.33334350585938,91968.0,1.0
12:03:55.367573,202420.09375,197414.734375,227622.671875,213832.0,226495.328125,178352.984375,-705641.125,182708.796875,-0.005126953125,0.983642578125,-0.234130859375,-0.5798339247703552,0.3051757514476776,0.2746581733226776,93.33334350585938,91969.0,1.0
12:03:55.369674,202432.515625,197426.171875,227637.421875,213838.171875,226526.71875,178368.625,-705646.375,182719.0,-0.00439453125,0.98388671875,-0.232421875,-0.6713866591453552,0.0915527269244194,0.3662109076976776,93.33334350585938,91970.0,1.0
12:03:55.373223,202420.453125,197414.640625,227632.328125,213836.5625,226507.5,178357.359375,-705643.375,182716.21875,-0.00341796875,0.984130859375,-0.233154296875,-0.6103515028953552,0.03051757626235485,0.2746581733226776,93.33334350585938,91971.0,1.0
12:03:55.383912,202406.328125,197402.296875,227617.125,213828.328125,226474.046875,178340.828125,-705635.75,182707.015625,-0.004150390625,0.986328125,-0.230224609375,-0.6408690810203552,-0.0610351525247097,0.3967284858226776,93.33334350585938,91972.0,1.0
12:03:55.383950,202413.828125,197410.96875,227618.46875,213827.890625,226487.46875,178349.578125,-705633.625,182707.734375,-0.00439453125,0.98681640625,-0.23193359375,-0.6713866591453552,-0.1831054538488388,0.4577636420726776,93.33334350585938,91973.0,1.0
12:03:55.386271,202424.5625,197420.546875,227628.03125,213827.96875,226515.984375,178362.8125,-705634.9375,182712.90625,-0.003173828125,0.989501953125,-0.235107421875,-0.7019042372703552,-0.3051757514476776,0.4577636420726776,93.33334350585938,91974.0,1.0
12:03:55.386287,202411.953125,197408.46875,227623.109375,213825.375,226502.125,178350.484375,-705632.6875,182709.421875,-0.000732421875,0.989013671875,-0.234375,-0.7629393935203552,-0.3356933295726776,0.5187987685203552,93.33334350585938,91975.0,1.0
12:03:55.393280,202399.171875,197397.734375,227612.109375,213824.484375,226469.765625,178336.796875,-705633.1875,182705.671875,0.002197265625,0.98779296875,-0.23681640625,-0.8544921278953552,-0.3356933295726776,0.6103515028953552,93.33334350585938,91976.0,1.0
12:03:55.398722,202410.796875,197412.3125,227617.921875,213826.09375,226482.015625,178352.71875,-705638.4375,182707.8125,0.0009765625,0.988037109375,-0.236328125,-0.9460448622703552,-0.4272460639476776,0.7324218153953552,93.33334350585938,91977.0,1.0
12:03:55.398736,202424.65625,197423.671875,227628.296875,213828.953125,226513.84375,178366.578125,-705638.6875,182713.890625,0.001953125,0.990234375,-0.23486328125,-1.1291502714157104,-0.4577636420726776,0.7019042372703552,93.33334350585938,91978.0,1.0
12:03:55.405731,202416.875,197417.234375,227628.828125,213829.671875,226512.5,178358.25,-705641.125,182714.96875,0.001708984375,0.98876953125,-0.232177734375,-1.2207030057907104,-0.5493163466453552,0.8239745497703552,93.33334350585938,91979.0,1.0
12:03:55.414397,202402.03125,197403.546875,227616.9375,213827.53125,226479.234375,178342.515625,-705637.8125,182711.65625,0.0029296875,0.98828125,-0.232666015625,-1.2512205839157104,-0.5798339247703552,1.0070799589157104,93.33334350585938,91980.0,1.0
12:03:55.414427,202403.375,197409.359375,227614.796875,213824.84375,226477.8125,178348.25,-705643.875,182708.171875,0.001708984375,0.98876953125,-0.236572265625,-1.3427733182907104,-0.5493163466453552,1.0070799589157104,93.33334350585938,91981.0,1.0
12:03:55.415713,202421.25,197422.15625,227626.875,213828.78125,226510.796875,178362.375,-705647.8125,182715.6875,0.000732421875,0.9873046875,-0.234619140625,-1.4648436307907104,-0.5798339247703552,1.0681151151657104,93.33334350585938,91982.0,1.0
12:03:55.433783,202422.0625,197421.796875,227632.40625,213831.546875,226518.9375,178361.390625,-705647.375,182718.640625,0.001953125,0.987060546875,-0.235107421875,-1.5258787870407104,-0.5798339247703552,0.9765624403953552,93.33334350585938,91983.0,1.0
12:03:55.433802,202410.609375,197408.5625,227624.0,213833.875,226487.90625,178345.109375,-705647.8125,182717.921875,0.002197265625,0.9873046875,-0.23681640625,-1.6479490995407104,-0.6713866591453552,0.9765624403953552,93.33334350585938,91984.0,1.0
12:03:55.436601,202414.09375,197414.453125,227622.84375,213834.765625,226481.828125,178349.859375,-705651.6875,182716.046875,0.0029296875,0.98779296875,-0.234375,-1.7395018339157104,-0.6103515028953552,0.9765624403953552,93.33334350585938,91985.0,1.0
12:03:55.436613,202434.84375,197431.71875,227636.96875,213841.296875,226515.453125,178369.96875,-705651.5,182723.828125,0.0029296875,0.989013671875,-0.236083984375,-1.9226073026657104,-0.5493163466453552,1.1291502714157104,93.33334350585938,91986.0,1.0
12:03:55.438153,202435.015625,197431.0,227642.609375,213841.921875,226528.328125,178370.5,-705649.4375,182725.078125,0.00390625,0.98876953125,-0.23486328125,-1.9226073026657104,-0.5493163466453552,0.9765624403953552,93.33334350585938,91987.0,1.0
12:03:55.441926,202420.453125,197415.359375,227633.484375,213838.703125,226498.375,178351.640625,-705658.625,182718.90625,0.003662109375,0.98681640625,-0.235595703125,-1.9836424589157104,-0.5187987685203552,0.9460448622703552,93.33334350585938,91988.0,1.0
12:03:55.448765,202419.109375,197418.84375,227629.1875,213840.3125,226484.78125,178352.71875,-705661.75,182717.828125,0.00244140625,0.98779296875,-0.23583984375,-2.044677495956421,-0.3967284858226776,0.7934569716453552,93.33334350585938,91989.0,1.0
12:03:55.448778,202430.015625,197427.15625,227632.59375,213839.859375,226506.515625,178363.171875,-705660.4375,182718.90625,0.004150390625,0.988525390625,-0.23486328125,-2.075195074081421,-0.3967284858226776,0.7934569716453552,93.33334350585938,91990.0,1.0
12:03:55.458727,202433.59375,197429.296875,227637.328125,213839.421875,226524.65625,178368.359375,-705655.6875,182720.6875,0.002685546875,0.9873046875,-0.235595703125,-2.166747808456421,-0.3967284858226776,0.7934569716453552,93.33334350585938,91991.0,1.0
12:03:55.458749,202420.53125,197413.203125,227629.109375,213839.0625,226499.890625,178352.359375,-705657.6875,182719.34375,0.005615234375,0.98583984375,-0.23583984375,-2.258300542831421,-0.3356933295726776,0.8544921278953552,93.33334350585938,91992.0,1.0
12:03:55.461327,202413.296875,197409.90625,227621.5,213838.53125,226478.703125,178348.328125,-705670.0,182716.671875,0.005859375,0.988525390625,-0.23828125,-2.288818120956421,-0.3662109076976776,0.7629393935203552,93.33334350585938,91993.0,1.0
12:03:55.461336,202424.46875,197418.484375,227624.71875,213837.890625,226496.765625,178356.921875,-705674.1875,182716.9375,0.008056640625,0.986328125,-0.234130859375,-2.349853277206421,-0.2746581733226776,0.7934569716453552,93.33334350585938,91994.0,1.0
12:03:55.468218,202432.96875,197425.28125,227633.21875,213839.953125,226522.25,178364.875,-705664.375,182721.859375,0.007568359375,0.986328125,-0.233642578125,-2.410888433456421,-0.1220703050494194,0.6103515028953552,93.33334350585938,91995.0,1.0
12:03:55.474362,202419.015625,197410.4375,227626.25,213837.265625,226502.390625,178349.578125,-705659.25,182718.453125,0.007568359375,0.9853515625,-0.234619140625,-2.471923589706421,0.0,0.5798339247703552,93.33334350585938,91996.0,1.0
12:03:55.481222,202409.09375,197402.21875,227616.59375,213833.875,226473.78125,178339.65625,-705671.3125,182713.984375,0.00732421875,0.984619140625,-0.235107421875,-2.624511480331421,0.0610351525247097,0.5798339247703552,93.33334350585938,91997.0,1.0
12:03:55.481234,202421.078125,197417.671875,227622.671875,213835.65625,226489.703125,178356.5625,-705673.75,182715.59375,0.010498046875,0.98486328125,-0.234375,-2.624511480331421,0.1220703050494194,0.5187987685203552,93.33334350585938,91998.0,1.0
12:03:55.483696,202432.421875,197425.453125,227632.046875,213837.453125,226515.546875,178364.78125,-705670.1875,182718.359375,0.008544921875,0.986572265625,-0.2353515625,-2.655029058456421,0.1525878757238388,0.4882812201976776,93.33334350585938,91999.0,1.0
12:03:55.483708,202423.3125,197416.25,227629.546875,213834.859375,226503.296875,178354.234375,-705664.0,182714.4375,0.010009765625,0.986083984375,-0.233642578125,-2.716064214706421,0.2746581733226776,0.6103515028953552,93.33334350585938,92000.0,1.0
12:03:55.498807,202411.953125,197405.96875,227619.53125,213833.25,226471.28125,178340.46875,-705658.8125,182709.78125,0.0087890625,0.985107421875,-0.231689453125,-2.655029058456421,0.4272460639476776,0.6103515028953552,93.33334350585938,92001.0,1.0
12:03:55.498832,202419.546875,197418.9375,227621.765625,213831.640625,226479.0625,178351.640625,-705659.6875,182706.921875,0.00634765625,0.9853515625,-0.23193359375,-2.593993902206421,0.4577636420726776,0.5798339247703552,93.33334350585938,92002.0,1.0
12:03:55.504384,202438.15625,197433.859375,227634.734375,213834.5,226512.40625,178367.5625,-705660.9375,182713.625,0.005126953125,0.98388671875,-0.228515625,-2.593993902206421,0.4882812201976776,0.6103515028953552,93.33334350585938,92003.0,1.0
12:03:55.506947,202430.28125,197426.078125,227634.28125,213829.9375,226509.28125,178360.140625,-705659.0,182710.046875,0.006103515625,0.984375,-0.22900390625,-2.593993902206421,0.5187987685203552,0.6103515028953552,93.33334350585938,92004.0,1.0
12:03:55.509565,202420.171875,197413.125,227627.140625,213833.515625,226479.6875,178345.46875,-705658.1875,182712.203125,0.00439453125,0.986328125,-0.23046875,-2.593993902206421,0.5798339247703552,0.6103515028953552,93.33334350585938,92005.0,1.0
12:03:55.511990,202426.53125,197419.734375,227627.671875,213834.40625,226480.9375,178353.78125,-705657.5,182709.515625,0.003662109375,0.987060546875,-0.232421875,-2.593993902206421,0.6103515028953552,0.5493163466453552,93.33334350585938,92006.0,1.0
12:03:55.518257,202440.75,197431.1875,227637.15625,213833.609375,226512.40625,178368.8125,-705651.3125,182711.125,0.00146484375,0.986328125,-0.23193359375,-2.655029058456421,0.7019042372703552,0.4577636420726776,93.33334350585938,92007.0,1.0
12:03:55.525158,202434.21875,197426.0,227637.15625,213830.65625,226516.703125,178366.03125,-705653.5625,182709.25,0.0,0.98779296875,-0.23193359375,-2.685546636581421,0.6713866591453552,0.5798339247703552,93.33334350585938,92008.0,1.0
12:03:55.525175,202416.15625,197405.78125,227622.9375,213829.40625,226480.671875,178342.796875,-705659.625,182705.765625,-0.000732421875,0.98779296875,-0.23095703125,-2.716064214706421,0.5798339247703552,0.5798339247703552,93.33334350585938,92009.0,1.0
12:03:55.531300,202415.4375,197410.265625,227617.75,213828.59375,226471.734375,178345.203125,-705659.875,182703.609375,0.000732421875,0.98876953125,-0.228759765625,-2.777099370956421,0.5187987685203552,0.4577636420726776,93.33334350585938,92010.0,1.0
12:03:55.531314,202433.765625,197426.078125,227629.109375,213833.515625,226503.46875,178365.234375,-705660.625,182711.9375,-0.001708984375,0.989990234375,-0.2265625,-2.838134527206421,0.4272460639476776,0.3967284858226776,93.33334350585938,92011.0,1.0
12:03:55.533164,202429.03125,197423.9375,227628.125,213826.90625,226513.03125,178364.609375,-705668.5,182708.796875,-0.00146484375,0.98974609375,-0.2275390625,-2.807616949081421,0.5187987685203552,0.4577636420726776,93.33334350585938,92012.0,1.0
12:03:55.541976,202413.734375,197408.921875,227618.46875,213826.28125,226484.515625,178346.984375,-705677.4375,182706.390625,-0.002197265625,0.9892578125,-0.22607421875,-2.807616949081421,0.4577636420726776,0.5493163466453552,93.33334350585938,92013.0,1.0
12:03:55.548840,202415.078125,197413.03125,227616.59375,213830.125,226471.8125,178348.953125,-705668.6875,182706.5625,-0.000244140625,0.9892578125,-0.226318359375,-2.838134527206421,0.3967284858226776,0.5798339247703552,93.33334350585938,92014.0,1.0
12:03:55.548899,202436.71875,197432.515625,227630.4375,213836.734375,226504.453125,178370.234375,-705666.5,182716.3125,-0.0009765625,0.9892578125,-0.22802734375,-2.868652105331421,0.3356933295726776,0.6408690810203552,93.33334350585938,92015.0,1.0
12:03:55.559050,202442.171875,197437.96875,227641.171875,213839.6875,226528.0625,178378.375,-705667.3125,182723.640625,-0.001953125,0.98828125,-0.224853515625,-3.021239995956421,0.2441406100988388,0.7934569716453552,93.33334350585938,92016.0,1.0
12:03:55.559089,202427.59375,197420.625,227633.21875,213839.5,226504.359375,178360.578125,-705665.1875,182723.1875,-0.000732421875,0.988037109375,-0.22216796875,-3.021239995956421,0.1831054538488388,0.7324218153953552,93.33334350585938,92017.0,1.0
12:03:55.561279,202422.5,197420.625,227628.203125,213840.9375,226485.234375,178360.046875,-705660.4375,182724.0,-0.000244140625,0.98681640625,-0.2275390625,-3.082275152206421,0.1220703050494194,0.7019042372703552,93.33334350585938,92018.0,1.0
12:03:55.561291,202431.796875,197430.546875,227632.5,213839.234375,226505.34375,178373.453125,-705663.9375,182725.78125,-0.00048828125,0.986328125,-0.22705078125,-3.143310308456421,0.0610351525247097,0.7019042372703552,93.33334350585938,92019.0,1.0
12:03:55.566865,202427.875,197422.6875,227630.890625,213829.84375,226519.390625,178368.0,-705664.5625,182720.421875,-0.001708984375,0.98828125,-0.22607421875,-3.082275152206421,-0.03051757626235485,0.8544921278953552,93.33334350585938,92020.0,1.0
12:03:55.579868,202403.1875,197395.15625,227614.078125,213821.171875,226490.5,178340.640625,-705665.4375,182708.625,-0.001708984375,0.98779296875,-0.2236328125,-3.082275152206421,-0.0610351525247097,0.9460448622703552,93.33334350585938,92021.0,1.0
12:03:55.581362,202391.125,197385.765625,227602.28125,213817.953125,226459.921875,178329.640625,-705683.0625,182703.4375,-0.003173828125,0.9873046875,-0.22412109375,-3.051757574081421,-0.1220703050494194,0.8544921278953552,93.33334350585938,92022.0,1.0
12:03:55.581418,202400.78125,197395.78125,227604.515625,213817.15625,226471.734375,178336.796875,-705693.6875,182701.203125,-0.00146484375,0.98779296875,-0.22705078125,-3.051757574081421,-0.1831054538488388,0.9460448622703552,93.33334350585938,92023.0,1.0
12:03:55.587837,202405.875,197397.03125,227607.828125,213812.0625,226492.390625,178336.890625,-705697.0625,182698.703125,-0.001708984375,0.98876953125,-0.2275390625,-2.990722417831421,-0.2441406100988388,1.1596678495407104,93.33334350585938,92024.0,1.0
12:03:55.587861,202396.21875,197387.015625,227603.53125,213809.734375,226480.9375,178326.421875,-705696.5625,182694.3125,-0.00048828125,0.989013671875,-0.224853515625,-3.051757574081421,-0.2441406100988388,1.2817381620407104,93.33334350585938,92025.0,1.0
12:03:55.593274,202392.46875,197384.59375,227599.421875,213815.546875,226455.453125,178322.140625,-705691.25,182695.921875,0.0,0.987548828125,-0.225341796875,-3.021239995956421,-0.2746581733226776,1.3732908964157104,93.33334350585938,92026.0,1.0
12:03:55.603861,202403.8125,197401.5,227603.625,213818.3125,226465.5625,178339.65625,-705694.75,182696.375,0.00146484375,0.988037109375,-0.224365234375,-3.021239995956421,-0.4272460639476776,1.2512205839157104,93.33334350585938,92027.0,1.0
12:03:55.603923,202423.21875,197418.84375,227619.171875,213827.34375,226500.96875,178360.140625,-705689.3125,182708.359375,0.00390625,0.986328125,-0.2216796875,-2.960204839706421,-0.3356933295726776,1.2817381620407104,93.33334350585938,92028.0,1.0
12:03:55.606392,202419.203125,197412.046875,227620.875,213829.5,226501.234375,178352.890625,-705686.6875,182708.796875,0.00439453125,0.986572265625,-0.224365234375,-2.868652105331421,-0.4272460639476776,1.2512205839157104,93.33334350585938,92029.0,1.0
12:03:55.606464,202406.953125,197399.34375,227610.859375,213828.875,226470.125,178337.25,-705683.75,182705.21875,0.00537109375,0.98681640625,-0.2236328125,-2.868652105331421,-0.3967284858226776,1.4038084745407104,93.33334350585938,92030.0,1.0
12:03:55.612159,202412.9375,197410.53125,227612.03125,213830.203125,226473.515625,178347.53125,-705686.875,182704.78125,0.006591796875,0.985595703125,-0.22265625,-2.777099370956421,-0.3356933295726776,1.4648436307907104,93.33334350585938,92031.0,1.0
12:03:55.637100,202432.0625,197426.984375,227626.6875,213836.5625,226508.46875,178366.390625,-705676.875,182713.890625,0.00634765625,0.983154296875,-0.22265625,-2.746581792831421,-0.3051757514476776,1.4343260526657104,93.33334350585938,92032.0,1.0
12:03:55.663287,202426.796875,197423.9375,227628.03125,213834.140625,226513.390625,178363.625,-705673.5625,182712.203125,0.005859375,0.984375,-0.2236328125,-2.563476324081421,-0.2441406100988388,1.5869139432907104,93.33334350585938,92033.0,1.0
12:03:55.675684,202411.953125,197410.078125,227617.75,213832.359375,226480.21875,178346.71875,-705671.8125,182707.90625,0.00634765625,0.984130859375,-0.22314453125,-2.532958745956421,-0.2746581733226776,1.4953612089157104,93.33334350585938,92034.0,1.0
12:03:55.678152,202414.28125,197417.328125,227617.296875,213832.359375,226473.703125,178353.78125,-705670.875,182706.296875,0.00634765625,0.980224609375,-0.226806640625,-2.349853277206421,-0.3662109076976776,1.4343260526657104,93.33334350585938,92035.0,1.0
12:03:55.680639,202433.59375,197434.578125,227629.109375,213835.65625,226505.25,178371.484375,-705661.25,182713.09375,0.0068359375,0.9794921875,-0.222900390625,-2.197265386581421,-0.2746581733226776,1.3732908964157104,93.33334350585938,92036.0,1.0
12:03:55.683248,202433.59375,197435.5625,227632.5,213832.53125,226517.859375,178375.25,-705666.6875,182712.90625,0.00732421875,0.978515625,-0.224853515625,-2.105712652206421,-0.2136230319738388,1.4038084745407104,93.33334350585938,92037.0,1.0
12:03:55.685729,202418.21875,197417.765625,227623.5625,213833.34375,226488.09375,178357.453125,-705677.5,182712.5625,0.00634765625,0.9765625,-0.226318359375,-2.014159917831421,-0.1831054538488388,1.3427733182907104,93.33334350585938,92038.0,1.0
12:03:55.689365,202413.828125,197413.921875,227618.46875,213834.140625,226473.25,178350.65625,-705681.25,182712.015625,0.008056640625,0.975341796875,-0.22216796875,-1.8615721464157104,-0.1831054538488388,1.2817381620407104,93.33334350585938,92039.0,1.0
12:03:55.689390,202425.984375,197425.28125,227624.984375,213834.59375,226499.453125,178365.953125,-705681.875,182716.046875,0.00732421875,0.974853515625,-0.22314453125,-1.6174315214157104,-0.0915527269244194,1.2207030057907104,93.33334350585938,92040.0,1.0
12:03:55.689397,202432.25,197433.421875,227631.421875,213833.703125,226519.46875,178374.625,-705671.8125,182718.8125,0.00927734375,0.974853515625,-0.2236328125,-1.3427733182907104,0.0,1.2817381620407104,93.33334350585938,92041.0,1.0
12:03:55.694090,202419.546875,197419.015625,227622.125,213831.90625,226492.296875,178356.375,-705669.75,182713.8125,0.009765625,0.97509765625,-0.22314453125,-1.2817381620407104,0.03051757626235485,1.2207030057907104,93.33334350585938,92042.0,1.0
12:03:55.694115,202409.71875,197410.703125,227613.015625,213828.234375,226467.265625,178345.65625,-705672.4375,182708.359375,0.011962890625,0.977294921875,-0.2275390625,-1.0375975370407104,0.0915527269244194,1.2207030057907104,93.33334350585938,92043.0,1.0
12:03:55.694121,202421.96875,197424.65625,227619.8125,213828.78125,226488.890625,178361.5625,-705666.9375,182710.765625,0.01171875,0.976318359375,-0.228759765625,-0.9155272841453552,0.3051757514476776,1.1596678495407104,93.33334350585938,92044.0,1.0
12:03:55.696226,202432.421875,197435.203125,227628.5625,213828.234375,226513.578125,178371.75,-705654.625,182713.53125,0.010009765625,0.976806640625,-0.2275390625,-0.7629393935203552,0.3967284858226776,1.0375975370407104,93.33334350585938,92045.0,1.0
12:03:55.696235,202420.8125,197423.84375,227623.375,213828.0625,226495.15625,178360.484375,-705652.625,182711.125,0.011474609375,0.9765625,-0.22998046875,-0.4882812201976776,0.4272460639476776,0.9765624403953552,93.33334350585938,92046.0,1.0
12:03:55.698807,202411.328125,197416.703125,227612.203125,213821.796875,226464.75,178350.921875,-705657.75,182701.640625,0.01220703125,0.9775390625,-0.230224609375,-0.4272460639476776,0.5187987685203552,0.8850097060203552,93.33334350585938,92047.0,1.0
12:03:55.698823,202424.65625,197429.578125,227619.0,213822.96875,226481.65625,178366.484375,-705668.1875,182702.625,0.011962890625,0.978759765625,-0.232177734375,-0.3051757514476776,0.5798339247703552,0.7629393935203552,93.33334350585938,92048.0,1.0
12:03:55.700617,202437.4375,197438.59375,227631.515625,213827.703125,226515.09375,178379.71875,-705663.5625,182711.578125,0.01025390625,0.982421875,-0.232177734375,-0.0915527269244194,0.6408690810203552,0.5798339247703552,93.33334350585938,92049.0,1.0
12:03:55.703821,202426.171875,197427.6875,227627.859375,213827.171875,226504.546875,178369.4375,-705663.0,182710.046875,0.009033203125,0.9853515625,-0.2265625,-0.1220703050494194,0.7324218153953552,0.5798339247703552,93.33334350585938,92050.0,1.0
12:03:55.703839,202416.78125,197418.390625,227617.921875,213828.6875,226474.234375,178359.234375,-705661.0625,182708.625,0.00732421875,0.988525390625,-0.22900390625,-0.0610351525247097,0.8239745497703552,0.3967284858226776,93.33334350585938,92051.0,1.0
12:03:55.705654,202422.421875,197427.609375,227617.125,213826.28125,226479.15625,178369.703125,-705662.3125,182704.859375,0.001708984375,0.99267578125,-0.22705078125,-0.1525878757238388,0.8850097060203552,0.2746581733226776,93.33334350585938,92052.0,1.0
12:03:55.708256,202436.546875,197440.203125,227627.578125,213826.71875,226509.734375,178383.296875,-705665.875,182708.171875,0.004638671875,0.994873046875,-0.225341796875,-0.2746581733226776,0.7934569716453552,0.1525878757238388,93.33334350585938,92053.0,1.0
12:03:55.713206,202428.578125,197431.53125,227626.515625,213823.40625,226505.53125,178370.6875,-705666.25,182704.515625,0.00146484375,0.99560546875,-0.22509765625,-0.3051757514476776,0.6713866591453552,0.0,93.33334350585938,92054.0,1.0
12:03:55.715693,202416.515625,197419.46875,227616.859375,213822.515625,226473.78125,178357.90625,-705661.9375,182701.46875,0.0,0.998291015625,-0.226806640625,-0.4882812201976776,0.5493163466453552,-0.1220703050494194,93.33334350585938,92055.0,1.0
12:03:55.718761,202423.3125,197430.46875,227618.546875,213823.859375,226475.75,178368.71875,-705658.75,182700.75,0.0009765625,1.000244140625,-0.224853515625,-0.6713866591453552,0.4882812201976776,-0.1525878757238388,93.33334350585938,92056.0,1.0
12:03:55.718786,202437.875,197440.03125,227628.203125,213826.546875,226506.234375,178379.359375,-705660.875,182705.578125,0.00439453125,0.9990234375,-0.223876953125,-0.8544921278953552,0.4577636420726776,-0.1831054538488388,93.33334350585938,92057.0,1.0
12:03:55.720678,202432.515625,197435.296875,227628.484375,213824.3125,226511.96875,178375.515625,-705661.9375,182705.5,0.0048828125,0.99853515625,-0.224853515625,-1.1291502714157104,0.4577636420726776,-0.1525878757238388,93.33334350585938,92058.0,1.0
12:03:55.727908,202418.484375,197418.3125,227617.03125,213824.125,226477.625,178356.734375,-705661.3125,182704.421875,0.00634765625,0.99755859375,-0.2265625,-1.1901854276657104,0.5187987685203552,0.03051757626235485,93.33334350585938,92059.0,1.0
12:03:55.731290,202419.28125,197423.765625,227615.421875,213824.671875,226470.203125,178361.203125,-705660.3125,182702.984375,0.0078125,0.99462890625,-0.22705078125,-1.3732908964157104,0.4577636420726776,0.0610351525247097,93.33334350585938,92060.0,1.0
12:03:55.731313,202438.0625,197440.390625,227629.109375,213832.171875,226505.96875,178380.609375,-705656.4375,182715.59375,0.009033203125,0.994140625,-0.22607421875,-1.6174315214157104,0.6408690810203552,0.1220703050494194,93.33334350585938,92061.0,1.0
12:03:55.740666,202432.875,197435.03125,227628.65625,213824.75,226515.71875,178377.390625,-705658.1875,182710.59375,0.00732421875,0.992919921875,-0.224609375,-1.6784666776657104,0.5798339247703552,0.2746581733226776,93.33334350585938,92062.0,1.0
12:03:55.756878,202417.671875,197419.015625,227618.828125,213822.25,226486.75,178360.484375,-705657.1875,182707.453125,0.00732421875,0.992431640625,-0.22607421875,-1.8005369901657104,0.6408690810203552,0.3662109076976776,93.33334350585938,92063.0,1.0
12:03:55.756893,202414.1875,197422.78125,227614.4375,213822.515625,226472.71875,178362.90625,-705659.25,182707.453125,0.0048828125,0.99169921875,-0.224853515625,-1.8920897245407104,0.7324218153953552,0.4882812201976776,93.33334350585938,92064.0,1.0
12:03:55.756895,202429.390625,197434.84375,227621.953125,213824.671875,226499.171875,178376.234375,-705656.125,182711.390625,0.003662109375,0.990478515625,-0.22412109375,-1.9836424589157104,0.6103515028953552,0.6713866591453552,93.33334350585938,92065.0,1.0
12:03:55.759414,202430.1875,197434.578125,227625.53125,213821.09375,226515.8125,178378.1875,-705651.5625,182710.234375,0.0,0.989501953125,-0.2255859375,-2.105712652206421,0.7019042372703552,0.7019042372703552,93.33334350585938,92066.0,1.0
12:03:55.763230,202412.40625,197414.546875,227612.46875,213817.328125,226486.296875,178357.359375,-705655.625,182704.78125,0.000732421875,0.98876953125,-0.22265625,-2.227782964706421,0.5187987685203552,0.7629393935203552,93.33334350585938,92067.0,1.0
12:03:55.763245,202406.234375,197411.0625,227603.984375,213817.0625,226461.1875,178350.296875,-705661.0625,182701.921875,-0.000244140625,0.989013671875,-0.226806640625,-2.258300542831421,0.5493163466453552,0.7019042372703552,93.33334350585938,92068.0,1.0
12:03:55.765406,202420.359375,197423.40625,227610.59375,213818.9375,226481.46875,178364.34375,-705654.0625,182704.59375,-0.0009765625,0.989990234375,-0.227294921875,-2.380370855331421,0.3662109076976776,0.8239745497703552,93.33334350585938,92069.0,1.0
12:03:55.766899,202430.015625,197431.53125,227620.609375,213818.234375,226507.140625,178375.609375,-705649.25,182707.546875,0.001220703125,0.98876953125,-0.226318359375,-2.441406011581421,0.3967284858226776,0.9765624403953552,93.33334350585938,92070.0,1.0
12:03:55.777509,202415.4375,197415.53125,227612.734375,213816.4375,226488.71875,178359.15625,-705656.3125,182704.15625,0.0,0.98828125,-0.224609375,-2.471923589706421,0.3662109076976776,0.9155272841453552,93.33334350585938,92071.0,1.0
12:03:55.777552,202404.078125,197405.703125,227602.375,213815.8125,226461.0,178347.703125,-705663.125,182700.75,0.00048828125,0.986083984375,-0.225830078125,-2.502441167831421,0.3051757514476776,0.8850097060203552,93.33334350585938,92072.0,1.0
12:03:55.780096,202412.578125,197414.109375,227603.984375,213814.390625,226473.78125,178357.546875,-705665.6875,182699.40625,-0.001708984375,0.986572265625,-0.22509765625,-2.502441167831421,0.2441406100988388,1.0070799589157104,93.33334350585938,92073.0,1.0
12:03:55.780141,202422.234375,197422.328125,227612.109375,213815.1875,226503.015625,178368.984375,-705665.6875,182704.515625,-0.00048828125,0.9853515625,-0.22509765625,-2.502441167831421,0.1831054538488388,0.9765624403953552,93.33334350585938,92074.0,1.0
12:03:55.790694,202410.171875,197410.609375,227607.90625,213813.125,226491.75,178357.1875,-705663.75,182702.625,0.0,0.985595703125,-0.225830078125,-2.502441167831421,0.0,1.0375975370407104,93.33334350585938,92075.0,1.0
12:03:55.795180,202399.171875,197399.078125,227596.296875,213812.859375,226458.671875,178341.890625,-705665.0625,182698.703125,0.0,0.982666015625,-0.223388671875,-2.471923589706421,-0.1220703050494194,1.0986326932907104,93.33334350585938,92076.0,1.0
12:03:55.795247,202404.53125,197408.296875,227594.59375,213809.203125,226460.90625,178348.15625,-705659.6875,182693.25,0.001953125,0.98291015625,-0.224853515625,-2.441406011581421,-0.1525878757238388,1.0375975370407104,93.33334350585938,92077.0,1.0
12:03:55.802806,202417.40625,197419.5625,227602.28125,213808.484375,226489.078125,178360.3125,-705659.0,182695.03125,0.00341796875,0.98291015625,-0.224609375,-2.502441167831421,-0.2136230319738388,0.9765624403953552,93.33334350585938,92078.0,1.0
12:03:55.808930,202410.078125,197411.78125,227601.484375,213806.78125,226487.203125,178354.046875,-705662.5625,182692.796875,0.0029296875,0.983154296875,-0.223876953125,-2.471923589706421,-0.2136230319738388,1.0070799589157104,93.33334350585938,92079.0,1.0
12:03:55.809030,202397.015625,197398.375,227590.921875,213804.8125,226454.109375,178337.25,-705665.375,182688.59375,0.005126953125,0.98388671875,-0.225830078125,-2.502441167831421,-0.2441406100988388,1.0681151151657104,93.33334350585938,92080.0,1.0
12:03:55.818876,202402.75,197408.5625,227592.53125,213807.5,226454.5625,178347.625,-705666.25,182689.75,0.00537109375,0.98388671875,-0.223876953125,-2.441406011581421,-0.3051757514476776,1.0070799589157104,93.33334350585938,92081.0,1.0
12:03:55.818959,202419.109375,197421.25,227604.421875,213812.0625,226488.453125,178361.03125,-705660.1875,182698.515625,0.006103515625,0.98388671875,-0.224365234375,-2.441406011581421,-0.2441406100988388,0.9155272841453552,93.33334350585938,92082.0,1.0
12:03:55.824359,202414.09375,197415.171875,227605.234375,213806.875,226493.640625,178353.15625,-705660.1875,182694.9375,0.00634765625,0.98583984375,-0.222900390625,-2.380370855331421,-0.2441406100988388,0.8850097060203552,93.33334350585938,92083.0,1.0
12:03:55.825896,202402.921875,197402.65625,227596.5625,213807.046875,226464.21875,178338.671875,-705659.375,182695.75,0.00732421875,0.983154296875,-0.223876953125,-2.288818120956421,-0.2441406100988388,1.0070799589157104,93.33334350585938,92084.0,1.0
12:03:55.830394,202403.453125,197408.109375,227593.875,213807.953125,226457.421875,178344.3125,-705663.5625,182694.859375,0.007080078125,0.984375,-0.22607421875,-2.288818120956421,-0.2746581733226776,0.9765624403953552,93.33334350585938,92085.0,1.0
12:03:55.830486,202419.46875,197421.875,227604.96875,213812.6875,226489.4375,178360.765625,-705672.5625,182702.625,0.007568359375,0.984375,-0.224853515625,-2.166747808456421,-0.3051757514476776,1.0070799589157104,93.33334350585938,92086.0,1.0
12:03:55.839631,202421.609375,197424.65625,227612.109375,213813.046875,226505.96875,178367.734375,-705671.9375,182705.3125,0.00830078125,0.983154296875,-0.227294921875,-2.014159917831421,-0.0915527269244194,0.9460448622703552,93.33334350585938,92087.0,1.0
12:03:55.842680,202405.6875,197408.5625,227602.109375,213811.34375,226474.859375,178349.40625,-705671.0625,182700.9375,0.009765625,0.984375,-0.224365234375,-1.9531248807907104,-0.1220703050494194,0.9460448622703552,93.33334350585938,92088.0,1.0
12:03:55.842751,202402.921875,197411.328125,227596.734375,213810.8125,226460.640625,178350.03125,-705674.9375,182697.265625,0.0107421875,0.983642578125,-0.2265625,-2.014159917831421,0.03051757626235485,0.9460448622703552,93.33334350585938,92089.0,1.0
12:03:55.849439,202419.828125,197425.28125,227605.765625,213813.578125,226488.984375,178367.28125,-705672.0625,182702.28125,0.00927734375,0.9853515625,-0.228271484375,-1.9836424589157104,0.0,0.9765624403953552,93.33334350585938,92090.0,1.0
12:03:55.853749,202422.0625,197425.375,227611.578125,213812.6875,226507.765625,178369.515625,-705674.625,182702.71875,0.010498046875,0.98583984375,-0.224609375,-1.8920897245407104,-0.03051757626235485,1.0375975370407104,93.33334350585938,92091.0,1.0
12:03:55.853766,202406.765625,197407.046875,227601.921875,213810.359375,226481.65625,178349.5,-705677.75,182697.890625,0.008056640625,0.985595703125,-0.2255859375,-1.8615721464157104,0.0,1.0070799589157104,93.33334350585938,92092.0,1.0
12:03:55.863199,202404.4375,197406.6875,227598.265625,213814.65625,226461.890625,178347.625,-705676.8125,182698.96875,0.00732421875,0.984375,-0.2255859375,-1.7700194120407104,0.0915527269244194,0.9460448622703552,93.33334350585938,92093.0,1.0
12:03:55.867676,202422.421875,197425.015625,227610.421875,213820.546875,226487.5625,178366.296875,-705670.8125,182706.65625,0.00634765625,0.984130859375,-0.226318359375,-1.8005369901657104,0.2441406100988388,0.9155272841453552,93.33334350585938,92094.0,1.0
12:03:55.867700,202432.703125,197435.109375,227622.21875,213821.796875,226515.625,178376.140625,-705664.8125,182710.671875,0.006103515625,0.982421875,-0.22705078125,-1.7700194120407104,0.1525878757238388,0.7934569716453552,93.33334350585938,92095.0,1.0
12:03:55.876937,202420.359375,197421.703125,227617.75,213821.625,226498.90625,178362.28125,-705671.875,182709.875,0.006103515625,0.981689453125,-0.225830078125,-1.6784666776657104,0.2136230319738388,0.7019042372703552,93.33334350585938,92096.0,1.0
12:03:55.880044,202413.296875,197412.9375,227611.125,213824.046875,226472.625,178349.40625,-705674.75,182711.03125,0.00634765625,0.986083984375,-0.2265625,-1.5869139432907104,0.3051757514476776,0.7019042372703552,93.33334350585938,92097.0,1.0
12:03:55.880067,202422.5,197421.703125,227615.25,213824.3125,226488.53125,178361.03125,-705675.625,182709.0625,0.008056640625,0.986328125,-0.231201171875,-1.4648436307907104,0.3356933295726776,0.7629393935203552,93.33334350585938,92098.0,1.0
12:03:55.883200,202434.03125,197433.0625,227624.09375,213823.953125,226518.046875,178375.328125,-705670.25,182712.46875,0.010498046875,0.9892578125,-0.228271484375,-1.4648436307907104,0.4272460639476776,0.7934569716453552,93.33334350585938,92099.0,1.0
12:03:55.898751,202421.34375,197424.46875,227615.25,213814.734375,226501.0625,178363.984375,-705673.375,182703.890625,0.0107421875,0.98876953125,-0.22998046875,-1.4343260526657104,0.4577636420726776,0.7629393935203552,93.33334350585938,92100.0,1.0
12:03:55.898776,202409.1875,197414.015625,227603.171875,213812.328125,226467.265625,178349.9375,-705673.3125,182699.859375,0.00830078125,0.98828125,-0.227783203125,-1.3732908964157104,0.4882812201976776,0.7324218153953552,93.33334350585938,92101.0,1.0
12:03:55.901329,202418.125,197425.375,227608.09375,213815.8125,226478.25,178362.734375,-705670.8125,182703.796875,0.006591796875,0.986572265625,-0.2265625,-1.3427733182907104,0.5493163466453552,0.7019042372703552,93.33334350585938,92102.0,1.0
12:03:55.901341,202432.25,197437.078125,227619.359375,213819.84375,226511.0625,178378.28125,-705674.125,182711.296875,0.00537109375,0.98193359375,-0.233642578125,-1.3732908964157104,0.5187987685203552,0.6103515028953552,93.33334350585938,92103.0,1.0
12:03:55.903198,202424.921875,197429.921875,227615.328125,213816.265625,226504.984375,178370.859375,-705671.1875,182706.65625,0.00732421875,0.98291015625,-0.23388671875,-1.2512205839157104,0.4882812201976776,0.5187987685203552,93.33334350585938,92104.0,1.0
12:03:55.906953,202412.40625,197416.703125,227604.96875,213816.4375,226472.0,178353.875,-705661.9375,182703.703125,0.00537109375,0.982666015625,-0.232666015625,-1.0986326932907104,0.4882812201976776,0.4272460639476776,93.33334350585938,92105.0,1.0
12:03:55.917606,202417.3125,197426.359375,227605.234375,213815.546875,226470.921875,178361.65625,-705670.5625,182700.75,0.00634765625,0.98388671875,-0.2294921875,-0.9765624403953552,0.4577636420726776,0.5187987685203552,93.33334350585938,92106.0,1.0
12:03:55.917637,202436.8125,197442.796875,227617.5625,213820.28125,226504.1875,178378.375,-705668.8125,182708.625,0.00537109375,0.984619140625,-0.228271484375,-0.9155272841453552,0.5798339247703552,0.4577636420726776,93.33334350585938,92107.0,1.0
12:03:55.920020,202433.234375,197440.921875,227621.328125,213818.046875,226512.5,178379.171875,-705672.9375,182709.6875,0.00390625,0.982666015625,-0.22705078125,-0.9155272841453552,0.5493163466453552,0.4272460639476776,93.33334350585938,92108.0,1.0
12:03:55.920031,202417.140625,197424.390625,227610.859375,213818.578125,226482.28125,178360.671875,-705677.0,182708.4375,0.00390625,0.984619140625,-0.228515625,-0.8544921278953552,0.4882812201976776,0.4577636420726776,93.33334350585938,92109.0,1.0
12:03:55.928204,202415.078125,197427.25,227606.75,213817.78125,226474.046875,178363.265625,-705678.25,182706.65625,0.005126953125,0.986083984375,-0.22998046875,-0.7629393935203552,0.5493163466453552,0.3051757514476776,93.33334350585938,92110.0,1.0
12:03:55.931985,202432.515625,197441.640625,227616.59375,213820.640625,226504.0,178381.765625,-705675.875,182711.84375,0.0029296875,0.984619140625,-0.231201171875,-0.8239745497703552,0.3662109076976776,0.1831054538488388,93.33334350585938,92111.0,1.0
12:03:55.960047,202432.0625,197441.8125,227620.15625,213816.171875,226516.703125,178384.8125,-705678.5,182710.671875,0.00244140625,0.986572265625,-0.231689453125,-0.7629393935203552,0.2441406100988388,0.0610351525247097,93.33334350585938,92112.0,1.0
12:03:55.960065,202415.890625,197423.9375,227608.984375,213813.3125,226484.78125,178361.75,-705677.875,182706.390625,0.001708984375,0.987060546875,-0.2314453125,-0.7324218153953552,0.1831054538488388,-0.03051757626235485,93.33334350585938,92113.0,1.0
12:03:55.961950,202410.96875,197423.3125,227601.828125,213810.0,226466.640625,178358.25,-705682.0625,182700.578125,0.001220703125,0.98583984375,-0.231201171875,-0.7019042372703552,0.1831054538488388,0.1220703050494194,93.33334350585938,92114.0,1.0
12:03:55.964396,202428.9375,197439.859375,227613.28125,213814.390625,226495.609375,178377.484375,-705671.8125,182706.03125,0.001953125,0.985107421875,-0.230712890625,-0.5798339247703552,0.2136230319738388,0.0610351525247097,93.33334350585938,92115.0,1.0
12:03:55.967498,202433.859375,197445.75,227622.84375,213814.65625,226518.671875,178384.8125,-705670.6875,182709.6875,0.00341796875,0.985107421875,-0.231201171875,-0.6408690810203552,0.0610351525247097,0.0915527269244194,93.33334350585938,92116.0,1.0
12:03:55.967522,202419.015625,197427.875,227613.90625,213812.59375,226493.640625,178365.40625,-705670.625,182706.390625,0.00146484375,0.98291015625,-0.229248046875,-0.5493163466453552,0.0915527269244194,0.0610351525247097,93.33334350585938,92117.0,1.0
12:03:55.970627,202409.359375,197420.71875,227603.359375,213809.734375,226466.984375,178357.453125,-705670.6875,182701.296875,0.003173828125,0.982666015625,-0.231201171875,-0.5493163466453552,0.03051757626235485,0.0915527269244194,93.33334350585938,92118.0,1.0
12:03:55.970645,202421.96875,197434.3125,227609.25,213809.640625,226486.65625,178373.015625,-705671.3125,182702.359375,0.00244140625,0.98291015625,-0.2314453125,-0.4882812201976776,-0.03051757626235485,0.0610351525247097,93.33334350585938,92119.0,1.0
12:03:55.970651,202429.75,197442.09375,227616.40625,213807.59375,226511.15625,178383.5625,-705664.25,182703.078125,0.00244140625,0.98388671875,-0.230224609375,-0.4577636420726776,-0.2136230319738388,0.1220703050494194,93.33334350585938,92120.0,1.0
12:03:55.973203,202416.953125,197427.421875,227608.453125,213806.609375,226491.3125,178367.640625,-705659.0,182700.390625,0.001953125,0.983642578125,-0.228271484375,-0.4577636420726776,-0.2136230319738388,0.1220703050494194,93.33334350585938,92121.0,1.0
12:03:55.975695,202405.875,197417.859375,227596.734375,213805.4375,226460.109375,178355.65625,-705659.5625,182697.453125,0.000732421875,0.983642578125,-0.229248046875,-0.4577636420726776,-0.2441406100988388,0.1525878757238388,93.33334350585938,92122.0,1.0
12:03:55.979507,202415.703125,197429.125,227600.40625,213805.796875,226474.859375,178367.640625,-705656.75,182698.78125,0.002197265625,0.986328125,-0.22998046875,-0.5493163466453552,-0.2746581733226776,0.0915527269244194,93.33334350585938,92123.0,1.0
12:03:56.007694,202425.8125,197437.4375,227609.703125,213806.15625,226503.734375,178379.53125,-705654.375,182702.8125,0.003173828125,0.988037109375,-0.232666015625,-0.5187987685203552,-0.3356933295726776,0.1831054538488388,93.33334350585938,92124.0,1.0
12:03:56.007776,202415.890625,197428.59375,227607.203125,213804.734375,226494.171875,178371.21875,-705654.625,182700.484375,0.0048828125,0.98779296875,-0.229736328125,-0.5798339247703552,-0.3051757514476776,0.2746581733226776,93.33334350585938,92125.0,1.0
12:03:56.033374,202402.75,197416.515625,227595.21875,213802.9375,226460.109375,178355.484375,-705658.1875,182695.484375,0.00634765625,0.98828125,-0.229248046875,-0.6713866591453552,-0.2136230319738388,0.2441406100988388,93.33334350585938,92126.0,1.0
12:03:56.033641,202410.796875,197426.703125,227596.46875,213803.46875,226466.359375,178365.671875,-705660.6875,182694.5,0.005126953125,0.988525390625,-0.231689453125,-0.6408690810203552,-0.3662109076976776,0.3356933295726776,93.33334350585938,92127.0,1.0
12:03:56.033677,202425.984375,197437.890625,227606.75,213806.6875,226497.484375,178380.703125,-705666.3125,182700.75,0.004638671875,0.98828125,-0.23291015625,-0.6103515028953552,-0.5493163466453552,0.3967284858226776,93.33334350585938,92128.0,1.0
12:03:56.036434,202415.265625,197426.53125,227603.171875,213802.21875,226492.65625,178368.984375,-705673.5625,182697.0,0.005126953125,0.987060546875,-0.233154296875,-0.7629393935203552,-0.4577636420726776,0.4272460639476776,93.33334350585938,92129.0,1.0
12:03:56.036501,202396.84375,197407.75,227588.25,213797.125,226455.28125,178344.9375,-705672.4375,182690.921875,0.0068359375,0.989013671875,-0.23193359375,-0.7934569716453552,-0.3967284858226776,0.4577636420726776,93.33334350585938,92130.0,1.0
12:03:56.038407,202400.59375,197413.828125,227587.703125,213796.0625,226454.828125,178352.4375,-705672.5625,182688.859375,0.0048828125,0.990234375,-0.2333984375,-0.8544921278953552,-0.2746581733226776,0.3967284858226776,93.33334350585938,92131.0,1.0
12:03:56.042811,202418.03125,197426.078125,227600.21875,213799.71875,226489.875,178371.21875,-705668.125,182697.265625,0.00537109375,0.990234375,-0.229248046875,-0.9460448622703552,-0.3051757514476776,0.4882812201976776,93.33334350585938,92132.0,1.0
12:03:56.043683,202410.171875,197419.203125,227600.5,213795.703125,226495.6875,178366.921875,-705663.5,182695.5625,0.006103515625,0.99072265625,-0.23193359375,-1.0070799589157104,-0.3051757514476776,0.3662109076976776,93.33334350585938,92133.0,1.0
12:03:56.045903,202393.171875,197404.359375,227585.828125,213789.265625,226458.40625,178344.3125,-705664.8125,182685.640625,0.007080078125,0.989990234375,-0.2314453125,-1.0681151151657104,-0.3967284858226776,0.3356933295726776,93.33334350585938,92134.0,1.0
12:03:56.048401,202393.796875,197412.671875,227578.5,213784.515625,226445.0,178348.0625,-705664.8125,182677.234375,0.0068359375,0.98974609375,-0.2314453125,-1.1901854276657104,-0.2746581733226776,0.2746581733226776,93.33334350585938,92135.0,1.0
12:03:56.050787,202417.5,197433.765625,227592.890625,213792.390625,226478.25,178371.484375,-705657.3125,182685.90625,0.006591796875,0.988525390625,-0.23291015625,-1.2207030057907104,-0.2746581733226776,0.3356933295726776,93.33334350585938,92136.0,1.0
12:03:56.053291,202421.78125,197437.703125,227604.96875,213795.78125,226500.609375,178378.90625,-705662.6875,182690.734375,0.00732421875,0.986328125,-0.232421875,-1.3732908964157104,-0.2136230319738388,0.3662109076976776,93.33334350585938,92137.0,1.0
12:03:56.055709,202407.21875,197423.21875,227595.578125,213793.640625,226470.84375,178362.734375,-705668.9375,182685.203125,0.005859375,0.988037109375,-0.234619140625,-1.4648436307907104,-0.1831054538488388,0.3967284858226776,93.33334350585938,92138.0,1.0
12:03:56.058236,202406.5,197426.703125,227590.84375,213794.171875,226453.21875,178363.0,-705667.375,182683.5,0.007080078125,0.986328125,-0.233154296875,-1.4038084745407104,-0.1525878757238388,0.3662109076976776,93.33334350585938,92139.0,1.0
12:03:56.060735,202421.703125,197443.609375,227599.15625,213795.25,226478.609375,178381.140625,-705659.0,182686.71875,0.008544921875,0.987060546875,-0.233154296875,-1.5563963651657104,-0.1220703050494194,0.2136230319738388,93.33334350585938,92140.0,1.0
12:03:56.063360,202427.59375,197448.875,227606.21875,213794.890625,226498.546875,178386.421875,-705657.1875,182689.125,0.008544921875,0.98583984375,-0.23291015625,-1.5563963651657104,-0.1220703050494194,0.2441406100988388,93.33334350585938,92141.0,1.0
12:03:56.066281,202416.6875,197436.90625,227602.546875,213797.9375,226478.796875,178373.28125,-705664.0,182690.921875,0.0087890625,0.9873046875,-0.231689453125,-1.5869139432907104,-0.03051757626235485,0.3356933295726776,93.33334350585938,92142.0,1.0
12:03:56.066312,202410.796875,197435.921875,227594.6875,213797.9375,226454.921875,178371.578125,-705664.25,182687.609375,0.006591796875,0.98779296875,-0.23291015625,-1.5258787870407104,0.0610351525247097,0.3051757514476776,93.33334350585938,92143.0,1.0
12:03:56.068252,202426.171875,197451.296875,227603.4375,213803.75,226477.71875,178387.9375,-705664.25,182694.140625,0.0078125,0.98876953125,-0.232421875,-1.5563963651657104,0.0610351525247097,0.3051757514476776,93.33334350585938,92144.0,1.0
12:03:56.071308,202436.453125,197459.171875,227613.546875,213803.921875,226505.078125,178397.234375,-705666.3125,182700.125,0.007080078125,0.990234375,-0.22900390625,-1.6784666776657104,0.1831054538488388,0.2746581733226776,93.33334350585938,92145.0,1.0
12:03:56.071341,202423.125,197444.59375,227605.328125,213800.171875,226484.96875,178380.875,-705668.6875,182694.578125,0.0078125,0.98876953125,-0.234130859375,-1.7395018339157104,0.1831054538488388,0.2136230319738388,93.33334350585938,92146.0,1.0
12:03:56.077037,202412.125,197436.09375,227595.046875,213797.9375,226455.09375,178370.0625,-705674.4375,182690.734375,0.006103515625,0.987060546875,-0.23291015625,-1.7700194120407104,0.3051757514476776,0.2441406100988388,93.33334350585938,92147.0,1.0
12:03:56.086251,202421.078125,197445.9375,227597.1875,213798.203125,226468.15625,178382.578125,-705678.6875,182690.296875,0.00439453125,0.9873046875,-0.2314453125,-1.8310545682907104,0.3356933295726776,0.1831054538488388,93.33334350585938,92148.0,1.0
12:03:56.086271,202429.484375,197453.171875,227603.4375,213795.609375,226495.25,178393.65625,-705671.3125,182691.71875,0.003662109375,0.9873046875,-0.230712890625,-1.9226073026657104,0.2441406100988388,0.1831054538488388,93.33334350585938,92149.0,1.0
12:03:56.088722,202415.171875,197439.5,227596.46875,213790.78125,226482.640625,178378.640625,-705663.9375,182686.453125,0.00341796875,0.987060546875,-0.229736328125,-2.014159917831421,0.1831054538488388,0.1220703050494194,93.33334350585938,92150.0,1.0
12:03:56.088742,202403.90625,197428.59375,227587.890625,213791.234375,226451.4375,178365.953125,-705668.8125,182685.828125,0.005126953125,0.98974609375,-0.2314453125,-2.105712652206421,0.3356933295726776,0.1220703050494194,93.33334350585938,92151.0,1.0
12:03:56.103160,202414.546875,197442.0,227592.71875,213793.375,226460.109375,178378.640625,-705671.5,182686.0,0.006103515625,0.989013671875,-0.232421875,-2.288818120956421,0.2746581733226776,0.03051757626235485,93.33334350585938,92152.0,1.0
12:03:56.106273,202430.546875,197453.265625,227604.96875,213795.78125,226492.109375,178391.78125,-705658.8125,182691.453125,0.005615234375,0.9873046875,-0.229736328125,-2.227782964706421,0.1831054538488388,0.0610351525247097,93.33334350585938,92153.0,1.0
12:03:56.106292,202422.140625,197443.78125,227601.921875,213793.109375,226488.625,178382.484375,-705668.5625,182688.859375,0.003173828125,0.98876953125,-0.22802734375,-2.349853277206421,0.1525878757238388,0.0,93.33334350585938,92154.0,1.0
12:03:56.108224,202407.390625,197427.875,227589.3125,213792.296875,226453.140625,178363.53125,-705671.0625,182684.484375,0.00439453125,0.989013671875,-0.2265625,-2.380370855331421,0.1525878757238388,0.0,93.33334350585938,92155.0,1.0
12:03:56.111951,202409.8125,197433.0625,227586.28125,213789.4375,226449.203125,178368.984375,-705666.75,182678.40625,0.0048828125,0.98876953125,-0.22509765625,-2.380370855331421,0.0915527269244194,0.0610351525247097,93.33334350585938,92156.0,1.0
12:03:56.122055,202425.71875,197445.484375,227597.1875,213792.296875,226481.921875,178385.609375,-705668.0,182682.515625,0.003173828125,0.98876953125,-0.2265625,-2.471923589706421,0.1525878757238388,0.0915527269244194,93.33334350585938,92157.0,1.0
12:03:56.125136,202423.75,197441.8125,227599.875,213789.96875,226490.140625,178382.484375,-705664.625,182680.015625,0.00244140625,0.988037109375,-0.225341796875,-2.502441167831421,0.1831054538488388,0.1525878757238388,93.33334350585938,92158.0,1.0
12:03:56.125154,202414.28125,197430.375,227592.71875,213793.375,226461.265625,178368.8125,-705667.125,182681.171875,0.0,0.98779296875,-0.22314453125,-2.624511480331421,0.1220703050494194,0.0915527269244194,93.33334350585938,92159.0,1.0
12:03:56.131950,202419.015625,197440.125,227594.0625,213797.671875,226455.453125,178377.75,-705672.3125,182683.953125,0.002197265625,0.98876953125,-0.226806640625,-2.624511480331421,0.1220703050494194,0.1831054538488388,93.33334350585938,92160.0,1.0
12:03:56.145166,202434.9375,197453.796875,227604.703125,213801.234375,226488.09375,178396.875,-705668.8125,182692.4375,0.0029296875,0.98876953125,-0.224365234375,-2.746581792831421,0.1220703050494194,0.1525878757238388,93.33334350585938,92161.0,1.0
12:03:56.145178,202431.71875,197449.859375,227608.09375,213796.328125,226502.125,178394.015625,-705664.4375,182692.625,0.001220703125,0.98828125,-0.223388671875,-2.716064214706421,0.0610351525247097,0.2441406100988388,93.33334350585938,92162.0,1.0
12:03:56.148158,202416.78125,197435.46875,227598.609375,213795.515625,226474.140625,178378.640625,-705660.875,182691.359375,-0.000244140625,0.98681640625,-0.222412109375,-2.746581792831421,0.0,0.3662109076976776,93.33334350585938,92163.0,1.0
12:03:56.148168,202407.65625,197430.90625,227585.390625,213789.625,226450.0,178372.203125,-705657.8125,182684.296875,-0.00048828125,0.988525390625,-0.22216796875,-2.777099370956421,-0.03051757626235485,0.2746581733226776,93.33334350585938,92164.0,1.0
12:03:56.148173,202412.765625,197433.5,227582.25,213783.265625,226465.5625,178376.859375,-705664.8125,182680.640625,-0.001708984375,0.98779296875,-0.224609375,-2.685546636581421,-0.0610351525247097,0.4272460639476776,93.33334350585938,92165.0,1.0
12:03:56.151992,202411.953125,197431.890625,227584.3125,213778.078125,226482.546875,178378.28125,-705673.5625,182678.9375,-0.000732421875,0.9873046875,-0.22412109375,-2.777099370956421,-0.0915527269244194,0.3662109076976776,93.33334350585938,92166.0,1.0
12:03:56.155699,202394.078125,197414.546875,227572.515625,213771.015625,226454.296875,178359.328125,-705675.375,182672.140625,-0.000244140625,0.98681640625,-0.221923828125,-2.777099370956421,-0.1831054538488388,0.3356933295726776,93.33334350585938,92167.0,1.0
12:03:56.166324,202383.34375,197409.640625,227561.515625,213765.65625,226427.03125,178350.921875,-705676.4375,182665.4375,0.0009765625,0.98681640625,-0.22216796875,-2.777099370956421,-0.3051757514476776,0.3967284858226776,93.33334350585938,92168.0,1.0
12:03:56.166339,202393.53125,197419.828125,227565.625,213764.5,226446.0625,178361.203125,-705682.8125,182665.703125,0.001708984375,0.98681640625,-0.22509765625,-2.746581792831421,-0.3967284858226776,0.5187987685203552,93.33334350585938,92169.0,1.0
12:03:56.168751,202405.875,197432.15625,227578.671875,213765.921875,226475.9375,178375.15625,-705675.375,182670.4375,0.00244140625,0.984619140625,-0.22509765625,-2.624511480331421,-0.3967284858226776,0.4272460639476776,93.33334350585938,92170.0,1.0
12:03:56.168768,202405.25,197431.53125,227582.34375,213773.609375,226466.1875,178370.421875,-705670.8125,182674.203125,0.0029296875,0.985107421875,-0.22314453125,-2.563476324081421,-0.3356933295726776,0.3967284858226776,93.33334350585938,92171.0,1.0
12:03:56.178286,202403.8125,197431.625,227580.015625,213779.515625,226444.015625,178366.75,-705668.75,182675.546875,0.0009765625,0.984375,-0.22265625,-2.471923589706421,-0.3967284858226776,0.4882812201976776,93.33334350585938,92172.0,1.0
12:03:56.181358,202417.59375,197449.515625,227588.0625,213782.828125,226462.34375,178387.765625,-705666.875,182678.046875,0.0029296875,0.985107421875,-0.22021484375,-2.349853277206421,-0.3967284858226776,0.5798339247703552,93.33334350585938,92173.0,1.0
12:03:56.181375,202435.109375,197463.8125,227603.53125,213791.578125,226495.875,178402.609375,-705662.75,182688.765625,0.00390625,0.9853515625,-0.220458984375,-2.319335699081421,-0.4882812201976776,0.6408690810203552,93.33334350585938,92174.0,1.0
12:03:56.188252,202423.484375,197453.265625,227597.8125,213786.84375,226483.078125,178391.421875,-705667.5,182681.625,0.00341796875,0.987548828125,-0.219970703125,-2.288818120956421,-0.5187987685203552,0.6713866591453552,93.33334350585938,92175.0,1.0
12:03:56.195089,202410.96875,197441.546875,227587.796875,213785.421875,226452.0625,178378.90625,-705671.3125,182679.125,0.001953125,0.98583984375,-0.220703125,-2.258300542831421,-0.5493163466453552,0.7019042372703552,93.33334350585938,92176.0,1.0
12:03:56.195111,202419.734375,197453.171875,227591.546875,213789.171875,226460.015625,178390.4375,-705674.375,182681.078125,0.00244140625,0.985107421875,-0.21875,-2.227782964706421,-0.5798339247703552,0.7629393935203552,93.33334350585938,92177.0,1.0
12:03:56.202024,202437.875,197467.484375,227603.265625,213792.203125,226493.8125,178405.640625,-705666.9375,182687.796875,0.00439453125,0.98291015625,-0.222900390625,-2.044677495956421,-0.6713866591453552,0.6408690810203552,93.33334350585938,92178.0,1.0
12:03:56.208724,202429.65625,197459.171875,227601.65625,213788.359375,226492.296875,178397.59375,-705659.0625,182684.296875,0.002197265625,0.982421875,-0.222900390625,-2.014159917831421,-0.5187987685203552,0.4882812201976776,93.33334350585938,92179.0,1.0
12:03:56.208734,202414.8125,197444.234375,227590.03125,213787.109375,226459.125,178380.609375,-705657.5,182680.640625,0.001220703125,0.98388671875,-0.2216796875,-1.8920897245407104,-0.4577636420726776,0.5187987685203552,93.33334350585938,92180.0,1.0
12:03:56.215029,202418.5625,197455.40625,227590.484375,213786.671875,226458.234375,178391.875,-705656.4375,182677.515625,0.003173828125,0.982177734375,-0.221435546875,-1.8615721464157104,-0.4577636420726776,0.3967284858226776,93.33334350585938,92181.0,1.0
12:03:56.215042,202440.75,197473.109375,227605.859375,213793.28125,226494.625,178411.0,-705652.8125,182686.53125,0.00390625,0.982421875,-0.219482421875,-1.8310545682907104,-0.4272460639476776,0.4882812201976776,93.33334350585938,92182.0,1.0
12:03:56.220646,202437.875,197467.21875,227607.5625,213791.9375,226500.609375,178403.046875,-705648.0625,182686.359375,0.004150390625,0.98046875,-0.21923828125,-1.6479490995407104,-0.4577636420726776,0.5493163466453552,93.33334350585938,92183.0,1.0
12:03:56.236874,202423.390625,197452.28125,227597.625,213792.03125,226467.4375,178383.828125,-705646.125,182685.375,0.0048828125,0.979736328125,-0.22314453125,-1.4648436307907104,-0.4272460639476776,0.6103515028953552,93.33334350585938,92184.0,1.0
12:03:56.236887,202421.78125,197456.125,227594.328125,213790.15625,226458.234375,178387.671875,-705649.875,182682.78125,0.00439453125,0.98046875,-0.2236328125,-1.3427733182907104,-0.4577636420726776,0.5493163466453552,93.33334350585938,92185.0,1.0
12:03:56.236888,202438.6875,197471.59375,227605.671875,213794.09375,226489.796875,178406.09375,-705655.5,182689.3125,0.00537109375,0.979736328125,-0.2236328125,-1.1596678495407104,-0.3662109076976776,0.5798339247703552,93.33334350585938,92186.0,1.0
12:03:56.242478,202440.203125,197471.953125,227612.203125,213795.25,226505.609375,178405.640625,-705656.125,182691.8125,0.006103515625,0.978759765625,-0.22509765625,-1.0070799589157104,-0.3356933295726776,0.5187987685203552,93.33334350585938,92187.0,1.0
12:03:56.242490,202428.578125,197457.28125,227605.5,213797.578125,226478.4375,178388.921875,-705660.1875,182692.265625,0.006591796875,0.977783203125,-0.224365234375,-0.8544921278953552,-0.2746581733226776,0.3662109076976776,93.33334350585938,92188.0,1.0
12:03:56.244508,202426.609375,197457.90625,227601.03125,213798.828125,226461.265625,178389.546875,-705668.5625,182690.5625,0.0068359375,0.979248046875,-0.225341796875,-0.6713866591453552,-0.2136230319738388,0.3967284858226776,93.33334350585938,92189.0,1.0
12:03:56.246876,202443.15625,197472.75,227608.8125,213801.515625,226488.453125,178407.25,-705665.6875,182694.234375,0.0068359375,0.978759765625,-0.228271484375,-0.5187987685203552,-0.1220703050494194,0.3967284858226776,93.33334350585938,92190.0,1.0
12:03:56.254381,202446.828125,197476.59375,227614.34375,213799.0,226508.65625,178411.90625,-705653.8125,182695.65625,0.007568359375,0.979248046875,-0.2265625,-0.4272460639476776,-0.0915527269244194,0.3662109076976776,93.33334350585938,92191.0,1.0
12:03:56.258771,202431.796875,197460.953125,227605.953125,213797.125,226485.046875,178396.078125,-705650.75,182692.53125,0.007080078125,0.98095703125,-0.22900390625,-0.2136230319738388,0.0610351525247097,0.3051757514476776,93.33334350585938,92192.0,1.0
12:03:56.258780,202422.59375,197454.6875,227596.46875,213794.53125,226458.59375,178387.765625,-705657.6875,182688.0625,0.007568359375,0.98095703125,-0.228515625,-0.1525878757238388,0.0915527269244194,0.2441406100988388,93.33334350585938,92193.0,1.0
12:03:56.265723,202435.46875,197466.140625,227601.390625,213793.28125,226476.46875,178400.375,-705655.25,182686.890625,0.0068359375,0.984619140625,-0.226806640625,0.0610351525247097,0.1525878757238388,0.0915527269244194,93.33334350585938,92194.0,1.0
12:03:56.273722,202443.609375,197471.59375,227608.625,213792.390625,226502.03125,178408.859375,-705658.125,182689.40625,0.005126953125,0.9853515625,-0.226318359375,0.0610351525247097,0.0915527269244194,0.03051757626235485,93.33334350585938,92195.0,1.0
12:03:56.273739,202429.125,197457.734375,227601.484375,213790.328125,226485.140625,178394.203125,-705654.625,182685.46875,0.005615234375,0.988525390625,-0.223388671875,0.0610351525247097,0.1831054538488388,0.0915527269244194,93.33334350585938,92196.0,1.0
12:03:56.276245,202418.03125,197448.53125,227591.90625,213788.8125,226456.359375,178381.953125,-705649.875,182681.359375,0.004638671875,0.991943359375,-0.220947265625,0.03051757626235485,0.2136230319738388,-0.0915527269244194,93.33334350585938,92197.0,1.0
12:03:56.276262,202427.421875,197459.34375,227595.390625,213788.71875,226468.421875,178393.75,-705650.5,182681.078125,0.003662109375,0.994384765625,-0.221923828125,-0.0610351525247097,0.2136230319738388,-0.1220703050494194,93.33334350585938,92198.0,1.0
12:03:56.282007,202440.46875,197469.265625,227604.875,213791.046875,226497.484375,178407.15625,-705646.75,182686.359375,0.001708984375,0.9912109375,-0.2265625,-0.1525878757238388,0.2746581733226776,-0.2136230319738388,93.33334350585938,92199.0,1.0
12:03:56.292078,202430.90625,197459.609375,227601.828125,213788.09375,226487.734375,178397.59375,-705650.75,182683.59375,0.000732421875,0.994384765625,-0.22509765625,-0.2441406100988388,0.3051757514476776,-0.1831054538488388,93.33334350585938,92200.0,1.0
12:03:56.295033,202418.21875,197447.359375,227590.21875,213786.75,226453.671875,178383.375,-705656.125,182680.640625,0.00244140625,0.99560546875,-0.22412109375,-0.3967284858226776,0.3051757514476776,-0.2136230319738388,93.33334350585938,92201.0,1.0
12:03:56.295043,202425.640625,197457.5625,227592.984375,213789.078125,226460.546875,178397.234375,-705651.5,182681.984375,0.00244140625,0.99462890625,-0.222412109375,-0.4882812201976776,0.2746581733226776,-0.1831054538488388,93.33334350585938,92202.0,1.0
12:03:56.300710,202438.5,197467.21875,227603.171875,213789.796875,226493.546875,178408.765625,-705647.5625,182688.140625,0.00341796875,0.992431640625,-0.2265625,-0.6103515028953552,0.0915527269244194,-0.1831054538488388,93.33334350585938,92203.0,1.0
12:03:56.307539,202430.28125,197460.859375,227600.671875,213785.234375,226491.40625,178402.515625,-705646.375,182684.578125,0.004150390625,0.992431640625,-0.226318359375,-0.6103515028953552,0.2136230319738388,-0.1831054538488388,93.33334350585938,92204.0,1.0
12:03:56.307548,202417.9375,197448.796875,227592.453125,213786.671875,226459.921875,178388.03125,-705655.25,182685.109375,0.004150390625,0.991455078125,-0.22265625,-0.7934569716453552,0.2441406100988388,-0.03051757626235485,93.33334350585938,92205.0,1.0
12:03:56.316928,202420.625,197456.578125,227590.296875,213785.59375,226456.53125,178394.734375,-705653.0,182682.78125,0.0068359375,0.991943359375,-0.225341796875,-0.8239745497703552,0.3356933295726776,0.0915527269244194,93.33334350585938,92206.0,1.0
12:03:56.322658,202438.0625,197469.625,227599.15625,213788.28125,226486.65625,178409.671875,-705651.125,182686.984375,0.006591796875,0.991943359375,-0.227783203125,-0.8850097060203552,0.3662109076976776,0.2136230319738388,93.33334350585938,92207.0,1.0
12:03:56.322749,202441.453125,197473.109375,227609.34375,213794.0,226502.484375,178416.015625,-705649.875,182693.6875,0.0048828125,0.989990234375,-0.226318359375,-0.9765624403953552,0.3356933295726776,0.2746581733226776,93.33334350585938,92208.0,1.0
12:03:56.325644,202428.3125,197459.703125,227599.6875,213791.671875,226471.015625,178398.125,-705643.0,182689.671875,0.003662109375,0.989990234375,-0.226806640625,-1.1291502714157104,0.2746581733226776,0.3356933295726776,93.33334350585938,92209.0,1.0
12:03:56.335318,202427.78125,197463.015625,227597.09375,213791.3125,226462.078125,178400.375,-705645.6875,182687.703125,0.0009765625,0.99072265625,-0.225830078125,-1.2512205839157104,0.3662109076976776,0.4577636420726776,93.33334350585938,92210.0,1.0
12:03:56.335396,202444.234375,197476.859375,227608.359375,213794.984375,226492.828125,178415.75,-705646.9375,182693.875,0.0009765625,0.9892578125,-0.226318359375,-1.3427733182907104,0.3356933295726776,0.5187987685203552,93.33334350585938,92211.0,1.0
12:03:56.338794,202447.890625,197481.78125,227615.0625,213795.875,226510.0,178420.75,-705638.875,182696.28125,0.0,0.98876953125,-0.22705078125,-1.4343260526657104,0.4272460639476776,0.5493163466453552,93.33334350585938,92212.0,1.0
12:03:56.338866,202434.84375,197467.296875,227608.265625,213798.203125,226483.359375,178403.40625,-705639.625,182695.390625,0.000732421875,0.988037109375,-0.22607421875,-1.5563963651657104,0.4577636420726776,0.5493163466453552,93.33334350585938,92213.0,1.0
12:03:56.344526,202428.5,197466.140625,227600.9375,213792.296875,226463.953125,178400.90625,-705645.3125,182688.328125,-0.000732421875,0.989013671875,-0.228515625,-1.7089842557907104,0.3356933295726776,0.4882812201976776,93.33334350585938,92214.0,1.0
12:03:56.370244,202444.3125,197480.359375,227608.09375,213794.984375,226490.78125,178416.640625,-705648.8125,182693.0625,-0.002197265625,0.989990234375,-0.2275390625,-1.7089842557907104,0.2746581733226776,0.5493163466453552,93.33334350585938,92215.0,1.0
12:03:56.370433,202448.15625,197483.578125,227613.546875,213794.53125,226511.96875,178421.5625,-705643.625,182695.65625,-0.00390625,0.990966796875,-0.2255859375,-1.7395018339157104,0.2136230319738388,0.4577636420726776,93.33334350585938,92216.0,1.0
12:03:56.397022,202438.59375,197471.328125,227609.96875,213795.421875,226491.84375,178408.140625,-705639.3125,182694.5,-0.0029296875,0.99169921875,-0.226318359375,-1.8005369901657104,0.1220703050494194,0.4577636420726776,93.33334350585938,92217.0,1.0
12:03:56.397109,202430.546875,197467.390625,227603.0,213793.015625,226468.15625,178404.921875,-705637.375,182689.40625,-0.001953125,0.991943359375,-0.224853515625,-1.8920897245407104,0.0915527269244194,0.5798339247703552,93.33334350585938,92218.0,1.0
12:03:56.400350,202441.90625,197477.3125,227607.28125,213791.671875,226486.03125,178415.296875,-705644.0,182689.125,0.0,0.992431640625,-0.224609375,-1.9836424589157104,-0.0915527269244194,0.4882812201976776,93.33334350585938,92219.0,1.0
12:03:56.400383,202450.671875,197482.140625,227616.40625,213793.546875,226511.6875,178420.9375,-705649.625,182692.703125,0.00048828125,0.9912109375,-0.22314453125,-2.075195074081421,-0.1831054538488388,0.5187987685203552,93.33334350585938,92220.0,1.0
12:03:56.400392,202440.296875,197470.15625,227612.109375,213793.90625,226496.40625,178408.40625,-705646.5625,182690.921875,0.00048828125,0.989501953125,-0.22412109375,-2.136230230331421,-0.1525878757238388,0.4882812201976776,93.33334350585938,92221.0,1.0
12:03:56.400400,202428.40625,197460.140625,227601.296875,213791.140625,226466.359375,178396.25,-705649.5,182687.4375,0.001708984375,0.9892578125,-0.225830078125,-2.197265386581421,-0.3051757514476776,0.5798339247703552,93.33334350585938,92222.0,1.0
12:03:56.402584,202439.578125,197472.75,227604.15625,213792.921875,226478.53125,178410.65625,-705645.6875,182687.15625,0.00341796875,0.9892578125,-0.22607421875,-2.197265386581421,-0.3662109076976776,0.5493163466453552,93.33334350585938,92223.0,1.0
12:03:56.402803,202451.296875,197482.5,227612.46875,213793.375,226506.59375,178421.828125,-705643.4375,182690.109375,0.00341796875,0.9873046875,-0.226806640625,-2.227782964706421,-0.3051757514476776,0.5798339247703552,93.33334350585938,92224.0,1.0
12:03:56.404764,202440.5625,197471.765625,227609.703125,213789.96875,226497.484375,178409.671875,-705645.25,182686.265625,0.002685546875,0.987548828125,-0.22705078125,-2.227782964706421,-0.1831054538488388,0.6103515028953552,93.33334350585938,92225.0,1.0
12:03:56.407459,202425.90625,197455.59375,227596.5625,213789.265625,226462.875,178391.15625,-705644.3125,182683.140625,0.0029296875,0.9873046875,-0.225830078125,-2.258300542831421,-0.2746581733226776,0.6103515028953552,93.33334350585938,92226.0,1.0
12:03:56.409648,202428.765625,197462.5625,227593.609375,213785.765625,226465.109375,178398.9375,-705645.6875,182679.125,0.00048828125,0.984619140625,-0.22314453125,-2.227782964706421,-0.2746581733226776,0.6408690810203552,93.33334350585938,92227.0,1.0
12:03:56.414499,202442.265625,197473.46875,227604.0625,213787.296875,226496.046875,178411.984375,-705642.5625,182685.015625,0.0,0.9833984375,-0.22314453125,-2.166747808456421,-0.1831054538488388,0.7019042372703552,93.33334350585938,92228.0,1.0
12:03:56.417036,202433.953125,197464.34375,227603.53125,213784.25,226496.140625,178405.015625,-705642.125,182684.125,0.000732421875,0.984130859375,-0.2236328125,-2.166747808456421,-0.2441406100988388,0.7324218153953552,93.33334350585938,92229.0,1.0
12:03:56.419981,202419.734375,197448.53125,227589.859375,213781.75,226461.625,178387.140625,-705653.1875,182681.703125,0.00146484375,0.98486328125,-0.22705078125,-2.044677495956421,-0.2136230319738388,0.6103515028953552,93.33334350585938,92230.0,1.0
12:03:56.422644,202420.53125,197454.25,227586.359375,213780.953125,226456.796875,178391.875,-705659.25,182679.296875,0.001220703125,0.986572265625,-0.22705078125,-1.9836424589157104,-0.2441406100988388,0.6408690810203552,93.33334350585938,92231.0,1.0
12:03:56.422730,202435.28125,197465.875,227595.390625,213779.875,226487.375,178406.625,-705654.25,182680.28125,0.00146484375,0.983642578125,-0.22802734375,-1.9836424589157104,-0.3051757514476776,0.7324218153953552,93.33334350585938,92232.0,1.0
12:03:56.427151,202432.25,197464.796875,227597.0,213777.09375,226495.515625,178405.734375,-705657.1875,182679.125,0.00146484375,0.985107421875,-0.2265625,-1.9836424589157104,-0.1525878757238388,0.7019042372703552,93.33334350585938,92233.0,1.0
12:03:56.429583,202416.875,197448.875,227585.5625,213775.578125,226462.796875,178388.03125,-705668.1875,182675.8125,0.00244140625,0.982666015625,-0.224609375,-1.9531248807907104,-0.1831054538488388,0.7629393935203552,93.33334350585938,92234.0,1.0
12:03:56.433005,202413.296875,197449.6875,227579.03125,213773.53125,226450.8125,178387.40625,-705662.6875,182672.140625,0.000732421875,0.981689453125,-0.224609375,-1.8310545682907104,-0.2136230319738388,0.7629393935203552,93.33334350585938,92235.0,1.0
12:03:56.437241,202430.28125,197465.0625,227589.859375,213778.703125,226483.359375,178404.65625,-705653.625,182680.8125,0.0009765625,0.983154296875,-0.22802734375,-1.8005369901657104,-0.3051757514476776,0.7629393935203552,93.33334350585938,92236.0,1.0
12:03:56.437341,202430.734375,197466.578125,227595.125,213778.53125,226499.796875,178406.8125,-705650.875,182682.6875,0.001953125,0.98388671875,-0.2236328125,-1.6784666776657104,-0.2136230319738388,0.7934569716453552,93.33334350585938,92237.0,1.0
12:03:56.437371,202416.875,197451.65625,227586.71875,213777.375,226472.625,178388.828125,-705650.125,182679.390625,0.002685546875,0.984375,-0.224853515625,-1.5869139432907104,-0.1525878757238388,0.7019042372703552,93.33334350585938,92238.0,1.0
12:03:56.447068,202411.15625,197449.6875,227579.578125,213775.671875,226454.296875,178386.0625,-705655.5,182675.359375,0.003173828125,0.982421875,-0.22216796875,-1.4648436307907104,-0.1525878757238388,0.7629393935203552,93.33334350585938,92239.0,1.0
12:03:56.451455,202424.203125,197460.140625,227586.640625,213776.828125,226477.453125,178400.453125,-705656.5625,182678.484375,0.001220703125,0.981201171875,-0.224365234375,-1.3732908964157104,-0.1831054538488388,0.7934569716453552,93.33334350585938,92240.0,1.0
12:03:56.451546,202432.15625,197465.0625,227596.203125,213779.515625,226500.34375,178407.4375,-705659.875,182682.875,0.001708984375,0.982421875,-0.225830078125,-1.4648436307907104,-0.1220703050494194,0.7629393935203552,93.33334350585938,92241.0,1.0
12:03:56.462005,202419.546875,197453.984375,227590.65625,213780.859375,226479.328125,178392.328125,-705656.4375,182681.265625,0.001953125,0.98193359375,-0.222900390625,-1.2817381620407104,-0.1525878757238388,0.7019042372703552,93.33334350585938,92242.0,1.0
12:03:56.462060,202406.234375,197445.578125,227577.0625,213773.96875,226449.734375,178381.140625,-705658.625,182672.59375,0.005126953125,0.984375,-0.226806640625,-1.1901854276657104,-0.0610351525247097,0.7324218153953552,93.33334350585938,92243.0,1.0
12:03:56.463867,202417.234375,197455.859375,227579.75,213772.90625,226465.46875,178394.109375,-705661.25,182672.046875,0.005615234375,0.987548828125,-0.2294921875,-1.1596678495407104,-0.03051757626235485,0.7629393935203552,93.33334350585938,92244.0,1.0
12:03:56.463920,202427.15625,197464.078125,227588.78125,213773.796875,226492.46875,178404.65625,-705668.9375,182676.4375,0.00537109375,0.988525390625,-0.229736328125,-1.2207030057907104,0.0915527269244194,0.7934569716453552,93.33334350585938,92245.0,1.0
12:03:56.473305,202415.34375,197450.84375,227582.875,213772.359375,226476.015625,178390.53125,-705667.5625,182673.75,0.005126953125,0.9892578125,-0.228515625,-1.1901854276657104,0.0610351525247097,0.8850097060203552,93.33334350585938,92246.0,1.0
12:03:56.477587,202406.40625,197441.8125,227573.765625,213773.171875,226445.796875,178377.5625,-705667.5625,182671.421875,0.005615234375,0.98876953125,-0.227783203125,-1.0986326932907104,0.1220703050494194,0.9460448622703552,93.33334350585938,92247.0,1.0
12:03:56.477623,202416.953125,197454.34375,227577.6875,213776.203125,226458.765625,178390.53125,-705675.75,182674.015625,0.0068359375,0.98681640625,-0.228271484375,-0.9765624403953552,0.2441406100988388,0.8239745497703552,93.33334350585938,92248.0,1.0
12:03:56.487021,202429.390625,197465.421875,227587.796875,213775.40625,226488.453125,178405.46875,-705664.125,182677.234375,0.00537109375,0.985595703125,-0.228271484375,-0.9765624403953552,0.3662109076976776,0.7934569716453552,93.33334350585938,92249.0,1.0
12:03:56.490069,202421.78125,197456.65625,227587.53125,213776.828125,226483.359375,178396.078125,-705661.3125,182679.390625,0.00439453125,0.9853515625,-0.22607421875,-0.9460448622703552,0.4577636420726776,0.7629393935203552,93.33334350585938,92250.0,1.0
12:03:56.490109,202411.6875,197444.40625,227578.59375,213778.703125,226453.046875,178379.09375,-705663.0,182678.21875,0.005859375,0.98779296875,-0.22802734375,-0.9460448622703552,0.4272460639476776,0.7019042372703552,93.33334350585938,92251.0,1.0
12:03:56.495692,202419.640625,197455.234375,227580.46875,213779.15625,226458.765625,178392.5,-705664.625,182675.546875,0.00732421875,0.9873046875,-0.228515625,-0.8850097060203552,0.4882812201976776,0.7629393935203552,93.33334350585938,92252.0,1.0
12:03:56.502529,202432.421875,197462.296875,227589.046875,213779.96875,226487.5625,178402.78125,-705663.5,182680.453125,0.005615234375,0.986572265625,-0.22705078125,-0.7934569716453552,0.4882812201976776,0.7019042372703552,93.33334350585938,92253.0,1.0
12:03:56.502551,202419.90625,197452.1875,227584.40625,213772.8125,226483.796875,178392.953125,-705668.1875,182676.25,0.0029296875,0.987060546875,-0.22705078125,-0.7324218153953552,0.6103515028953552,0.7629393935203552,93.33334350585938,92254.0,1.0
12:03:56.511914,202407.65625,197439.5,227575.375,213773.53125,226452.953125,178378.640625,-705668.375,182675.1875,0.00146484375,0.98486328125,-0.228515625,-0.7934569716453552,0.6408690810203552,0.6408690810203552,93.33334350585938,92255.0,1.0
12:03:56.516242,202414.1875,197449.59375,227579.125,213777.546875,226454.109375,178389.28125,-705674.3125,182676.34375,0.00146484375,0.985107421875,-0.228759765625,-0.7324218153953552,0.6103515028953552,0.4272460639476776,93.33334350585938,92256.0,1.0
12:03:56.516259,202433.40625,197465.515625,227592.53125,213783.359375,226488.53125,178407.96875,-705667.9375,182683.765625,-0.00048828125,0.9853515625,-0.228515625,-0.7324218153953552,0.6408690810203552,0.5493163466453552,93.33334350585938,92257.0,1.0
12:03:56.518190,202432.421875,197464.265625,227596.734375,213784.078125,226498.1875,178407.25,-705667.3125,182684.296875,0.001708984375,0.98291015625,-0.22900390625,-0.6713866591453552,0.6408690810203552,0.5187987685203552,93.33334350585938,92258.0,1.0
12:03:56.531307,202417.765625,197447.984375,227587.078125,213783.625,226467.265625,178389.28125,-705666.25,182681.53125,0.001953125,0.982177734375,-0.22900390625,-0.6408690810203552,0.5798339247703552,0.6103515028953552,93.33334350585938,92259.0,1.0
12:03:56.531327,202411.421875,197447.265625,227579.578125,213779.515625,226454.203125,178388.921875,-705664.5625,182676.875,0.001708984375,0.983642578125,-0.230712890625,-0.6103515028953552,0.4577636420726776,0.4577636420726776,93.33334350585938,92260.0,1.0
12:03:56.533889,202423.046875,197457.28125,227585.03125,213777.8125,226480.40625,178402.0625,-705657.6875,182678.40625,0.001220703125,0.98388671875,-0.23193359375,-0.5798339247703552,0.5187987685203552,0.3662109076976776,93.33334350585938,92261.0,1.0
12:03:56.533916,202428.671875,197462.828125,227591.015625,213776.46875,226495.0625,178407.515625,-705650.4375,182678.046875,0.001953125,0.98388671875,-0.230712890625,-0.5187987685203552,0.3967284858226776,0.3662109076976776,93.33334350585938,92262.0,1.0
12:03:56.535751,202416.25,197449.59375,227580.90625,213775.40625,226465.921875,178391.15625,-705654.8125,182674.640625,0.002685546875,0.984619140625,-0.22998046875,-0.4577636420726776,0.3662109076976776,0.3662109076976776,93.33334350585938,92263.0,1.0
12:03:56.545725,202413.921875,197451.125,227576.625,213778.265625,226450.625,178391.875,-705659.625,182674.640625,0.0009765625,0.983642578125,-0.2314453125,-0.3662109076976776,0.3967284858226776,0.3967284858226776,93.33334350585938,92264.0,1.0
12:03:56.548761,202427.78125,197465.515625,227586.453125,213779.34375,226478.53125,178410.734375,-705656.125,182678.84375,0.0009765625,0.985595703125,-0.23193359375,-0.3662109076976776,0.4272460639476776,0.3662109076976776,93.33334350585938,92265.0,1.0
12:03:56.548779,202432.0625,197468.375,227590.03125,213777.1875,226496.3125,178411.09375,-705651.9375,182679.46875,0.001220703125,0.98583984375,-0.231689453125,-0.3051757514476776,0.4272460639476776,0.3967284858226776,93.33334350585938,92266.0,1.0
12:03:56.554409,202421.15625,197454.6875,227582.796875,213775.484375,226472.09375,178394.46875,-705650.875,182675.359375,0.001220703125,0.985595703125,-0.23046875,-0.3051757514476776,0.3967284858226776,0.3662109076976776,93.33334350585938,92267.0,1.0
12:03:56.561897,202407.9375,197443.78125,227572.15625,213770.125,226444.546875,178383.640625,-705656.3125,182668.828125,0.00244140625,0.988525390625,-0.228759765625,-0.2441406100988388,0.3356933295726776,0.3662109076976776,93.33334350585938,92268.0,1.0
12:03:56.565027,202422.140625,197458.359375,227577.421875,213772.8125,226462.796875,178399.296875,-705656.875,182671.34375,0.003173828125,0.988037109375,-0.229736328125,-0.3051757514476776,0.3356933295726776,0.3967284858226776,93.33334350585938,92269.0,1.0
12:03:56.565034,202429.828125,197465.15625,227584.671875,213773.25,226488.71875,178407.96875,-705657.5,182675.71875,0.0009765625,0.9892578125,-0.230712890625,-0.4272460639476776,0.2441406100988388,0.5493163466453552,93.33334350585938,92270.0,1.0
12:03:56.570657,202416.421875,197450.140625,227578.5,213773.609375,226473.875,178392.765625,-705662.75,182675.90625,0.001708984375,0.990478515625,-0.230224609375,-0.5187987685203552,0.2136230319738388,0.5798339247703552,93.33334350585938,92271.0,1.0
12:03:56.598818,202402.125,197437.96875,227564.734375,213767.625,226440.96875,178377.03125,-705658.625,182670.4375,0.001220703125,0.989501953125,-0.233642578125,-0.5187987685203552,0.1831054538488388,0.5493163466453552,93.33334350585938,92272.0,1.0
12:03:56.598851,202413.734375,197452.28125,227570.625,213770.9375,226455.640625,178392.046875,-705653.875,182674.203125,0.000244140625,0.9921875,-0.233642578125,-0.6103515028953552,0.2441406100988388,0.6103515028953552,93.33334350585938,92273.0,1.0
12:03:56.600680,202426.4375,197461.75,227582.25,213773.609375,226487.640625,178405.90625,-705652.625,182681.171875,0.0,0.991943359375,-0.232666015625,-0.7324218153953552,0.2441406100988388,0.7019042372703552,93.33334350585938,92274.0,1.0
12:03:56.603176,202414.546875,197449.328125,227578.140625,213769.59375,226479.953125,178393.296875,-705654.625,182676.609375,-0.00048828125,0.990234375,-0.233642578125,-0.8850097060203552,0.1831054538488388,0.7629393935203552,93.33334350585938,92275.0,1.0
12:03:56.605705,202404.359375,197438.15625,227569.46875,213770.65625,226449.46875,178378.90625,-705650.75,182674.203125,0.00048828125,0.990966796875,-0.231689453125,-0.9765624403953552,0.2136230319738388,0.8850097060203552,93.33334350585938,92276.0,1.0
12:03:56.608227,202415.078125,197450.765625,227575.734375,213775.9375,226458.140625,178391.609375,-705654.1875,182676.875,0.0,0.990966796875,-0.22998046875,-1.0986326932907104,0.2746581733226776,0.9155272841453552,93.33334350585938,92277.0,1.0
12:03:56.610683,202431.09375,197463.1875,227586.1875,213778.703125,226490.140625,178406.09375,-705651.875,182683.59375,-0.001708984375,0.990966796875,-0.23095703125,-1.1596678495407104,0.2136230319738388,0.8850097060203552,93.33334350585938,92278.0,1.0
12:03:56.613200,202425.28125,197457.203125,227586.640625,213778.53125,226491.671875,178400.640625,-705649.1875,182683.3125,0.0,0.991943359375,-0.233154296875,-1.3427733182907104,0.1220703050494194,0.9765624403953552,93.33334350585938,92279.0,1.0
12:03:56.615682,202415.171875,197445.75,227577.96875,213783.0,226462.15625,178388.46875,-705657.75,182684.65625,-0.0009765625,0.9912109375,-0.233642578125,-1.5258787870407104,0.0610351525247097,0.8850097060203552,93.33334350585938,92280.0,1.0
12:03:56.618392,202416.78125,197450.9375,227575.453125,213779.6875,226455.1875,178393.296875,-705660.4375,182678.671875,-0.000244140625,0.989501953125,-0.231689453125,-1.6174315214157104,-0.0915527269244194,0.9765624403953552,93.33334350585938,92281.0,1.0
12:03:56.621289,202434.65625,197464.0,227585.921875,213782.640625,226486.03125,178406.53125,-705653.4375,182682.515625,-0.00048828125,0.9892578125,-0.231689453125,-1.6784666776657104,-0.2136230319738388,1.0375975370407104,93.33334350585938,92282.0,1.0
12:03:56.621297,202431.4375,197462.109375,227588.421875,213779.875,226494.890625,178405.640625,-705655.6875,182682.0625,-0.00244140625,0.989013671875,-0.233154296875,-1.8005369901657104,-0.2441406100988388,0.9460448622703552,93.33334350585938,92283.0,1.0
12:03:56.623144,202416.421875,197447.359375,227577.515625,213776.390625,226462.609375,178387.5,-705656.125,182676.4375,-0.00146484375,0.9892578125,-0.233154296875,-1.8920897245407104,-0.3356933295726776,1.0681151151657104,93.33334350585938,92284.0,1.0
12:03:56.626875,202415.265625,197450.046875,227573.21875,213774.421875,226450.453125,178390.53125,-705657.9375,182670.171875,0.0009765625,0.987060546875,-0.233642578125,-2.014159917831421,-0.3356933295726776,0.9155272841453552,93.33334350585938,92285.0,1.0
12:03:56.642576,202434.21875,197465.6875,227584.484375,213777.8125,226480.140625,178406.625,-705660.8125,182675.625,0.001953125,0.98876953125,-0.2314453125,-1.8920897245407104,-0.3356933295726776,0.9155272841453552,93.33334350585938,92286.0,1.0
12:03:56.642602,202437.171875,197466.859375,227588.875,213776.390625,226494.796875,178406.359375,-705659.875,182675.71875,0.00244140625,0.989013671875,-0.229248046875,-2.136230230331421,-0.3051757514476776,1.0681151151657104,93.33334350585938,92287.0,1.0
12:03:56.645068,202421.78125,197448.4375,227578.40625,213774.59375,226465.03125,178383.640625,-705656.875,182670.984375,0.002197265625,0.990478515625,-0.230224609375,-2.166747808456421,-0.3051757514476776,1.0681151151657104,93.33334350585938,92288.0,1.0
12:03:56.645081,202415.078125,197446.203125,227570.359375,213771.015625,226443.828125,178378.375,-705661.25,182665.53125,0.006103515625,0.988037109375,-0.2275390625,-2.258300542831421,-0.3051757514476776,1.0375975370407104,93.33334350585938,92289.0,1.0
12:03:56.646898,202431.71875,197461.671875,227579.921875,213774.953125,226469.765625,178396.34375,-705659.25,182670.796875,0.006103515625,0.988525390625,-0.228515625,-2.288818120956421,-0.3051757514476776,1.0375975370407104,93.33334350585938,92290.0,1.0
12:03:56.653183,202434.578125,197464.53125,227585.296875,213772.09375,226490.140625,178402.78125,-705655.5,182671.875,0.006103515625,0.988525390625,-0.22998046875,-2.288818120956421,-0.2441406100988388,0.9460448622703552,93.33334350585938,92291.0,1.0
12:03:56.661284,202416.25,197444.859375,227574.390625,213767.265625,226464.21875,178382.125,-705647.375,182667.578125,0.00634765625,0.9892578125,-0.22998046875,-2.349853277206421,-0.2746581733226776,0.9765624403953552,93.33334350585938,92292.0,1.0
12:03:56.661315,202407.84375,197441.109375,227566.515625,213765.75,226440.4375,178375.25,-705655.25,182664.1875,0.005859375,0.9892578125,-0.231201171875,-2.410888433456421,-0.2441406100988388,1.0375975370407104,93.33334350585938,92293.0,1.0
12:03:56.663727,202420.984375,197454.6875,227572.328125,213767.53125,226459.484375,178389.734375,-705659.8125,182667.046875,0.005859375,0.988525390625,-0.231689453125,-2.410888433456421,-0.2746581733226776,1.0375975370407104,93.33334350585938,92294.0,1.0
12:03:56.663749,202430.28125,197461.40625,227580.5625,213770.390625,226487.203125,178400.09375,-705659.875,182672.6875,0.00341796875,0.988525390625,-0.229248046875,-2.380370855331421,-0.3051757514476776,0.9460448622703552,93.33334350585938,92295.0,1.0
12:03:56.675730,202419.203125,197448.96875,227576.359375,213769.234375,226472.796875,178386.953125,-705657.6875,182670.890625,0.00537109375,0.98876953125,-0.2275390625,-2.410888433456421,-0.1831054538488388,1.0375975370407104,93.33334350585938,92296.0,1.0
12:03:56.678157,202409.890625,197437.625,227567.0625,213771.5625,226443.75,178371.578125,-705662.125,182671.875,0.00732421875,0.987060546875,-0.22802734375,-2.624511480331421,-0.1220703050494194,1.0986326932907104,93.33334350585938,92297.0,1.0
12:03:56.680706,202419.015625,197447.625,227567.59375,213768.703125,226452.953125,178385.25,-705663.125,182667.9375,0.004638671875,0.98876953125,-0.22705078125,-2.655029058456421,-0.1831054538488388,1.0375975370407104,93.33334350585938,92298.0,1.0
12:03:56.684385,202431.53125,197459.078125,227577.25,213768.421875,226482.28125,178399.109375,-705662.0625,182672.40625,0.005859375,0.98974609375,-0.228515625,-2.685546636581421,-0.1831054538488388,0.9155272841453552,93.33334350585938,92299.0,1.0
12:03:56.691275,202423.75,197452.09375,227577.25,213769.59375,226477.625,178392.234375,-705667.75,182673.484375,0.006103515625,0.98828125,-0.22802734375,-2.716064214706421,-0.2136230319738388,0.8544921278953552,93.33334350585938,92300.0,1.0
12:03:56.691288,202412.671875,197441.734375,227568.578125,213771.734375,226448.125,178379.359375,-705665.8125,182672.328125,0.005859375,0.991455078125,-0.228515625,-2.777099370956421,-0.1525878757238388,0.8239745497703552,93.33334350585938,92301.0,1.0
12:03:56.696984,202422.234375,197455.671875,227573.671875,213775.140625,226456.890625,178394.5625,-705657.5625,182674.46875,0.005126953125,0.989501953125,-0.22705078125,-2.838134527206421,-0.0915527269244194,0.7629393935203552,93.33334350585938,92302.0,1.0
12:03:56.707467,202442.796875,197472.578125,227590.21875,213781.03125,226494.625,178415.75,-705648.5625,182685.015625,0.00390625,0.98876953125,-0.226806640625,-2.899169683456421,0.0,0.7324218153953552,93.33334350585938,92303.0,1.0
12:03:56.707479,202436.984375,197463.28125,227591.1875,213779.78125,226497.5625,178407.15625,-705653.25,182683.59375,0.00439453125,0.98583984375,-0.225830078125,-2.868652105331421,-0.0610351525247097,0.7324218153953552,93.33334350585938,92304.0,1.0
12:03:56.740597,202424.296875,197448.609375,227581.984375,213783.0,226465.734375,178389.546875,-705660.625,182683.765625,0.004638671875,0.98779296875,-0.22509765625,-2.899169683456421,-0.03051757626235485,0.7019042372703552,93.33334350585938,92305.0,1.0
12:03:56.740617,202415.890625,197443.78125,227570.1875,213773.4375,226451.078125,178383.46875,-705661.9375,182672.765625,0.00390625,0.98779296875,-0.224365234375,-2.960204839706421,0.03051757626235485,0.6713866591453552,93.33334350585938,92306.0,1.0
12:03:56.740623,202421.078125,197445.84375,227570.71875,213765.03125,226472.171875,178387.9375,-705656.875,182668.65625,0.003662109375,0.98779296875,-0.221923828125,-2.960204839706421,0.03051757626235485,0.6713866591453552,93.33334350585938,92307.0,1.0
12:03:56.762103,202413.734375,197436.640625,227567.953125,213758.234375,226475.390625,178378.90625,-705660.8125,182662.21875,0.00244140625,0.986572265625,-0.22509765625,-2.929687261581421,0.0,0.6103515028953552,93.33334350585938,92308.0,1.0
12:03:56.764472,202398.453125,197418.578125,227555.703125,213757.609375,226441.0625,178356.828125,-705663.5625,182657.390625,0.00244140625,0.985595703125,-0.223876953125,-2.868652105331421,-0.03051757626235485,0.6103515028953552,93.33334350585938,92309.0,1.0
12:03:56.776030,202393.171875,197415.890625,227546.578125,213752.25,226421.9375,178352.4375,-705664.625,182647.921875,0.00244140625,0.9853515625,-0.226318359375,-2.838134527206421,-0.0915527269244194,0.6408690810203552,93.33334350585938,92310.0,1.0
12:03:56.776055,202411.6875,197431.71875,227558.828125,213756.09375,226452.15625,178369.96875,-705666.6875,182653.375,0.00390625,0.98486328125,-0.222900390625,-2.807616949081421,-0.1220703050494194,0.6408690810203552,93.33334350585938,92311.0,1.0
12:03:56.778223,202422.859375,197442.171875,227574.03125,213765.203125,226477.359375,178379.625,-705657.6875,182663.03125,0.002197265625,0.98583984375,-0.224609375,-2.838134527206421,-0.0915527269244194,0.6713866591453552,93.33334350585938,92312.0,1.0
12:03:56.780716,202413.734375,197433.6875,227570.984375,213769.6875,226455.28125,178368.8125,-705656.9375,182663.375,0.002685546875,0.988037109375,-0.224365234375,-2.746581792831421,-0.1220703050494194,0.6408690810203552,93.33334350585938,92313.0,1.0
12:03:56.783165,202408.203125,197434.484375,227564.8125,213766.8125,226436.140625,178368.359375,-705655.0,182657.65625,0.00146484375,0.9853515625,-0.22119140625,-2.563476324081421,-0.0610351525247097,0.7019042372703552,93.33334350585938,92314.0,1.0
12:03:56.785635,202425.359375,197450.9375,227574.828125,213771.109375,226462.796875,178387.046875,-705653.25,182663.375,0.00244140625,0.983154296875,-0.220703125,-2.502441167831421,-0.2136230319738388,0.6408690810203552,93.33334350585938,92315.0,1.0
12:03:56.788177,202433.140625,197458.359375,227584.75,213771.109375,226487.46875,178397.15625,-705652.75,182668.03125,0.0029296875,0.98291015625,-0.22119140625,-2.441406011581421,-0.2136230319738388,0.7019042372703552,93.33334350585938,92316.0,1.0
12:03:56.790662,202417.3125,197442.359375,227576.4375,213767.359375,226465.109375,178379.359375,-705652.3125,182665.703125,0.002685546875,0.983154296875,-0.223388671875,-2.380370855331421,-0.2441406100988388,0.7019042372703552,93.33334350585938,92317.0,1.0
12:03:56.793181,202406.046875,197436.8125,227564.640625,213762.796875,226436.953125,178369.875,-705646.9375,182659.0,0.003662109375,0.982421875,-0.222412109375,-2.319335699081421,-0.2136230319738388,0.8850097060203552,93.33334350585938,92318.0,1.0
12:03:56.795673,202422.234375,197455.59375,227573.21875,213767.53125,226458.3125,178391.25,-705643.8125,182665.53125,0.004150390625,0.985107421875,-0.21923828125,-2.258300542831421,-0.3051757514476776,0.8239745497703552,93.33334350585938,92319.0,1.0
12:03:56.798211,202433.59375,197466.859375,227584.484375,213767.71875,226489.25,178404.65625,-705639.9375,182670.4375,0.00244140625,0.984375,-0.22216796875,-2.197265386581421,-0.2441406100988388,0.8850097060203552,93.33334350585938,92320.0,1.0
12:03:56.800658,202423.21875,197456.65625,227580.90625,213765.828125,226476.46875,178391.78125,-705645.9375,182667.9375,0.003173828125,0.986083984375,-0.22314453125,-2.136230230331421,-0.2441406100988388,0.8850097060203552,93.33334350585938,92321.0,1.0
12:03:56.803171,202413.03125,197449.328125,227571.078125,213765.484375,226447.140625,178382.484375,-705653.875,182666.421875,0.00341796875,0.984619140625,-0.226318359375,-2.105712652206421,-0.1525878757238388,0.9765624403953552,93.33334350585938,92322.0,1.0
12:03:56.805713,202423.9375,197462.921875,227576.0,213767.890625,226460.828125,178397.6875,-705659.0,182668.65625,0.005615234375,0.982666015625,-0.223876953125,-2.044677495956421,-0.2746581733226776,1.0986326932907104,93.33334350585938,92323.0,1.0
12:03:56.808194,202434.75,197471.0625,227584.484375,213768.421875,226488.984375,178408.140625,-705655.4375,182673.484375,0.002685546875,0.981689453125,-0.223388671875,-1.9226073026657104,-0.1831054538488388,1.0681151151657104,93.33334350585938,92324.0,1.0
12:03:56.811845,202424.65625,197461.21875,227581.1875,213765.5625,226481.125,178398.21875,-705646.75,182670.71875,0.00341796875,0.980712890625,-0.224609375,-1.7700194120407104,-0.2441406100988388,1.0681151151657104,93.33334350585938,92325.0,1.0
12:03:56.811857,202412.21875,197450.140625,227570.625,213767.09375,226450.546875,178385.96875,-705642.75,182669.546875,0.004150390625,0.982666015625,-0.22509765625,-1.5563963651657104,-0.2441406100988388,1.0986326932907104,93.33334350585938,92326.0,1.0
12:03:56.811859,202418.5625,197459.875,227571.4375,213767.890625,226455.28125,178397.59375,-705650.125,182669.109375,0.005126953125,0.984375,-0.223388671875,-1.4648436307907104,-0.1220703050494194,1.1596678495407104,93.33334350585938,92327.0,1.0
12:03:56.814492,202435.109375,197472.3125,227583.0625,213770.21875,226486.921875,178410.296875,-705651.875,182674.203125,0.00634765625,0.983154296875,-0.223388671875,-1.2817381620407104,0.03051757626235485,1.1291502714157104,93.33334350585938,92328.0,1.0
12:03:56.817589,202428.21875,197466.40625,227582.796875,213767.53125,226487.375,178405.015625,-705646.9375,182671.609375,0.008056640625,0.983642578125,-0.2236328125,-1.2512205839157104,0.03051757626235485,1.1901854276657104,93.33334350585938,92329.0,1.0
12:03:56.817605,202413.734375,197451.46875,227571.890625,213768.25,226452.859375,178386.515625,-705639.4375,182669.015625,0.0087890625,0.984130859375,-0.22265625,-1.2207030057907104,0.0610351525247097,1.1596678495407104,93.33334350585938,92330.0,1.0
12:03:56.819461,202416.25,197457.46875,227570.09375,213768.34375,226447.671875,178391.15625,-705636.5625,182664.8125,0.010009765625,0.983642578125,-0.224853515625,-1.0986326932907104,0.03051757626235485,1.1291502714157104,93.33334350585938,92331.0,1.0
12:03:56.822573,202436.890625,197474.8125,227582.796875,213770.578125,226480.765625,178407.515625,-705633.625,182669.90625,0.00927734375,0.980712890625,-0.2255859375,-0.9765624403953552,0.0915527269244194,1.0070799589157104,93.33334350585938,92332.0,1.0
12:03:56.822592,202442.078125,197481.25,227593.78125,213773.875,226496.40625,178413.875,-705634.5,182675.359375,0.010498046875,0.9794921875,-0.22607421875,-0.8850097060203552,0.1831054538488388,1.0681151151657104,93.33334350585938,92333.0,1.0
12:03:56.824395,202427.875,197465.15625,227586.71875,213774.15625,226469.234375,178397.6875,-705642.125,182675.265625,0.009765625,0.979736328125,-0.225341796875,-0.7019042372703552,0.2441406100988388,0.9460448622703552,93.33334350585938,92334.0,1.0
12:03:56.826987,202422.140625,197460.78125,227576.984375,213772.0,226451.4375,178394.203125,-705647.4375,182670.0,0.0087890625,0.980712890625,-0.224609375,-0.6408690810203552,0.4577636420726776,0.8239745497703552,93.33334350585938,92335.0,1.0
12:03:56.837545,202434.9375,197467.65625,227578.859375,213774.15625,226472.265625,178402.953125,-705645.4375,182670.359375,0.005615234375,0.9814453125,-0.224853515625,-0.6713866591453552,0.4577636420726776,0.6103515028953552,93.33334350585938,92336.0,1.0
12:03:56.837559,202438.234375,197472.125,227582.515625,213771.734375,226487.203125,178407.078125,-705638.0,182669.015625,0.00537109375,0.982666015625,-0.223876953125,-0.5493163466453552,0.4577636420726776,0.3967284858226776,93.33334350585938,92337.0,1.0
12:03:56.840063,202425.28125,197456.390625,227574.828125,213771.46875,226459.390625,178388.921875,-705642.9375,182668.65625,0.004150390625,0.985107421875,-0.221923828125,-0.6408690810203552,0.5187987685203552,0.1525878757238388,93.33334350585938,92338.0,1.0
12:03:56.840106,202415.796875,197450.40625,227566.34375,213771.203125,226439.71875,178384.359375,-705641.75,182667.140625,0.001708984375,0.986083984375,-0.22265625,-0.6408690810203552,0.3662109076976776,0.0915527269244194,93.33334350585938,92339.0,1.0
12:03:56.850821,202429.296875,197463.546875,227571.609375,213772.90625,226461.625,178400.8125,-705643.5625,182669.46875,0.0029296875,0.98828125,-0.22607421875,-0.6713866591453552,0.3356933295726776,0.1220703050494194,93.33334350585938,92340.0,1.0
12:03:56.855245,202435.375,197466.578125,227578.59375,213772.625,226483.0,178406.71875,-705649.625,182673.21875,0.003173828125,0.988525390625,-0.225830078125,-0.7324218153953552,0.3356933295726776,-0.0610351525247097,93.33334350585938,92341.0,1.0
12:03:56.855337,202422.234375,197449.59375,227571.4375,213773.34375,226461.53125,178386.59375,-705649.875,182672.140625,0.0029296875,0.99072265625,-0.22509765625,-0.7934569716453552,0.2746581733226776,-0.0915527269244194,93.33334350585938,92342.0,1.0
12:03:56.861710,202413.03125,197441.46875,227563.03125,213771.46875,226437.390625,178376.859375,-705646.3125,182669.28125,0.00341796875,0.992431640625,-0.22509765625,-0.7019042372703552,0.2136230319738388,-0.2441406100988388,93.33334350585938,92343.0,1.0
12:03:56.861798,202426.4375,197455.234375,227571.171875,213776.46875,226458.234375,178392.328125,-705636.3125,182673.75,0.007080078125,0.993896484375,-0.2265625,-0.9155272841453552,0.3356933295726776,-0.2441406100988388,93.33334350585938,92344.0,1.0
12:03:56.863200,202434.65625,197461.21875,227579.03125,213777.09375,226484.78125,178401.53125,-705636.5625,182677.59375,0.007568359375,0.994140625,-0.226318359375,-1.0070799589157104,0.2441406100988388,-0.2441406100988388,93.33334350585938,92345.0,1.0
12:03:56.883337,202419.015625,197445.75,227570.0,213772.453125,226466.015625,178384.71875,-705644.0,182671.78125,0.01025390625,0.993408203125,-0.226806640625,-1.1901854276657104,0.3356933295726776,-0.1220703050494194,93.33334350585938,92346.0,1.0
12:03:56.892172,202409.265625,197438.78125,227560.703125,213771.109375,226435.515625,178374.34375,-705642.9375,182668.921875,0.01025390625,0.993896484375,-0.223388671875,-1.2207030057907104,0.4577636420726776,-0.1220703050494194,93.33334350585938,92347.0,1.0
12:03:56.892275,202418.296875,197450.3125,227564.109375,213772.453125,226447.140625,178387.3125,-705644.0625,182670.796875,0.0078125,0.99267578125,-0.226806640625,-1.3732908964157104,0.4882812201976776,0.0,93.33334350585938,92348.0,1.0
12:03:56.892308,202432.78125,197463.453125,227576.265625,213775.765625,226480.484375,178402.15625,-705645.0625,182678.84375,0.00732421875,0.991943359375,-0.22705078125,-1.4648436307907104,0.5493163466453552,0.0,93.33334350585938,92349.0,1.0
12:03:56.895565,202420.0,197451.390625,227571.4375,213768.78125,226472.890625,178390.4375,-705637.8125,182671.703125,0.0068359375,0.9931640625,-0.22705078125,-1.4953612089157104,0.5798339247703552,0.0610351525247097,93.33334350585938,92350.0,1.0
12:03:56.895640,202410.609375,197440.921875,227563.65625,213770.21875,226444.109375,178377.296875,-705638.0,182671.421875,0.00537109375,0.993408203125,-0.226806640625,-1.6784666776657104,0.6408690810203552,0.1831054538488388,93.33334350585938,92351.0,1.0
12:03:56.897294,202418.296875,197450.84375,227566.421875,213770.9375,226448.578125,178385.171875,-705643.0625,182670.984375,0.0029296875,0.993408203125,-0.225341796875,-1.8310545682907104,0.6408690810203552,0.2746581733226776,93.33334350585938,92352.0,1.0
12:03:56.899530,202435.203125,197462.46875,227577.6875,213773.796875,226479.59375,178397.859375,-705655.4375,182676.96875,0.001953125,0.992919921875,-0.22509765625,-1.9226073026657104,0.6408690810203552,0.3051757514476776,93.33334350585938,92353.0,1.0
12:03:56.903320,202426.265625,197453.4375,227575.90625,213772.546875,226479.234375,178391.0625,-705660.8125,182676.078125,-0.0009765625,0.992919921875,-0.222900390625,-1.9226073026657104,0.5493163466453552,0.3356933295726776,93.33334350585938,92354.0,1.0
12:03:56.918949,202411.6875,197436.8125,227563.390625,213772.0,226444.015625,178372.390625,-705661.5625,182672.953125,-0.00244140625,0.991455078125,-0.22265625,-2.075195074081421,0.4272460639476776,0.3662109076976776,93.33334350585938,92355.0,1.0
12:03:56.919048,202413.296875,197444.6875,227560.703125,213769.953125,226436.859375,178379.265625,-705658.75,182667.765625,-0.003173828125,0.99169921875,-0.221435546875,-2.166747808456421,0.3051757514476776,0.4882812201976776,93.33334350585938,92356.0,1.0
12:03:56.921376,202430.015625,197457.015625,227571.078125,213773.171875,226466.8125,178392.5,-705656.4375,182672.234375,-0.005126953125,0.990966796875,-0.22216796875,-2.197265386581421,0.2441406100988388,0.5187987685203552,93.33334350585938,92357.0,1.0
12:03:56.921463,202429.390625,197455.234375,227573.84375,213771.015625,226476.734375,178391.78125,-705656.4375,182669.734375,-0.0048828125,0.991943359375,-0.22119140625,-2.258300542831421,0.1831054538488388,0.5798339247703552,93.33334350585938,92358.0,1.0
12:03:56.930082,202413.296875,197438.328125,227563.84375,213767.4375,226447.140625,178373.71875,-705659.6875,182664.90625,-0.00537109375,0.9921875,-0.2216796875,-2.380370855331421,0.03051757626235485,0.6103515028953552,93.33334350585938,92359.0,1.0
12:03:56.930149,202409.1875,197440.125,227558.828125,213763.515625,226435.78125,178374.171875,-705662.9375,182660.34375,-0.004638671875,0.990966796875,-0.22314453125,-2.471923589706421,-0.0915527269244194,0.5798339247703552,93.33334350585938,92360.0,1.0
12:03:56.937185,202426.609375,197455.046875,227567.6875,213765.75,226463.765625,178390.71875,-705653.25,182665.890625,-0.005859375,0.988525390625,-0.220947265625,-2.563476324081421,-0.1831054538488388,0.5493163466453552,93.33334350585938,92361.0,1.0
12:03:56.937252,202428.21875,197455.859375,227572.234375,213764.578125,226479.515625,178394.5625,-705655.25,182666.875,-0.002685546875,0.989501953125,-0.221435546875,-2.655029058456421,-0.3356933295726776,0.6713866591453552,93.33334350585938,92362.0,1.0
12:03:56.939810,202413.46875,197440.296875,227563.65625,213763.0625,226453.3125,178376.3125,-705664.5625,182663.296875,-0.002197265625,0.98974609375,-0.22021484375,-2.593993902206421,-0.4272460639476776,0.6713866591453552,93.33334350585938,92363.0,1.0
12:03:56.947694,202411.6875,197443.78125,227564.28125,213764.9375,226441.59375,178379.09375,-705664.8125,182665.171875,0.0,0.987548828125,-0.22314453125,-2.655029058456421,-0.4882812201976776,0.7629393935203552,93.33334350585938,92364.0,1.0
