Timestamp,Fz,FC3,FCz,FC4,Cz,C3,C4
12:11:19.897070,201698.390625,195719.75,217476.140625,207309.671875,219021.53125,179627.828125,-705640.9375,179234.53125,0.033447265625,1.022705078125,-0.133544921875,-3.448486089706421,0.1525878757238388,-0.5493163466453552,86.66667175292969,203169.0,1.0
12:11:19.900376,201709.03125,195735.84375,217483.640625,207314.140625,219028.6875,179643.921875,-705638.0625,179236.765625,0.032958984375,1.014404296875,-0.13427734375,-3.814697027206421,0.1831054538488388,-0.5187987685203552,86.66667175292969,203170.0,1.0
12:11:19.900385,201721.734375,195742.734375,217492.40625,207316.1875,219056.84375,179653.40625,-705637.5625,179243.65625,0.02734375,1.008544921875,-0.130615234375,-4.058837413787842,0.1220703050494194,-0.5493163466453552,86.66667175292969,203171.0,1.0
12:11:19.907040,201709.390625,195732.71875,217484.09375,207303.3125,219051.390625,179642.765625,-705638.375,179232.390625,0.024658203125,1.002685546875,-0.13623046875,-4.028319835662842,0.1220703050494194,-0.4882812201976776,86.66667175292969,203172.0,1.0
12:11:19.907113,201708.671875,195735.21875,217487.3125,207313.15625,219036.015625,179642.40625,-705634.9375,179243.75,0.023193359375,0.9990234375,-0.134033203125,-3.845214605331421,-0.0610351525247097,-0.3967284858226776,86.66667175292969,203173.0,1.0
12:11:19.907138,201718.0625,195747.015625,217494.640625,207323.796875,219038.875,179653.765625,-705627.1875,179253.9375,0.023681640625,0.99560546875,-0.1328125,-3.662109136581421,-0.1831054538488388,-0.3051757514476776,86.66667175292969,203174.0,1.0
12:11:19.911390,201716.546875,195739.25,217486.59375,207312.4375,219048.625,179649.03125,-705632.6875,179242.765625,0.024169921875,0.9921875,-0.130126953125,-3.387450933456421,-0.3662109076976776,-0.2441406100988388,86.66667175292969,203175.0,1.0
12:11:19.912148,201717.078125,195738.890625,217490.796875,207311.453125,219060.515625,179650.015625,-705633.8125,179240.53125,0.0224609375,0.98876953125,-0.127685546875,-3.234863042831421,-0.4577636420726776,-0.1220703050494194,86.66667175292969,203176.0,1.0
12:11:19.917264,201719.765625,195744.15625,217500.1875,207326.75,219053.90625,179654.921875,-705629.5625,179255.453125,0.024169921875,0.9892578125,-0.12548828125,-3.021239995956421,-0.7019042372703552,-0.1220703050494194,86.66667175292969,203177.0,1.0
12:11:19.917334,201705.28125,195731.46875,217484.09375,207318.609375,219027.796875,179639.09375,-705640.6875,179246.78125,0.024658203125,0.990478515625,-0.12353515625,-2.685546636581421,-0.9155272841453552,-0.0915527269244194,86.66667175292969,203178.0,1.0
12:11:19.919861,201715.734375,195739.15625,217488.921875,207318.78125,219049.609375,179651.078125,-705638.0,179249.90625,0.02587890625,0.988037109375,-0.123291015625,-2.441406011581421,-1.1291502714157104,-0.1831054538488388,86.66667175292969,203179.0,1.0
12:11:19.922092,201726.921875,195751.9375,217503.9375,207325.578125,219078.578125,179668.515625,-705634.4375,179260.8125,0.028076171875,0.987060546875,-0.12158203125,-2.197265386581421,-1.4038084745407104,-0.0610351525247097,86.66667175292969,203180.0,1.0
12:11:19.924623,201710.28125,195733.96875,217493.21875,207322.359375,219053.90625,179647.59375,-705637.1875,179257.15625,0.026611328125,0.985595703125,-0.124267578125,-2.075195074081421,-1.5258787870407104,-0.03051757626235485,86.66667175292969,203181.0,1.0
12:11:19.927208,201707.609375,195733.4375,217489.90625,207323.96875,219035.296875,179642.234375,-705637.25,179254.828125,0.0263671875,0.982666015625,-0.122802734375,-1.8920897245407104,-1.6784666776657104,0.1220703050494194,86.66667175292969,203182.0,1.0
12:11:19.929677,201713.78125,195740.046875,217490.796875,207319.0625,219049.609375,179653.3125,-705635.375,179251.875,0.023681640625,0.98291015625,-0.1220703125,-1.6174315214157104,-1.8005369901657104,0.1525878757238388,86.66667175292969,203183.0,1.0
12:11:19.932182,201718.25,195747.46875,217495.53125,207312.34375,219069.1875,179664.578125,-705628.3125,179248.21875,0.023681640625,0.984130859375,-0.123046875,-1.3427733182907104,-1.9226073026657104,-0.03051757626235485,86.66667175292969,203184.0,1.0
12:11:19.935392,201712.96875,195737.28125,217494.90625,207316.109375,219055.875,179650.90625,-705632.875,179249.015625,0.0234375,0.986572265625,-0.126220703125,-1.1901854276657104,-1.9531248807907104,-0.03051757626235485,86.66667175292969,203185.0,1.0
12:11:19.935474,201689.1875,195711.609375,217473.71875,207306.984375,219019.21875,179623.1875,-705643.875,179239.1875,0.02294921875,0.990478515625,-0.1240234375,-0.9460448622703552,-2.136230230331421,-0.03051757626235485,86.66667175292969,203186.0,1.0
12:11:19.937738,201700.1875,195725.203125,217482.84375,207312.078125,219039.0625,179639.375,-705643.5625,179245.625,0.025634765625,0.99853515625,-0.12158203125,-0.7629393935203552,-2.258300542831421,0.03051757626235485,86.66667175292969,203187.0,1.0
12:11:19.937818,201731.390625,195754.359375,217511.453125,207332.015625,219084.75,179671.46875,-705643.1875,179266.625,0.02978515625,1.008544921875,-0.123291015625,-0.7019042372703552,-2.319335699081421,-0.0915527269244194,86.66667175292969,203188.0,1.0
12:11:19.939695,201719.046875,195740.140625,217501.796875,207326.203125,219069.28125,179657.515625,-705638.1875,179259.390625,0.0322265625,1.02490234375,-0.1220703125,-0.9460448622703552,-2.288818120956421,-0.2441406100988388,86.66667175292969,203189.0,1.0
12:11:19.943089,201695.265625,195714.390625,217477.65625,207314.5,219026.09375,179628.734375,-705639.25,179246.25,0.036865234375,1.036376953125,-0.119873046875,-1.3427733182907104,-2.258300542831421,-0.3967284858226776,86.66667175292969,203190.0,1.0
12:11:19.943176,201704.921875,195725.65625,217481.234375,207318.515625,219033.0625,179638.125,-705640.0625,179248.65625,0.043212890625,1.034423828125,-0.12109375,-1.8005369901657104,-2.166747808456421,-0.5187987685203552,86.66667175292969,203191.0,1.0
12:11:19.944889,201727.28125,195744.25,217500.453125,207327.640625,219071.609375,179659.390625,-705636.625,179261.796875,0.048828125,1.018798828125,-0.1259765625,-2.410888433456421,-1.8615721464157104,-0.6103515028953552,86.66667175292969,203192.0,1.0
12:11:19.956628,201716.09375,195732.53125,217495.625,207320.75,219067.140625,179650.90625,-705641.9375,179256.53125,0.04833984375,1.00634765625,-0.12890625,-2.593993902206421,-1.5563963651657104,-0.4577636420726776,86.66667175292969,203193.0,1.0
12:11:19.956720,201699.828125,195718.234375,217482.578125,207317.890625,219034.5,179632.484375,-705642.75,179252.953125,0.042724609375,0.998291015625,-0.129638671875,-2.655029058456421,-1.2817381620407104,-0.2441406100988388,86.66667175292969,203194.0,1.0
12:11:19.961930,201707.34375,195727.34375,217484.8125,207319.953125,219033.609375,179636.953125,-705640.875,179251.515625,0.037841796875,0.995361328125,-0.1318359375,-2.624511480331421,-1.1291502714157104,0.0,86.66667175292969,203195.0,1.0
12:11:19.962016,201724.40625,195744.875,217495.8125,207320.390625,219062.65625,179656.890625,-705630.1875,179252.59375,0.03564453125,1.00048828125,-0.121826171875,-2.441406011581421,-1.0986326932907104,0.3356933295726776,86.66667175292969,203196.0,1.0
12:11:19.963859,201704.828125,195725.921875,217483.921875,207304.84375,219055.328125,179642.234375,-705632.0625,179238.921875,0.03125,1.008544921875,-0.123779296875,-2.288818120956421,-0.8850097060203552,0.4272460639476776,86.66667175292969,203197.0,1.0
12:11:19.972282,201700.359375,195718.859375,217484.265625,207317.984375,219037.8125,179634.8125,-705628.875,179251.609375,0.0283203125,1.015625,-0.1259765625,-2.288818120956421,-0.9765624403953552,0.4882812201976776,86.66667175292969,203198.0,1.0
12:11:19.976511,201695.453125,195720.734375,217476.578125,207312.265625,219025.109375,179635.25,-705630.375,179244.8125,0.031982421875,1.0185546875,-0.12646484375,-2.471923589706421,-1.0070799589157104,0.6408690810203552,86.66667175292969,203199.0,1.0
12:11:19.976578,201708.046875,195728.25,217484.8125,207315.921875,219051.578125,179645.890625,-705636.1875,179253.3125,0.03515625,1.014404296875,-0.125,-2.593993902206421,-0.8850097060203552,0.5798339247703552,86.66667175292969,203200.0,1.0
12:11:19.983844,201707.421875,195725.390625,217486.421875,207311.09375,219060.609375,179646.078125,-705632.5625,179245.890625,0.03515625,1.00537109375,-0.124267578125,-2.716064214706421,-0.7934569716453552,0.4882812201976776,86.66667175292969,203201.0,1.0
12:11:19.990625,201693.5625,195711.078125,217477.65625,207308.78125,219035.75,179630.703125,-705637.5625,179244.09375,0.034423828125,0.99853515625,-0.1259765625,-2.716064214706421,-0.6713866591453552,0.5493163466453552,86.66667175292969,203202.0,1.0
12:11:19.990730,201694.46875,195720.90625,217475.59375,207310.5625,219023.765625,179635.609375,-705642.125,179243.65625,0.031494140625,0.993896484375,-0.1279296875,-2.716064214706421,-0.5493163466453552,0.5493163466453552,86.66667175292969,203203.0,1.0
12:11:19.997829,201712.25,195740.3125,217486.15625,207313.875,219048.359375,179653.5,-705635.375,179247.953125,0.03076171875,0.99267578125,-0.129150390625,-2.593993902206421,-0.6103515028953552,0.4272460639476776,86.66667175292969,203204.0,1.0
12:11:19.997908,201721.828125,195749.25,217498.046875,207315.75,219071.515625,179664.84375,-705637.1875,179250.453125,0.0283203125,0.994140625,-0.1328125,-2.471923589706421,-0.5798339247703552,0.3051757514476776,86.66667175292969,203205.0,1.0
12:11:19.999700,201694.546875,195716.078125,217476.9375,207305.5625,219036.90625,179630.703125,-705644.8125,179237.578125,0.030517578125,0.994140625,-0.129150390625,-2.349853277206421,-0.4882812201976776,0.2136230319738388,86.66667175292969,203206.0,1.0
12:11:20.009664,201677.828125,195701.875,217461.03125,207298.9375,219007.859375,179612.28125,-705649.625,179230.78125,0.029541015625,0.996826171875,-0.126220703125,-2.166747808456421,-0.4577636420726776,0.1525878757238388,86.66667175292969,203207.0,1.0
12:11:20.012678,201704.03125,195733.15625,217482.9375,207312.265625,219044.25,179645.71875,-705643.6875,179248.21875,0.031005859375,0.992919921875,-0.128173828125,-1.9226073026657104,-0.3967284858226776,0.1525878757238388,86.66667175292969,203208.0,1.0
12:11:20.012723,201713.421875,195743.09375,217491.6875,207309.84375,219067.578125,179657.078125,-705634.0625,179247.671875,0.03076171875,0.988037109375,-0.131103515625,-1.6174315214157104,-0.5493163466453552,0.2136230319738388,86.66667175292969,203209.0,1.0
12:11:20.014682,201686.328125,195714.46875,217468.71875,207293.03125,219034.234375,179626.5,-705632.625,179228.90625,0.030517578125,0.979736328125,-0.126953125,-1.3122557401657104,-0.6408690810203552,0.1831054538488388,86.66667175292969,203210.0,1.0
12:11:20.025912,201677.390625,195705.0,217458.171875,207294.734375,219007.59375,179612.1875,-705637.875,179228.09375,0.029296875,0.978759765625,-0.125,-0.9460448622703552,-0.6103515028953552,0.2441406100988388,86.66667175292969,203211.0,1.0
12:11:20.030207,201683.734375,195715.1875,217459.5,207293.578125,219019.296875,179624.078125,-705639.0,179228.015625,0.030029296875,0.98046875,-0.12548828125,-0.6103515028953552,-0.6103515028953552,0.3356933295726776,86.66667175292969,203212.0,1.0
12:11:20.030228,201703.578125,195732.359375,217478.28125,207303.40625,219057.03125,179644.90625,-705640.6875,179240.609375,0.030029296875,0.989013671875,-0.1279296875,-0.1525878757238388,-0.5798339247703552,0.3356933295726776,86.66667175292969,203213.0,1.0
12:11:20.036496,201693.03125,195720.203125,217473.90625,207300.8125,219045.765625,179630.515625,-705645.25,179236.5,0.031005859375,0.999267578125,-0.12646484375,0.1525878757238388,-0.5493163466453552,0.1220703050494194,86.66667175292969,203214.0,1.0
12:11:20.036523,201692.140625,195726.09375,217475.59375,207308.6875,219028.953125,179632.84375,-705639.4375,179244.09375,0.031494140625,1.011962890625,-0.126953125,0.2746581733226776,-0.5187987685203552,0.0915527269244194,86.66667175292969,203215.0,1.0
12:11:20.042077,201690.171875,195728.6875,217470.0625,207302.875,219027.53125,179634.984375,-705649.5,179236.5,0.033935546875,1.02197265625,-0.123046875,0.1220703050494194,-0.3051757514476776,0.03051757626235485,86.66667175292969,203216.0,1.0
12:11:20.052613,201689.984375,195720.375,217465.140625,207292.859375,219039.953125,179626.765625,-705651.875,179227.375,0.03759765625,1.030517578125,-0.121337890625,-0.1525878757238388,-0.2441406100988388,-0.0610351525247097,86.66667175292969,203217.0,1.0
12:11:20.052633,201693.5625,195723.6875,217473.625,207295.90625,219046.484375,179629.0,-705653.4375,179231.5,0.0390625,1.03515625,-0.120849609375,-0.4577636420726776,-0.2136230319738388,0.03051757626235485,86.66667175292969,203218.0,1.0
12:11:20.055152,201703.578125,195736.109375,217485.53125,207312.96875,219037.359375,179637.484375,-705658.8125,179245.703125,0.041259765625,1.031005859375,-0.1240234375,-0.8239745497703552,-0.1831054538488388,0.03051757626235485,86.66667175292969,203219.0,1.0
12:11:20.055163,201699.296875,195732.09375,217478.375,207308.5,219031.109375,179634.90625,-705659.0625,179241.234375,0.04248046875,1.02197265625,-0.131103515625,-1.2207030057907104,0.0,0.1525878757238388,86.66667175292969,203220.0,1.0
12:11:20.062023,201694.734375,195723.421875,217468.984375,207294.203125,219040.9375,179631.234375,-705658.625,179229.53125,0.043212890625,1.009765625,-0.133056640625,-1.3732908964157104,0.2441406100988388,0.1525878757238388,86.66667175292969,203221.0,1.0
12:11:20.071395,201697.0625,195727.34375,217474.703125,207294.46875,219048.53125,179634.984375,-705655.0625,179229.171875,0.041259765625,1.00146484375,-0.13623046875,-1.4343260526657104,0.3051757514476776,0.2746581733226776,86.66667175292969,203222.0,1.0
12:11:20.071411,201690.34375,195722.078125,217470.5,207299.65625,219026.625,179625.59375,-705654.0,179234.265625,0.0361328125,0.999267578125,-0.13623046875,-1.3732908964157104,0.5187987685203552,0.3662109076976776,86.66667175292969,203223.0,1.0
12:11:20.073919,201684.71875,195718.859375,217463.703125,207298.671875,219015.453125,179622.5625,-705656.0625,179231.9375,0.031494140625,1.00341796875,-0.136474609375,-1.4038084745407104,0.6713866591453552,0.2746581733226776,86.66667175292969,203224.0,1.0
12:11:20.073931,201701.96875,195739.15625,217474.171875,207297.0625,219044.328125,179645.8125,-705649.4375,179232.75,0.029296875,1.0087890625,-0.1328125,-1.4343260526657104,0.7324218153953552,0.1220703050494194,86.66667175292969,203225.0,1.0
12:11:20.086019,201704.03125,195741.828125,217480.25,207297.15625,219058.375,179649.734375,-705652.1875,179233.8125,0.02685546875,1.014892578125,-0.130615234375,-1.4953612089157104,0.7629393935203552,-0.0915527269244194,86.66667175292969,203226.0,1.0
12:11:20.086373,201691.15625,195723.328125,217470.765625,207301.984375,219030.125,179627.03125,-705651.0625,179234.71875,0.02685546875,1.01708984375,-0.131103515625,-1.8005369901657104,0.6713866591453552,-0.2441406100988388,86.66667175292969,203227.0,1.0
12:11:20.086392,201679.890625,195711.53125,217459.0625,207297.859375,219008.75,179613.796875,-705648.5625,179228.28125,0.028564453125,1.015869140625,-0.131591796875,-2.044677495956421,0.7324218153953552,-0.3051757514476776,86.66667175292969,203228.0,1.0
12:11:20.094544,201692.046875,195720.734375,217465.140625,207300.453125,219032.4375,179626.5,-705638.0,179232.296875,0.031982421875,1.01025390625,-0.1337890625,-2.227782964706421,0.8544921278953552,-0.2746581733226776,86.66667175292969,203229.0,1.0
12:11:20.120193,201701.078125,195731.46875,217476.5,207302.0625,219056.84375,179642.953125,-705634.875,179237.9375,0.03173828125,1.006103515625,-0.13720703125,-2.410888433456421,0.8544921278953552,-0.3356933295726776,86.66667175292969,203230.0,1.0
12:11:20.120217,201689.28125,195717.421875,217472.203125,207304.75,219038.4375,179627.390625,-705645.9375,179241.15625,0.03076171875,0.99951171875,-0.135498046875,-2.410888433456421,0.9155272841453552,-0.2746581733226776,86.66667175292969,203231.0,1.0
12:11:20.138615,201682.921875,195713.046875,217470.5,207307.515625,219022.78125,179621.578125,-705648.0625,179243.203125,0.02978515625,0.994873046875,-0.1357421875,-2.319335699081421,1.0070799589157104,-0.2136230319738388,86.66667175292969,203232.0,1.0
12:11:20.140806,201689.453125,195719.84375,217466.484375,207301.53125,219031.546875,179628.375,-705640.875,179237.65625,0.027587890625,0.991455078125,-0.136474609375,-2.227782964706421,0.9765624403953552,-0.2136230319738388,86.66667175292969,203233.0,1.0
12:11:20.143326,201683.5625,195715.734375,217455.484375,207283.46875,219034.953125,179626.046875,-705643.1875,179221.125,0.025146484375,0.987060546875,-0.13623046875,-2.014159917831421,0.8239745497703552,0.03051757626235485,86.66667175292969,203234.0,1.0
12:11:20.145796,201673.625,195708.671875,217454.859375,207286.15625,219024.75,179621.578125,-705645.125,179223.71875,0.025146484375,0.987548828125,-0.136474609375,-1.7395018339157104,0.7324218153953552,0.03051757626235485,86.66667175292969,203235.0,1.0
12:11:20.148332,201659.953125,195694.984375,217445.734375,207289.28125,219000.96875,179607.265625,-705653.625,179227.828125,0.02392578125,0.988037109375,-0.135498046875,-1.5258787870407104,0.7629393935203552,0.0,86.66667175292969,203236.0,1.0
12:11:20.150808,201668.984375,195707.5,217448.234375,207290.53125,219012.5,179618.359375,-705652.5625,179229.53125,0.023681640625,0.98828125,-0.134765625,-1.2817381620407104,0.7629393935203552,-0.0610351525247097,86.66667175292969,203237.0,1.0
12:11:20.153312,201680.515625,195718.5,217456.828125,207287.140625,219038.875,179631.859375,-705641.125,179230.421875,0.023681640625,0.98876953125,-0.135009765625,-1.0986326932907104,0.5798339247703552,-0.0915527269244194,86.66667175292969,203238.0,1.0
12:11:20.156415,201671.578125,195713.578125,217453.515625,207280.703125,219028.234375,179626.578125,-705635.5625,179222.828125,0.024169921875,0.988525390625,-0.13232421875,-0.9155272841453552,0.5493163466453552,-0.2136230319738388,86.66667175292969,203239.0,1.0
12:11:20.156432,201668.265625,195710.984375,217452.265625,207290.0,219007.59375,179620.5,-705641.75,179231.046875,0.026123046875,0.98779296875,-0.1357421875,-0.6408690810203552,0.4272460639476776,-0.0915527269244194,86.66667175292969,203240.0,1.0
12:11:20.163399,201661.375,195704.46875,217440.546875,207277.65625,218999.453125,179614.0625,-705638.6875,179216.03125,0.022216796875,0.985595703125,-0.1376953125,-0.4272460639476776,0.2746581733226776,-0.0915527269244194,86.66667175292969,203241.0,1.0
12:11:20.163417,201677.03125,195715.375,217452.796875,207282.484375,219029.578125,179626.5,-705641.125,179222.90625,0.022705078125,0.98876953125,-0.134033203125,-0.1525878757238388,0.2136230319738388,-0.0915527269244194,86.66667175292969,203242.0,1.0
12:11:20.163423,201674.078125,195713.3125,217457.984375,207282.40625,219034.953125,179626.578125,-705649.625,179223.71875,0.020751953125,0.99560546875,-0.133544921875,0.03051757626235485,-0.03051757626235485,0.0,86.66667175292969,203243.0,1.0
12:11:20.163428,201668.71875,195709.65625,217455.75,207287.234375,219014.390625,179620.859375,-705650.9375,179227.5625,0.021484375,1.00048828125,-0.133056640625,0.1831054538488388,-0.2746581733226776,-0.03051757626235485,86.66667175292969,203244.0,1.0
12:11:20.163432,201679.625,195727.53125,217462.546875,207293.03125,219020.109375,179637.765625,-705641.3125,179230.0625,0.020751953125,1.00634765625,-0.13134765625,0.1220703050494194,-0.3356933295726776,-0.1525878757238388,86.66667175292969,203245.0,1.0
12:11:20.165792,201694.015625,195735.046875,217472.5625,207297.15625,219047.734375,179647.6875,-705638.25,179234.890625,0.021484375,1.0107421875,-0.1298828125,0.03051757626235485,-0.4577636420726776,-0.2136230319738388,86.66667175292969,203246.0,1.0
12:11:20.173913,201680.15625,195716.890625,217463.34375,207288.125,219042.09375,179628.28125,-705643.0,179224.703125,0.022216796875,1.017333984375,-0.130126953125,-0.1525878757238388,-0.5493163466453552,-0.1831054538488388,86.66667175292969,203247.0,1.0
12:11:20.173934,201671.125,195707.953125,217458.703125,207293.84375,219019.5625,179615.59375,-705642.75,179230.78125,0.02685546875,1.022216796875,-0.128173828125,-0.4272460639476776,-0.5798339247703552,-0.3051757514476776,86.66667175292969,203248.0,1.0
12:11:20.176988,201674.609375,195715.109375,217458.4375,207295.359375,219012.140625,179622.296875,-705645.25,179228.015625,0.02880859375,1.02490234375,-0.130126953125,-0.9155272841453552,-0.7629393935203552,-0.3662109076976776,86.66667175292969,203249.0,1.0
12:11:20.177015,201687.9375,195722.703125,217464.6875,207297.421875,219033.875,179633.203125,-705644.25,179229.625,0.03369140625,1.0234375,-0.1357421875,-1.2817381620407104,-0.7324218153953552,-0.2746581733226776,86.66667175292969,203250.0,1.0
12:11:20.184556,201689.015625,195723.59375,217469.96875,207295.359375,219048.984375,179638.296875,-705639.75,179231.859375,0.035400390625,1.0185546875,-0.135009765625,-1.5563963651657104,-0.5187987685203552,-0.3051757514476776,86.66667175292969,203251.0,1.0
12:11:20.201325,201683.640625,195720.640625,217470.6875,207301.359375,219033.15625,179633.296875,-705632.375,179238.296875,0.036376953125,1.016845703125,-0.1357421875,-1.9836424589157104,-0.3356933295726776,-0.3662109076976776,86.66667175292969,203252.0,1.0
12:11:20.201375,201687.671875,195730.84375,217472.921875,207306.984375,219027.25,179644.5625,-705634.875,179241.859375,0.0400390625,1.015380859375,-0.138427734375,-2.197265386581421,-0.1525878757238388,-0.3967284858226776,86.66667175292969,203253.0,1.0
12:11:20.201390,201693.203125,195734.765625,217473.28125,207301.796875,219045.046875,179650.71875,-705635.1875,179241.859375,0.042724609375,1.013671875,-0.135986328125,-2.441406011581421,0.0915527269244194,-0.3356933295726776,86.66667175292969,203254.0,1.0
12:11:20.204565,201687.3125,195724.125,217469.25,207290.359375,219053.546875,179642.59375,-705640.5625,179232.390625,0.04150390625,1.008056640625,-0.136474609375,-2.593993902206421,0.4882812201976776,-0.3356933295726776,86.66667175292969,203255.0,1.0
12:11:20.204578,201671.21875,195707.328125,217460.40625,207288.296875,219030.828125,179624.96875,-705634.6875,179231.578125,0.040283203125,1.002197265625,-0.1376953125,-2.593993902206421,0.7629393935203552,-0.3662109076976776,86.66667175292969,203256.0,1.0
12:11:20.204580,201669.15625,195710.625,217458.609375,207293.3125,219015.453125,179627.390625,-705630.5625,179237.03125,0.03955078125,0.995361328125,-0.138427734375,-2.532958745956421,0.9460448622703552,-0.2746581733226776,86.66667175292969,203257.0,1.0
12:11:20.207028,201670.6875,195711.265625,217454.671875,207287.40625,219025.734375,179632.75,-705637.375,179232.921875,0.039306640625,0.991943359375,-0.140625,-2.471923589706421,1.1291502714157104,-0.1525878757238388,86.66667175292969,203258.0,1.0
12:11:20.210812,201659.328125,195696.59375,217443.234375,207270.0625,219028.515625,179619.4375,-705636.375,179216.65625,0.037841796875,0.993896484375,-0.134765625,-2.319335699081421,1.4038084745407104,-0.1831054538488388,86.66667175292969,203259.0,1.0
12:11:20.242167,201646.8125,195684.078125,217436.53125,207269.703125,219012.140625,179603.421875,-705635.125,179213.875,0.035400390625,0.998046875,-0.129638671875,-2.227782964706421,1.4953612089157104,0.03051757626235485,86.66667175292969,203260.0,1.0
12:11:20.269551,201627.59375,195666.203125,217417.3125,207260.859375,218976.46875,179582.5,-705652.125,179203.78125,0.034423828125,1.008544921875,-0.12548828125,-2.197265386581421,1.6479490995407104,0.0,86.66667175292969,203261.0,1.0
12:11:20.269569,201635.28125,195675.9375,217418.734375,207258.609375,218986.40625,179594.75,-705650.625,179200.921875,0.031005859375,1.015380859375,-0.129150390625,-2.319335699081421,1.7395018339157104,-0.2136230319738388,86.66667175292969,203262.0,1.0
12:11:20.269572,201650.203125,195687.203125,217430.53125,207264.703125,219013.9375,179607.625,-705646.75,179208.34375,0.027587890625,1.013427734375,-0.126708984375,-2.502441167831421,1.9531248807907104,-0.3967284858226776,86.66667175292969,203263.0,1.0
12:11:20.272916,201659.234375,195695.34375,217443.5,207277.65625,219019.484375,179613.359375,-705640.3125,179219.96875,0.028076171875,1.0087890625,-0.127197265625,-2.624511480331421,2.044677495956421,-0.3051757514476776,86.66667175292969,203264.0,1.0
12:11:20.272982,201649.484375,195688.546875,217436.078125,207276.40625,218993.8125,179603.96875,-705645.25,179218.0,0.02685546875,1.002197265625,-0.128662109375,-2.563476324081421,2.075195074081421,-0.2746581733226776,86.66667175292969,203265.0,1.0
12:11:20.274579,201648.15625,195689.4375,217429.90625,207269.703125,218992.5625,179605.125,-705649.5,179212.265625,0.025390625,0.995849609375,-0.13037109375,-2.532958745956421,1.9836424589157104,-0.2441406100988388,86.66667175292969,203266.0,1.0
12:11:20.277284,201670.59375,195704.90625,217445.921875,207277.296875,219026.09375,179622.5625,-705643.4375,179219.421875,0.024169921875,0.98974609375,-0.129638671875,-2.319335699081421,1.9836424589157104,-0.1220703050494194,86.66667175292969,203267.0,1.0
12:11:20.279789,201665.140625,195703.65625,217447.34375,207274.265625,219026.1875,179622.203125,-705645.0625,179215.84375,0.022216796875,0.990234375,-0.13232421875,-2.105712652206421,1.8005369901657104,-0.0610351525247097,86.66667175292969,203268.0,1.0
12:11:20.282085,201663.078125,195704.734375,217453.25,207284.640625,219014.734375,179622.03125,-705633.4375,179228.015625,0.02197265625,0.991455078125,-0.13134765625,-2.014159917831421,1.7700194120407104,-0.0915527269244194,86.66667175292969,203269.0,1.0
12:11:20.284723,201653.6875,195696.140625,217442.25,207277.125,219004.546875,179614.875,-705648.375,179220.046875,0.0224609375,0.996826171875,-0.13134765625,-1.7089842557907104,1.6784666776657104,-0.03051757626235485,86.66667175292969,203270.0,1.0
12:11:20.287150,201665.5,195701.15625,217442.421875,207272.5625,219021.09375,179618.1875,-705646.125,179214.78125,0.022705078125,1.00244140625,-0.13134765625,-1.5869139432907104,1.6479490995407104,-0.0610351525247097,86.66667175292969,203271.0,1.0
12:11:20.293737,201681.859375,195718.5,217458.34375,207283.03125,219038.515625,179633.734375,-705633.625,179220.859375,0.026123046875,1.005615234375,-0.12939453125,-1.4953612089157104,1.7700194120407104,-0.1220703050494194,86.66667175292969,203272.0,1.0
12:11:20.295871,201664.953125,195703.21875,217447.53125,207279.09375,219009.28125,179616.484375,-705630.0625,179215.671875,0.02880859375,1.004150390625,-0.1279296875,-1.4343260526657104,1.7395018339157104,-0.0915527269244194,86.66667175292969,203273.0,1.0
12:11:20.298365,201652.171875,195692.84375,217436.53125,207270.6875,218993.109375,179606.28125,-705637.125,179207.171875,0.028564453125,1.003173828125,-0.127685546875,-1.4648436307907104,1.8615721464157104,-0.1220703050494194,86.66667175292969,203274.0,1.0
12:11:20.300917,201671.125,195708.84375,217451.734375,207279.453125,219026.8125,179626.859375,-705642.4375,179219.515625,0.02685546875,1.00244140625,-0.126220703125,-1.4648436307907104,1.9226073026657104,0.03051757626235485,86.66667175292969,203275.0,1.0
12:11:20.303387,201685.96875,195727.625,217471.125,207288.65625,219055.515625,179648.046875,-705634.5625,179230.15625,0.02490234375,0.9990234375,-0.1318359375,-1.4648436307907104,1.8310545682907104,0.1220703050494194,86.66667175292969,203276.0,1.0
12:11:20.306835,201655.75,195695.875,217444.84375,207269.796875,219013.84375,179614.875,-705636.3125,179211.46875,0.0244140625,0.9951171875,-0.13134765625,-1.3732908964157104,1.7395018339157104,-0.03051757626235485,86.66667175292969,203277.0,1.0
12:11:20.306926,201654.671875,195699.28125,217443.859375,207272.65625,219003.296875,179617.828125,-705641.8125,179215.671875,0.023193359375,0.990478515625,-0.1318359375,-1.0986326932907104,1.8005369901657104,0.03051757626235485,86.66667175292969,203278.0,1.0
12:11:20.308316,201673.265625,195716.0,217456.90625,207278.375,219031.109375,179637.21875,-705630.375,179224.609375,0.0205078125,0.9951171875,-0.128173828125,-1.0986326932907104,1.7089842557907104,0.3051757514476776,86.66667175292969,203279.0,1.0
12:11:20.311581,201677.203125,195718.671875,217463.265625,207279.09375,219048.09375,179640.984375,-705629.0625,179226.21875,0.02099609375,1.0078125,-0.126953125,-1.0375975370407104,1.6784666776657104,0.3356933295726776,86.66667175292969,203280.0,1.0
12:11:20.313953,201669.875,195708.84375,217462.71875,207287.046875,219033.96875,179628.734375,-705626.4375,179234.0,0.02294921875,1.018310546875,-0.12646484375,-1.1901854276657104,1.6784666776657104,0.2746581733226776,86.66667175292969,203281.0,1.0
12:11:20.314027,201654.234375,195694.1875,217446.71875,207281.5,219006.609375,179613.984375,-705635.375,179227.46875,0.03076171875,1.02392578125,-0.132568359375,-1.5563963651657104,1.8615721464157104,-0.0915527269244194,86.66667175292969,203282.0,1.0
12:11:20.316686,201668.71875,195710.1875,217455.296875,207286.25,219029.3125,179634.8125,-705636.125,179232.203125,0.03369140625,1.02001953125,-0.133544921875,-1.8310545682907104,2.014159917831421,-0.2136230319738388,86.66667175292969,203283.0,1.0
12:11:20.318941,201689.90625,195732.09375,217476.40625,207296.703125,219065.703125,179658.5,-705631.8125,179246.0625,0.037109375,1.010986328125,-0.1337890625,-2.136230230331421,2.197265386581421,-0.2441406100988388,86.66667175292969,203284.0,1.0
12:11:20.319005,201673.984375,195713.578125,217467.109375,207293.125,219045.40625,179636.234375,-705634.0625,179240.078125,0.036376953125,1.00537109375,-0.1337890625,-2.197265386581421,2.380370855331421,-0.0915527269244194,86.66667175292969,203285.0,1.0
12:11:20.320924,201664.328125,195705.265625,217458.171875,207291.703125,219019.03125,179625.59375,-705628.6875,179237.21875,0.03125,0.99853515625,-0.136962890625,-2.197265386581421,2.532958745956421,0.1220703050494194,86.66667175292969,203286.0,1.0
12:11:20.325928,201668.09375,195709.296875,217455.125,207287.046875,219023.765625,179630.875,-705631.75,179230.15625,0.026123046875,0.998046875,-0.135009765625,-2.075195074081421,2.593993902206421,0.3662109076976776,86.66667175292969,203287.0,1.0
12:11:20.332834,201683.5625,195722.703125,217468.890625,207294.921875,219055.78125,179646.703125,-705628.75,179240.171875,0.0224609375,1.001708984375,-0.13427734375,-2.014159917831421,2.532958745956421,0.5187987685203552,86.66667175292969,203288.0,1.0
12:11:20.332924,201681.046875,195723.15625,217472.296875,207296.609375,219052.734375,179643.84375,-705630.3125,179243.46875,0.0185546875,1.007080078125,-0.133544921875,-2.014159917831421,2.380370855331421,0.8239745497703552,86.66667175292969,203289.0,1.0
12:11:20.342527,201674.53125,195721.1875,217465.859375,207294.203125,219027.96875,179641.34375,-705634.125,179239.546875,0.015380859375,1.014404296875,-0.12890625,-2.136230230331421,2.410888433456421,0.9460448622703552,86.66667175292969,203290.0,1.0
12:11:20.347249,201677.203125,195724.765625,217465.5,207294.203125,219033.0625,179646.96875,-705629.3125,179239.90625,0.013427734375,1.017822265625,-0.123779296875,-2.349853277206421,2.197265386581421,1.0375975370407104,86.66667175292969,203291.0,1.0
12:11:20.347341,201680.0625,195724.578125,217466.390625,207289.546875,219054.609375,179651.625,-705624.125,179237.65625,0.013427734375,1.016845703125,-0.123046875,-2.502441167831421,2.075195074081421,0.8544921278953552,86.66667175292969,203292.0,1.0
12:11:20.349025,201666.484375,195709.015625,217455.75,207277.921875,219040.84375,179636.421875,-705627.0625,179223.8125,0.014404296875,1.01416015625,-0.12451171875,-2.655029058456421,1.9531248807907104,0.8544921278953552,86.66667175292969,203293.0,1.0
12:11:20.349120,201657.71875,195697.125,217448.953125,207283.734375,219015.09375,179620.328125,-705629.125,179228.1875,0.016845703125,1.00732421875,-0.126953125,-2.716064214706421,1.8615721464157104,0.8850097060203552,86.66667175292969,203294.0,1.0
12:11:20.358664,201663.609375,195708.9375,217452.625,207285.96875,219018.578125,179631.859375,-705626.0,179227.734375,0.02001953125,1.002197265625,-0.12744140625,-2.624511480331421,1.8005369901657104,0.9765624403953552,86.66667175292969,203295.0,1.0
12:11:20.362821,201679.0,195721.546875,217460.9375,207283.921875,219043.796875,179646.25,-705622.875,179226.9375,0.021240234375,0.996337890625,-0.12353515625,-2.502441167831421,1.6784666776657104,1.1901854276657104,86.66667175292969,203296.0,1.0
12:11:20.362910,201678.28125,195722.96875,217465.3125,207282.9375,219051.484375,179648.21875,-705628.625,179226.84375,0.019775390625,0.99169921875,-0.125,-2.349853277206421,1.5563963651657104,1.4038084745407104,86.66667175292969,203297.0,1.0
12:11:20.369907,201664.6875,195709.015625,217457.1875,207285.796875,219027.34375,179633.296875,-705628.3125,179229.703125,0.01806640625,0.9892578125,-0.124755859375,-1.9836424589157104,1.3122557401657104,1.5563963651657104,86.66667175292969,203298.0,1.0
12:11:20.373944,201659.953125,195709.828125,217448.859375,207280.515625,219015.28125,179633.015625,-705623.75,179222.640625,0.015869140625,0.9873046875,-0.1220703125,-1.6174315214157104,1.1291502714157104,1.8005369901657104,86.66667175292969,203299.0,1.0
12:11:20.373984,201670.953125,195716.890625,217452.890625,207277.75,219036.203125,179643.390625,-705616.0,179222.109375,0.01611328125,0.98779296875,-0.1220703125,-1.2207030057907104,0.9765624403953552,1.8310545682907104,86.66667175292969,203300.0,1.0
12:11:20.383705,201667.015625,195710.1875,217454.40625,207274.265625,219044.953125,179637.9375,-705614.375,179219.515625,0.0146484375,0.986328125,-0.124267578125,-0.9460448622703552,0.6713866591453552,2.014159917831421,86.66667175292969,203301.0,1.0
12:11:20.386420,201642.421875,195687.75,217435.453125,207262.1875,219009.640625,179615.59375,-705620.9375,179208.25,0.014404296875,0.987060546875,-0.122314453125,-0.7324218153953552,0.5493163466453552,2.014159917831421,86.66667175292969,203302.0,1.0
12:11:20.386451,201650.46875,195699.640625,217441.71875,207272.921875,219006.421875,179624.078125,-705618.3125,179218.4375,0.015380859375,0.990478515625,-0.1201171875,-0.4272460639476776,0.2136230319738388,2.044677495956421,86.66667175292969,203303.0,1.0
12:11:20.389976,201674.796875,195724.046875,217458.875,207282.125,219038.34375,179650.71875,-705614.5,179228.71875,0.015869140625,0.99365234375,-0.119873046875,-0.3051757514476776,-0.0915527269244194,1.9836424589157104,86.66667175292969,203304.0,1.0
12:11:20.415195,201665.578125,195712.515625,217452.359375,207270.953125,219046.484375,179645.453125,-705614.375,179223.09375,0.0185546875,1.00146484375,-0.11767578125,-0.1831054538488388,-0.2441406100988388,1.9836424589157104,86.66667175292969,203305.0,1.0
12:11:20.415215,201649.671875,195695.4375,217442.25,207267.640625,219024.75,179628.375,-705615.5625,179221.21875,0.021728515625,1.009521484375,-0.120361328125,-0.1220703050494194,-0.3967284858226776,1.9226073026657104,86.66667175292969,203306.0,1.0
12:11:20.417077,201646.8125,195698.203125,217438.140625,207269.796875,219006.78125,179627.921875,-705614.8125,179220.5,0.023681640625,1.01416015625,-0.12109375,-0.3356933295726776,-0.4577636420726776,1.8005369901657104,86.66667175292969,203307.0,1.0
12:11:20.419539,201654.671875,195705.265625,217437.875,207268.546875,219017.515625,179634.09375,-705620.9375,179217.71875,0.028076171875,1.015380859375,-0.115966796875,-0.5187987685203552,-0.5798339247703552,1.8005369901657104,86.66667175292969,203308.0,1.0
12:11:20.422066,201660.21875,195706.703125,217443.859375,207267.921875,219038.515625,179638.5625,-705623.75,179220.671875,0.03271484375,1.013671875,-0.12060546875,-0.7324218153953552,-0.6103515028953552,1.8310545682907104,86.66667175292969,203309.0,1.0
12:11:20.424515,201660.046875,195707.328125,217450.125,207276.5,219035.65625,179639.28125,-705629.4375,179228.359375,0.03564453125,1.014404296875,-0.1201171875,-0.9155272841453552,-0.5187987685203552,1.9226073026657104,86.66667175292969,203310.0,1.0
12:11:20.429713,201644.578125,195693.828125,217433.75,207271.21875,219003.125,179621.484375,-705643.625,179220.59375,0.03515625,1.0146484375,-0.11865234375,-1.0375975370407104,-0.5187987685203552,1.8920897245407104,86.66667175292969,203311.0,1.0
12:11:20.432016,201644.84375,195693.015625,217430.09375,207266.125,219008.296875,179622.109375,-705640.0625,179216.828125,0.035400390625,1.0166015625,-0.120849609375,-1.2207030057907104,-0.4577636420726776,1.8310545682907104,86.66667175292969,203312.0,1.0
12:11:20.435181,201656.28125,195702.859375,217440.46875,207268.265625,219038.25,179637.21875,-705629.75,179223.09375,0.038818359375,1.01611328125,-0.1220703125,-1.3732908964157104,-0.4577636420726776,1.7395018339157104,86.66667175292969,203313.0,1.0
12:11:20.435201,201641.171875,195686.046875,217430.625,207260.140625,219022.25,179618.453125,-705631.9375,179213.078125,0.039306640625,1.015869140625,-0.121826171875,-1.6784666776657104,-0.2441406100988388,1.7395018339157104,86.66667175292969,203314.0,1.0
12:11:20.437366,201626.953125,195670.671875,217418.921875,207257.09375,218992.125,179602.984375,-705634.3125,179210.75,0.0400390625,1.012451171875,-0.124755859375,-1.8920897245407104,-0.0915527269244194,1.5869139432907104,86.66667175292969,203315.0,1.0
12:11:20.452730,201631.875,195680.6875,217421.59375,207255.125,219000.703125,179615.859375,-705631.0,179209.765625,0.039794921875,1.009521484375,-0.1240234375,-1.9836424589157104,-0.03051757626235485,1.4648436307907104,86.66667175292969,203316.0,1.0
12:11:20.452755,201646.09375,195690.78125,217431.703125,207257.984375,219028.515625,179627.65625,-705627.5,179215.9375,0.038330078125,1.005615234375,-0.12353515625,-2.014159917831421,0.2441406100988388,1.4648436307907104,86.66667175292969,203317.0,1.0
12:11:20.457656,201645.28125,195691.140625,217435.09375,207259.15625,219030.921875,179626.140625,-705625.1875,179216.390625,0.03955078125,1.004638671875,-0.126220703125,-1.9531248807907104,0.3356933295726776,1.4343260526657104,86.66667175292969,203318.0,1.0
12:11:20.457682,201634.921875,195680.40625,217426.0625,207259.25,219001.234375,179610.3125,-705629.3125,179213.875,0.040283203125,1.004150390625,-0.125244140625,-1.9836424589157104,0.5187987685203552,1.3732908964157104,86.66667175292969,203319.0,1.0
12:11:20.459535,201642.96875,195688.8125,217429.28125,207263.53125,219002.140625,179617.46875,-705633.0625,179213.609375,0.040771484375,1.006591796875,-0.121337890625,-1.9836424589157104,0.7324218153953552,1.3732908964157104,86.66667175292969,203320.0,1.0
12:11:20.462015,201652.625,195696.953125,217436.625,207262.46875,219028.859375,179630.15625,-705628.6875,179215.140625,0.03857421875,1.009765625,-0.1220703125,-1.9531248807907104,0.7934569716453552,1.2512205839157104,86.66667175292969,203321.0,1.0
12:11:20.469006,201644.75,195691.3125,217436.34375,207257.09375,219034.234375,179627.203125,-705643.4375,179211.828125,0.037841796875,1.012451171875,-0.122314453125,-1.9226073026657104,0.9460448622703552,1.3427733182907104,86.66667175292969,203322.0,1.0
12:11:20.471428,201636.53125,195684.078125,217434.46875,207263.796875,219015.71875,179618.453125,-705644.9375,179219.78125,0.03564453125,1.015625,-0.121826171875,-1.8310545682907104,0.9155272841453552,1.3427733182907104,86.66667175292969,203323.0,1.0
12:11:20.471442,201635.1875,195683.625,217432.0625,207265.140625,219005.703125,179616.390625,-705653.25,179218.0,0.0341796875,1.013671875,-0.125,-2.044677495956421,0.8850097060203552,1.4343260526657104,86.66667175292969,203324.0,1.0
12:11:20.480835,201646.546875,195690.515625,217434.921875,207263.984375,219023.765625,179623.8125,-705652.75,179216.75,0.03271484375,1.0087890625,-0.1240234375,-2.075195074081421,1.0986326932907104,1.4343260526657104,86.66667175292969,203325.0,1.0
12:11:20.485441,201653.78125,195695.609375,217443.0625,207267.375,219038.875,179629.359375,-705655.9375,179220.046875,0.031982421875,1.003173828125,-0.122802734375,-2.014159917831421,1.0681151151657104,1.2817381620407104,86.66667175292969,203326.0,1.0
12:11:20.485502,201635.09375,195676.921875,217429.203125,207261.484375,219009.015625,179610.40625,-705660.9375,179212.453125,0.028564453125,0.99365234375,-0.12451171875,-2.105712652206421,1.0681151151657104,1.2207030057907104,86.66667175292969,203327.0,1.0
12:11:20.492153,201629.203125,195677.46875,217424.546875,207255.578125,218994.453125,179609.59375,-705652.375,179206.28125,0.025390625,0.985595703125,-0.1259765625,-1.7700194120407104,0.8850097060203552,1.1901854276657104,86.66667175292969,203328.0,1.0
12:11:20.496461,201642.78125,195694.09375,217434.5625,207255.84375,219021.71875,179629.0,-705655.125,179210.65625,0.0263671875,0.980224609375,-0.125,-1.3427733182907104,0.7629393935203552,1.0070799589157104,86.66667175292969,203329.0,1.0
12:11:20.496467,201645.375,195695.171875,217436.96875,207253.78125,219035.125,179630.25,-705653.0,179210.125,0.02587890625,0.977783203125,-0.128662109375,-0.9765624403953552,0.8544921278953552,0.8544921278953552,86.66667175292969,203330.0,1.0
12:11:20.522041,201633.3125,195683.8125,217430.71875,207252.453125,219013.484375,179615.765625,-705657.9375,179206.109375,0.028564453125,0.97705078125,-0.126708984375,-0.5187987685203552,0.8544921278953552,0.6103515028953552,86.66667175292969,203331.0,1.0
12:11:20.522053,201626.515625,195679.703125,217425.625,207253.78125,218995.421875,179610.765625,-705654.0625,179206.640625,0.028564453125,0.98095703125,-0.13037109375,-0.1220703050494194,0.7629393935203552,0.5187987685203552,86.66667175292969,203332.0,1.0
12:11:20.522055,201626.421875,195679.96875,217420.875,207246.8125,219004.8125,179613.984375,-705643.0,179202.078125,0.030517578125,0.9892578125,-0.128662109375,0.03051757626235485,0.6408690810203552,0.4577636420726776,86.66667175292969,203333.0,1.0
12:11:20.525376,201640.28125,195692.390625,217433.125,207250.84375,219032.171875,179629.0,-705639.4375,179209.671875,0.0322265625,0.997314453125,-0.12646484375,0.3662109076976776,0.6408690810203552,0.4577636420726776,86.66667175292969,203334.0,1.0
12:11:20.525393,201629.015625,195679.78125,217425.796875,207248.25,219013.21875,179613.078125,-705647.8125,179204.21875,0.032958984375,1.0048828125,-0.125,0.4272460639476776,0.6103515028953552,0.4272460639476776,86.66667175292969,203335.0,1.0
12:11:20.529696,201621.5,195672.8125,217418.46875,207250.5625,218990.875,179602.359375,-705649.4375,179204.5,0.0341796875,1.01220703125,-0.125244140625,0.4272460639476776,0.7324218153953552,0.5187987685203552,86.66667175292969,203336.0,1.0
12:11:20.532089,201632.421875,195687.296875,217424.640625,207253.25,219005.890625,179620.234375,-705641.125,179206.640625,0.0380859375,1.013916015625,-0.126708984375,0.3356933295726776,0.6408690810203552,0.6103515028953552,86.66667175292969,203337.0,1.0
12:11:20.534548,201648.328125,195697.671875,217439.75,207261.5625,219038.703125,179633.640625,-705636.5,179218.171875,0.03759765625,1.010498046875,-0.126708984375,0.2441406100988388,0.6103515028953552,0.7629393935203552,86.66667175292969,203338.0,1.0
12:11:20.537024,201639.921875,195686.484375,217437.25,207262.375,219029.671875,179619.875,-705638.25,179217.71875,0.035888671875,1.005615234375,-0.131103515625,0.1525878757238388,0.6408690810203552,0.8544921278953552,86.66667175292969,203339.0,1.0
12:11:20.539805,201627.859375,195675.234375,217425.359375,207260.5,218998.828125,179605.125,-705640.5,179212.984375,0.034423828125,1.00439453125,-0.134033203125,0.1525878757238388,0.7324218153953552,0.8544921278953552,86.66667175292969,203340.0,1.0
12:11:20.542133,201632.859375,195681.578125,217423.828125,207259.953125,219001.234375,179610.40625,-705640.75,179209.328125,0.031494140625,1.008056640625,-0.13134765625,0.1831054538488388,0.8239745497703552,0.7934569716453552,86.66667175292969,203341.0,1.0
12:11:20.550279,201645.46875,195687.390625,217431.609375,207261.390625,219028.6875,179620.765625,-705644.1875,179212.265625,0.028564453125,1.013916015625,-0.12939453125,-0.0915527269244194,0.8239745497703552,0.7019042372703552,86.66667175292969,203342.0,1.0
12:11:20.550289,201652.359375,195694.71875,217443.0625,207270.328125,219038.703125,179625.59375,-705645.4375,179221.03125,0.029052734375,1.021728515625,-0.130615234375,-0.2746581733226776,0.9155272841453552,0.4882812201976776,86.66667175292969,203343.0,1.0
12:11:20.557732,201633.671875,195679.078125,217427.765625,207266.578125,219004.90625,179609.0625,-705641.5625,179217.640625,0.029541015625,1.02392578125,-0.127685546875,-0.4882812201976776,0.9460448622703552,0.3356933295726776,86.66667175292969,203344.0,1.0
12:11:20.557748,201636.078125,195685.421875,217427.3125,207267.46875,219004.28125,179616.75,-705636.3125,179217.640625,0.032470703125,1.02490234375,-0.130126953125,-0.7019042372703552,0.9460448622703552,0.0610351525247097,86.66667175292969,203345.0,1.0
12:11:20.560294,201649.3125,195691.046875,217434.203125,207269.796875,219028.953125,179623.640625,-705638.5,179222.375,0.03369140625,1.023193359375,-0.1318359375,-1.0681151151657104,1.0070799589157104,-0.2136230319738388,86.66667175292969,203346.0,1.0
12:11:20.560302,201637.328125,195676.921875,217426.25,207257.359375,219024.125,179607.359375,-705644.6875,179209.859375,0.03515625,1.014892578125,-0.132080078125,-1.4648436307907104,1.0681151151657104,-0.3051757514476776,86.66667175292969,203347.0,1.0
12:11:20.572063,201631.078125,195674.875,217425.359375,207261.828125,219005.890625,179603.96875,-705644.0625,179213.4375,0.03466796875,1.001953125,-0.133056640625,-1.6784666776657104,1.2512205839157104,-0.3356933295726776,86.66667175292969,203348.0,1.0
12:11:20.575192,201635.359375,195683.625,217428.75,207263.4375,219003.390625,179612.375,-705644.25,179215.9375,0.03271484375,0.992431640625,-0.13818359375,-1.6174315214157104,1.3427733182907104,-0.1831054538488388,86.66667175292969,203349.0,1.0
12:11:20.575202,201648.6875,195697.21875,217436.53125,207262.375,219029.671875,179629.0,-705635.875,179217.28125,0.030029296875,0.985107421875,-0.1396484375,-1.3732908964157104,1.2207030057907104,0.0,86.66667175292969,203350.0,1.0
12:11:20.600332,201650.65625,195697.484375,217439.65625,207261.03125,219040.046875,179630.875,-705627.4375,179214.234375,0.028076171875,0.98095703125,-0.139404296875,-0.8850097060203552,1.1596678495407104,0.1831054538488388,86.66667175292969,203351.0,1.0
12:11:20.600422,201636.53125,195679.609375,217429.28125,207263.796875,219015.1875,179611.46875,-705630.5,179217.09375,0.0263671875,0.982177734375,-0.13671875,-0.6408690810203552,1.0681151151657104,0.1220703050494194,86.66667175292969,203352.0,1.0
12:11:20.636752,201623.390625,195670.578125,217415.15625,207256.46875,218989.96875,179600.828125,-705635.125,179208.25,0.028076171875,0.9892578125,-0.13671875,-0.4882812201976776,1.0986326932907104,0.1831054538488388,86.66667175292969,203353.0,1.0
12:11:20.638498,201633.21875,195675.046875,217416.6875,207254.421875,219005.890625,179606.109375,-705644.4375,179204.84375,0.029296875,0.993408203125,-0.1337890625,-0.3967284858226776,1.1291502714157104,0.1220703050494194,86.66667175292969,203354.0,1.0
12:11:20.641944,201635.1875,195676.203125,217418.015625,207246.90625,219019.03125,179608.609375,-705643.0,179196.890625,0.027587890625,0.99462890625,-0.1328125,-0.3356933295726776,1.0986326932907104,0.1220703050494194,86.66667175292969,203355.0,1.0
12:11:20.642041,201636.96875,195677.734375,217421.6875,207257.984375,219007.671875,179606.015625,-705635.75,179206.015625,0.02685546875,0.9931640625,-0.130126953125,-0.3051757514476776,0.9765624403953552,0.2136230319738388,86.66667175292969,203356.0,1.0
12:11:20.645237,201635.359375,195682.015625,217421.59375,207262.640625,218995.25,179611.390625,-705632.25,179209.140625,0.026123046875,0.9912109375,-0.130615234375,-0.1220703050494194,0.9765624403953552,0.3356933295726776,86.66667175292969,203357.0,1.0
12:11:20.646198,201650.109375,195696.328125,217431.078125,207267.203125,219016.078125,179626.9375,-705629.875,179212.546875,0.023681640625,0.99072265625,-0.130126953125,-0.03051757626235485,0.8544921278953552,0.3967284858226776,86.66667175292969,203358.0,1.0
12:11:20.648353,201648.59375,195689.703125,217429.828125,207261.296875,219030.203125,179622.46875,-705629.875,179209.046875,0.0205078125,0.986083984375,-0.129638671875,0.1525878757238388,0.6408690810203552,0.4577636420726776,86.66667175292969,203359.0,1.0
12:11:20.650862,201636.96875,195677.546875,217426.875,207263.53125,219017.875,179610.84375,-705638.875,179210.3125,0.01904296875,0.986083984375,-0.133544921875,0.5493163466453552,0.5493163466453552,0.4882812201976776,86.66667175292969,203360.0,1.0
12:11:20.653417,201622.40625,195664.046875,217413.109375,207257.546875,218989.171875,179595.734375,-705638.4375,179204.140625,0.0166015625,0.990966796875,-0.13037109375,0.9460448622703552,0.3662109076976776,0.4882812201976776,86.66667175292969,203361.0,1.0
12:11:20.655847,201635.09375,195679.78125,217421.515625,207262.28125,219006.34375,179614.609375,-705632.8125,179209.59375,0.015869140625,0.998046875,-0.12890625,1.1291502714157104,0.1220703050494194,0.4577636420726776,86.66667175292969,203362.0,1.0
12:11:20.658357,201651.8125,195692.578125,217432.5,207263.984375,219034.859375,179628.015625,-705633.5,179211.828125,0.014404296875,1.003173828125,-0.131103515625,1.1596678495407104,-0.2746581733226776,0.4272460639476776,86.66667175292969,203363.0,1.0
12:11:20.660869,201646.8125,195689.4375,217434.5625,207266.3125,219032.171875,179623.546875,-705633.625,179213.796875,0.018798828125,1.006591796875,-0.1328125,1.2817381620407104,-0.4272460639476776,0.4272460639476776,86.66667175292969,203364.0,1.0
12:11:20.663771,201628.296875,195673.171875,217419.984375,207260.578125,219000.53125,179606.109375,-705630.8125,179207.171875,0.018798828125,1.00732421875,-0.13232421875,1.2512205839157104,-0.7324218153953552,0.5798339247703552,86.66667175292969,203365.0,1.0
12:11:20.666443,201635.625,195684.53125,217425.171875,207263.359375,219011.609375,179620.765625,-705628.125,179211.46875,0.0205078125,1.00927734375,-0.132080078125,1.2207030057907104,-0.9460448622703552,0.6408690810203552,86.66667175292969,203366.0,1.0
12:11:20.672029,201653.78125,195697.3125,217439.203125,207269.25,219044.0625,179635.53125,-705621.6875,179222.375,0.021728515625,1.00634765625,-0.1318359375,1.0986326932907104,-1.1901854276657104,0.7629393935203552,86.66667175292969,203367.0,1.0
12:11:20.675217,201652.4375,195696.0625,217445.296875,207272.921875,219051.21875,179635.53125,-705620.375,179226.484375,0.025390625,1.005126953125,-0.134521484375,1.1596678495407104,-1.2817381620407104,0.8239745497703552,86.66667175292969,203368.0,1.0
12:11:20.675257,201639.484375,195686.140625,217444.390625,207277.84375,219033.78125,179626.046875,-705622.0,179234.09375,0.02587890625,1.0009765625,-0.134765625,1.0681151151657104,-1.3427733182907104,0.7019042372703552,86.66667175292969,203369.0,1.0
12:11:20.677600,201630.71875,195679.96875,217430.265625,207269.078125,219016.53125,179617.828125,-705618.4375,179220.9375,0.02783203125,0.994140625,-0.1376953125,1.0375975370407104,-1.4038084745407104,0.7629393935203552,86.66667175292969,203370.0,1.0
12:11:20.677620,201644.578125,195684.53125,217429.28125,207265.40625,219028.421875,179619.25,-705613.0625,179214.78125,0.029052734375,0.990478515625,-0.136474609375,1.1901854276657104,-1.4953612089157104,0.8544921278953552,86.66667175292969,203371.0,1.0
12:11:20.679871,201654.140625,195693.46875,217442.421875,207272.65625,219045.5,179630.515625,-705609.375,179223.984375,0.029541015625,0.987548828125,-0.13671875,1.4648436307907104,-1.4343260526657104,0.8850097060203552,86.66667175292969,203372.0,1.0
12:11:20.685169,201647.34375,195686.046875,217441.171875,207280.796875,219027.96875,179622.296875,-705610.125,179232.65625,0.030029296875,0.989013671875,-0.1337890625,1.6479490995407104,-1.4343260526657104,0.8850097060203552,86.66667175292969,203373.0,1.0
12:11:20.685203,201641.796875,195683.625,217429.828125,207274.703125,219012.0625,179618.1875,-705615.75,179225.140625,0.028076171875,0.99609375,-0.131591796875,1.8310545682907104,-1.4038084745407104,1.1291502714157104,86.66667175292969,203374.0,1.0
12:11:20.687192,201653.78125,195691.234375,217433.21875,207271.84375,219032.359375,179626.140625,-705624.25,179222.90625,0.0302734375,1.0029296875,-0.133056640625,1.8615721464157104,-1.4953612089157104,1.2512205839157104,86.66667175292969,203375.0,1.0
12:11:20.689558,201639.5625,195672.359375,217421.328125,207257.453125,219029.21875,179609.15625,-705627.8125,179208.515625,0.030517578125,1.01123046875,-0.1298828125,1.7700194120407104,-1.5258787870407104,1.4343260526657104,86.66667175292969,203376.0,1.0
12:11:20.692657,201616.671875,195644.734375,217404.609375,207252.171875,218995.96875,179577.5,-705621.25,179201.984375,0.029296875,1.01416015625,-0.1337890625,1.5563963651657104,-1.4648436307907104,1.6784666776657104,86.66667175292969,203377.0,1.0
12:11:20.692681,201616.5,195648.21875,217402.109375,207256.375,218983.0,179578.21875,-705621.4375,179203.59375,0.028076171875,1.012939453125,-0.135498046875,1.1291502714157104,-1.4648436307907104,1.7700194120407104,86.66667175292969,203378.0,1.0
12:11:20.694630,201642.96875,195669.765625,217416.140625,207267.203125,219009.90625,179598.953125,-705630.3125,179211.109375,0.02587890625,1.011474609375,-0.137451171875,0.9155272841453552,-1.4953612089157104,1.8005369901657104,86.66667175292969,203379.0,1.0
12:11:20.698397,201650.109375,195671.921875,217425.703125,207269.96875,219030.65625,179602.171875,-705638.0625,179216.390625,0.025634765625,1.0126953125,-0.138916015625,0.8544921278953552,-1.5563963651657104,1.7700194120407104,86.66667175292969,203380.0,1.0
12:11:20.706466,201649.40625,195671.109375,217427.3125,207277.578125,219017.421875,179599.140625,-705636.5,179219.96875,0.025390625,1.0126953125,-0.1416015625,0.7324218153953552,-1.5563963651657104,1.7089842557907104,86.66667175292969,203381.0,1.0
12:11:20.707163,201653.875,195671.734375,217429.828125,207288.5625,219003.390625,179595.734375,-705645.6875,179226.84375,0.027099609375,1.008544921875,-0.142578125,0.7019042372703552,-1.4953612089157104,1.5258787870407104,86.66667175292969,203382.0,1.0
12:11:20.709085,201663.34375,195680.40625,217432.0625,207286.15625,219017.515625,179606.640625,-705642.375,179222.90625,0.027587890625,1.00537109375,-0.145263671875,0.7019042372703552,-1.5258787870407104,1.5869139432907104,86.66667175292969,203383.0,1.0
12:11:20.709133,201685.609375,195705.453125,217455.578125,207296.171875,219056.578125,179634.359375,-705631.5625,179236.140625,0.03125,1.00439453125,-0.1435546875,0.5493163466453552,-1.4343260526657104,1.4953612089157104,86.66667175292969,203384.0,1.0
12:11:20.720937,201672.203125,195689.625,217450.921875,207294.734375,219041.921875,179619.34375,-705631.75,179234.0,0.033935546875,1.004638671875,-0.142333984375,0.5187987685203552,-1.4038084745407104,1.5258787870407104,86.66667175292969,203385.0,1.0
12:11:20.723879,201663.078125,195679.421875,217440.375,207294.921875,219012.59375,179606.109375,-705629.5625,179231.578125,0.037109375,1.007568359375,-0.145263671875,0.3356933295726776,-1.2817381620407104,1.7089842557907104,86.66667175292969,203386.0,1.0
12:11:20.723902,201669.34375,195686.046875,217440.546875,207291.515625,219020.828125,179612.8125,-705632.1875,179225.5,0.0400390625,1.013916015625,-0.14306640625,0.2746581733226776,-1.1596678495407104,1.8615721464157104,86.66667175292969,203387.0,1.0
12:11:20.725875,201678.453125,195692.578125,217446.1875,207289.015625,219047.109375,179622.921875,-705628.9375,179228.28125,0.04052734375,1.022216796875,-0.14453125,0.0,-1.0375975370407104,2.044677495956421,86.66667175292969,203388.0,1.0
12:11:20.735842,201658.875,195674.515625,217435.1875,207282.75,219033.609375,179607.625,-705632.25,179224.609375,0.0400390625,1.02880859375,-0.142822265625,-0.3356933295726776,-0.9460448622703552,2.410888433456421,86.66667175292969,203389.0,1.0
12:11:20.767800,201659.234375,195675.9375,217436.890625,207294.828125,219018.046875,179607.71875,-705633.9375,179236.5,0.037841796875,1.03076171875,-0.14208984375,-0.8850097060203552,-0.9460448622703552,2.716064214706421,86.66667175292969,203390.0,1.0
12:11:20.767865,201661.734375,195681.84375,217435.1875,207288.65625,219019.84375,179613.890625,-705632.4375,179227.03125,0.03515625,1.024658203125,-0.14013671875,-1.3427733182907104,-0.8850097060203552,3.051757574081421,86.66667175292969,203391.0,1.0
12:11:20.769570,201669.78125,195687.390625,217440.109375,207284.1875,219041.46875,179621.484375,-705628.625,179223.53125,0.032470703125,1.014404296875,-0.139892578125,-1.7395018339157104,-0.9155272841453552,3.356933355331421,86.66667175292969,203392.0,1.0
12:11:20.772266,201660.21875,195678.71875,217438.046875,207279.453125,219039.328125,179613.4375,-705632.25,179217.09375,0.028076171875,1.001708984375,-0.14208984375,-1.8920897245407104,-0.8544921278953552,3.479003667831421,86.66667175292969,203393.0,1.0
12:11:20.774578,201652.171875,195670.671875,217434.109375,207285.4375,219016.53125,179601.734375,-705640.3125,179222.015625,0.024658203125,0.9921875,-0.142822265625,-1.9531248807907104,-0.9460448622703552,3.417968511581421,86.66667175292969,203394.0,1.0
12:11:20.777299,201652.625,195675.140625,217432.859375,207283.5625,219012.59375,179605.84375,-705643.875,179220.234375,0.02099609375,0.9873046875,-0.143310546875,-1.7089842557907104,-0.9460448622703552,3.173827886581421,86.66667175292969,203395.0,1.0
12:11:20.780487,201670.59375,195689.53125,217445.734375,207285.703125,219044.328125,179625.25,-705632.6875,179224.609375,0.021240234375,0.987548828125,-0.140380859375,-1.3122557401657104,-1.0681151151657104,2.990722417831421,86.66667175292969,203396.0,1.0
12:11:20.782029,201669.15625,195688.90625,217447.4375,207284.09375,219050.0625,179622.03125,-705627.25,179224.25,0.020263671875,0.991455078125,-0.1396484375,-1.1901854276657104,-1.1596678495407104,2.777099370956421,86.66667175292969,203397.0,1.0
12:11:20.784607,201656.46875,195679.15625,217439.5625,207285.078125,219024.3125,179608.53125,-705624.3125,179226.671875,0.024658203125,0.993896484375,-0.139404296875,-0.9460448622703552,-1.3732908964157104,2.655029058456421,86.66667175292969,203398.0,1.0
12:11:20.787815,201651.546875,195679.609375,217433.75,207281.953125,219012.78125,179609.15625,-705628.875,179220.671875,0.027587890625,0.998779296875,-0.138427734375,-0.8850097060203552,-1.5258787870407104,2.502441167831421,86.66667175292969,203399.0,1.0
12:11:20.790304,201658.609375,195679.25,217434.46875,207280.515625,219031.453125,179612.015625,-705629.9375,179220.234375,0.030029296875,1.00146484375,-0.1416015625,-0.8239745497703552,-1.8005369901657104,2.105712652206421,86.66667175292969,203400.0,1.0
12:11:20.790332,201662.8125,195685.59375,217441.890625,207279.265625,219047.640625,179621.3125,-705630.6875,179220.3125,0.032958984375,1.00537109375,-0.139404296875,-0.7934569716453552,-1.8005369901657104,1.8920897245407104,86.66667175292969,203401.0,1.0
12:11:20.792240,201658.34375,195679.515625,217441.09375,207286.6875,219029.765625,179610.9375,-705628.6875,179227.296875,0.035400390625,1.00537109375,-0.1376953125,-0.8544921278953552,-1.8005369901657104,1.7700194120407104,86.66667175292969,203402.0,1.0
12:11:20.794665,201647.96875,195669.421875,217430.984375,207286.25,219010.265625,179599.671875,-705628.5,179226.671875,0.037353515625,1.006591796875,-0.135498046875,-0.8239745497703552,-1.8005369901657104,1.4953612089157104,86.66667175292969,203403.0,1.0
12:11:20.800231,201648.59375,195668.34375,217427.59375,207279.984375,219022.78125,179601.734375,-705632.875,179223.265625,0.040771484375,1.005859375,-0.138427734375,-0.8850097060203552,-1.6784666776657104,1.0986326932907104,86.66667175292969,203404.0,1.0
12:11:20.800246,201654.40625,195675.578125,217434.109375,207277.484375,219041.5625,179610.578125,-705628.0,179221.03125,0.04345703125,1.00830078125,-0.137451171875,-0.9765624403953552,-1.4648436307907104,0.8239745497703552,86.66667175292969,203405.0,1.0
12:11:20.802052,201651.015625,195672.453125,217434.921875,207285.4375,219028.234375,179604.59375,-705625.5625,179225.859375,0.043701171875,1.0087890625,-0.135986328125,-1.1596678495407104,-1.1901854276657104,0.5493163466453552,86.66667175292969,203406.0,1.0
12:11:20.805798,201644.84375,195670.40625,217426.609375,207283.375,219006.515625,179601.453125,-705629.75,179220.59375,0.0439453125,1.009033203125,-0.138916015625,-1.2817381620407104,-1.0070799589157104,0.5493163466453552,86.66667175292969,203407.0,1.0
12:11:20.813925,201651.015625,195674.59375,217427.3125,207279.625,219020.546875,179610.21875,-705631.9375,179217.90625,0.042236328125,1.00537109375,-0.137451171875,-1.3122557401657104,-0.9460448622703552,0.4882812201976776,86.66667175292969,203408.0,1.0
12:11:20.813959,201651.546875,195673.34375,217430.984375,207277.65625,219039.328125,179610.40625,-705636.0,179220.765625,0.04248046875,0.999755859375,-0.141845703125,-1.3122557401657104,-0.7629393935203552,0.3662109076976776,86.66667175292969,203409.0,1.0
12:11:20.822721,201658.609375,195681.84375,217442.78125,207289.8125,219041.109375,179616.484375,-705626.25,179231.40625,0.044189453125,0.99609375,-0.143310546875,-1.1291502714157104,-0.6103515028953552,0.3051757514476776,86.66667175292969,203410.0,1.0
12:11:20.822760,201648.234375,195671.109375,217432.5,207290.890625,219015.453125,179602.09375,-705630.5,179230.59375,0.046142578125,0.99853515625,-0.138916015625,-0.9155272841453552,-0.4272460639476776,0.3356933295726776,86.66667175292969,203411.0,1.0
12:11:20.824648,201645.28125,195671.46875,217428.03125,207284.1875,219019.921875,179606.015625,-705635.5625,179226.046875,0.04736328125,1.0048828125,-0.1357421875,-0.8239745497703552,-0.3051757514476776,0.1831054538488388,86.66667175292969,203412.0,1.0
12:11:20.831782,201661.203125,195684.4375,217441.984375,207288.296875,219049.875,179621.125,-705634.75,179232.390625,0.04931640625,1.0087890625,-0.134033203125,-1.0070799589157104,-0.0610351525247097,0.1831054538488388,86.66667175292969,203413.0,1.0
12:11:20.831859,201658.4375,195682.015625,217441.984375,207287.765625,219044.328125,179617.828125,-705631.8125,179229.171875,0.05126953125,1.00927734375,-0.134521484375,-1.1596678495407104,0.2441406100988388,0.1831054538488388,86.66667175292969,203414.0,1.0
12:11:20.833321,201642.15625,195667.09375,217426.96875,207280.703125,219009.828125,179601.8125,-705639.875,179218.171875,0.05224609375,1.009033203125,-0.135986328125,-1.3427733182907104,0.4882812201976776,0.1525878757238388,86.66667175292969,203415.0,1.0
12:11:20.846221,201655.75,195683.0,217437.875,207292.328125,219025.375,179619.96875,-705635.5625,179229.96875,0.049560546875,1.006103515625,-0.13720703125,-1.4343260526657104,0.6408690810203552,0.2746581733226776,86.66667175292969,203416.0,1.0
12:11:20.848903,201667.546875,195689.0,217443.953125,207292.5,219050.328125,179628.46875,-705628.0,179234.359375,0.047607421875,1.004150390625,-0.133544921875,-1.6784666776657104,0.7934569716453552,0.4272460639476776,86.66667175292969,203417.0,1.0
12:11:20.848925,201672.296875,195699.90625,217454.859375,207296.703125,219062.03125,179640.265625,-705626.875,179240.34375,0.043701171875,1.00634765625,-0.133544921875,-1.7089842557907104,0.9765624403953552,0.3967284858226776,86.66667175292969,203418.0,1.0
12:11:20.850837,201660.046875,195686.671875,217444.671875,207296.4375,219031.640625,179623.90625,-705627.375,179235.515625,0.041748046875,1.010498046875,-0.1337890625,-1.9226073026657104,1.1901854276657104,0.2136230319738388,86.66667175292969,203419.0,1.0
12:11:20.866457,201653.421875,195681.75,217435.8125,207290.890625,219021.0,179619.34375,-705631.8125,179227.03125,0.039306640625,1.011962890625,-0.13623046875,-2.014159917831421,1.2512205839157104,0.0,86.66667175292969,203420.0,1.0
12:11:20.866471,201667.46875,195690.0625,217445.5625,207295.09375,219049.25,179629.890625,-705637.625,179233.546875,0.035400390625,1.011962890625,-0.135498046875,-2.166747808456421,1.2817381620407104,-0.2441406100988388,86.66667175292969,203421.0,1.0
12:11:20.868383,201672.734375,195694.8125,217454.140625,207297.953125,219059.71875,179632.390625,-705636.3125,179236.046875,0.033447265625,1.009033203125,-0.137451171875,-2.227782964706421,1.3732908964157104,-0.3967284858226776,86.66667175292969,203422.0,1.0
12:11:20.870837,201667.1875,195690.34375,217452.796875,207302.34375,219037.984375,179623.359375,-705630.8125,179238.109375,0.029541015625,1.00634765625,-0.135009765625,-2.227782964706421,1.2817381620407104,-0.6103515028953552,86.66667175292969,203423.0,1.0
12:11:20.874413,201665.578125,195691.953125,217450.828125,207303.140625,219030.296875,179623.640625,-705634.4375,179238.734375,0.030517578125,1.00341796875,-0.13134765625,-2.227782964706421,1.2207030057907104,-0.7629393935203552,86.66667175292969,203424.0,1.0
12:11:20.883865,201675.78125,195698.109375,217456.109375,207302.515625,219053.984375,179634.359375,-705640.6875,179242.484375,0.02978515625,1.001220703125,-0.132080078125,-2.166747808456421,1.1596678495407104,-0.8544921278953552,86.66667175292969,203425.0,1.0
12:11:20.883893,201669.15625,195690.421875,217457.8125,207294.015625,219066.15625,179629.4375,-705638.875,179238.921875,0.033203125,1.002197265625,-0.136962890625,-2.227782964706421,1.0070799589157104,-0.9155272841453552,86.66667175292969,203426.0,1.0
12:11:20.886381,201668.53125,195695.078125,217464.0625,207303.671875,219059.265625,179632.390625,-705633.0625,179251.4375,0.034912109375,1.007080078125,-0.136474609375,-2.288818120956421,0.9765624403953552,-0.9765624403953552,86.66667175292969,203427.0,1.0
12:11:20.886400,201655.03125,195683.359375,217441.890625,207292.40625,219025.46875,179615.765625,-705632.0,179235.15625,0.03759765625,1.011474609375,-0.135498046875,-2.380370855331421,0.8544921278953552,-0.7629393935203552,86.66667175292969,203428.0,1.0
12:11:20.893295,201663.96875,195685.59375,217440.28125,207289.109375,219036.90625,179617.203125,-705637.0,179231.21875,0.036865234375,1.010986328125,-0.1357421875,-2.502441167831421,0.9155272841453552,-0.7629393935203552,86.66667175292969,203429.0,1.0
12:11:20.903996,201673.359375,195694.8125,217455.9375,207296.96875,219069.640625,179633.109375,-705634.6875,179245.625,0.037109375,1.0078125,-0.1357421875,-2.563476324081421,0.9765624403953552,-0.7324218153953552,86.66667175292969,203430.0,1.0
12:11:20.904020,201665.859375,195688.640625,217452.359375,207297.328125,219053.1875,179625.15625,-705630.375,179243.921875,0.038818359375,1.00244140625,-0.134521484375,-2.685546636581421,1.0681151151657104,-0.7934569716453552,86.66667175292969,203431.0,1.0
12:11:20.910984,201660.40625,195681.390625,217444.03125,207295.625,219027.96875,179610.9375,-705631.125,179238.203125,0.039306640625,0.99609375,-0.134765625,-2.685546636581421,1.1291502714157104,-0.8850097060203552,86.66667175292969,203432.0,1.0
12:11:20.910997,201667.109375,195686.21875,217446.625,207296.796875,219043.4375,179618.53125,-705628.0,179241.234375,0.03466796875,0.9931640625,-0.1337890625,-2.532958745956421,1.1901854276657104,-0.7629393935203552,86.66667175292969,203433.0,1.0
12:11:20.912027,201679.625,195700.796875,217458.078125,207296.609375,219071.515625,179638.65625,-705623.125,179244.28125,0.03173828125,0.993408203125,-0.134765625,-2.410888433456421,1.0681151151657104,-0.5798339247703552,86.66667175292969,203434.0,1.0
12:11:20.915848,201662.71875,195682.375,217446.90625,207289.734375,219050.953125,179616.921875,-705624.875,179236.234375,0.02734375,0.99462890625,-0.132568359375,-2.197265386581421,1.0375975370407104,-0.4882812201976776,86.66667175292969,203435.0,1.0
12:11:20.931520,201651.015625,195670.3125,217439.03125,207292.234375,219026.359375,179602.625,-705630.1875,179236.59375,0.024169921875,1.00390625,-0.129150390625,-2.136230230331421,0.9155272841453552,-0.3967284858226776,86.66667175292969,203436.0,1.0
12:11:20.931547,201652.0,195673.34375,217436.171875,207287.40625,219032.171875,179608.796875,-705628.0,179231.578125,0.024169921875,1.005859375,-0.126708984375,-2.288818120956421,0.7934569716453552,-0.3967284858226776,86.66667175292969,203437.0,1.0
12:11:20.934045,201671.578125,195694.265625,217453.78125,207295.984375,219066.421875,179632.390625,-705620.5625,179243.75,0.024169921875,1.006103515625,-0.1279296875,-2.471923589706421,0.5493163466453552,-0.3967284858226776,86.66667175292969,203438.0,1.0
12:11:20.934059,201663.078125,195687.03125,217450.828125,207294.640625,219059.984375,179626.9375,-705621.875,179242.484375,0.026123046875,1.004638671875,-0.127197265625,-2.532958745956421,0.3051757514476776,-0.3967284858226776,86.66667175292969,203439.0,1.0
12:11:20.938114,201645.375,195670.21875,217435.359375,207290.171875,219026.359375,179606.203125,-705626.625,179236.046875,0.025390625,0.9970703125,-0.131103515625,-2.624511480331421,0.1831054538488388,-0.1831054538488388,86.66667175292969,203440.0,1.0
12:11:20.945302,201645.375,195672.71875,217431.34375,207284.8125,219026.90625,179607.09375,-705628.75,179228.359375,0.027099609375,0.990478515625,-0.132568359375,-2.471923589706421,0.1220703050494194,-0.0610351525247097,86.66667175292969,203441.0,1.0
12:11:20.950215,201663.890625,195685.515625,217446.1875,207291.25,219059.890625,179621.9375,-705627.25,179237.3125,0.02978515625,0.99072265625,-0.133544921875,-2.258300542831421,0.1220703050494194,0.03051757626235485,86.66667175292969,203442.0,1.0
12:11:20.950262,201657.265625,195678.453125,217444.75,207289.546875,219058.546875,179615.859375,-705624.375,179234.890625,0.03271484375,0.99755859375,-0.129638671875,-2.044677495956421,0.03051757626235485,0.2136230319738388,86.66667175292969,203443.0,1.0
12:11:20.991513,201643.953125,195662.625,217433.3125,207289.1875,219028.15625,179598.15625,-705636.0,179231.3125,0.032958984375,1.003173828125,-0.12890625,-1.8920897245407104,-0.0915527269244194,0.3662109076976776,86.66667175292969,203444.0,1.0
12:11:20.991572,201650.5625,195673.34375,217435.015625,207292.59375,219025.5625,179608.078125,-705644.8125,179231.9375,0.0322265625,1.0087890625,-0.127685546875,-1.8920897245407104,-0.1525878757238388,0.5187987685203552,86.66667175292969,203445.0,1.0
12:11:20.999331,201667.375,195688.28125,217446.90625,207296.34375,219054.53125,179625.0625,-705633.625,179237.84375,0.030517578125,1.009765625,-0.13037109375,-1.9226073026657104,-0.2441406100988388,0.7019042372703552,86.66667175292969,203446.0,1.0
12:11:20.999375,201662.71875,195685.15625,217447.796875,207292.59375,219061.328125,179624.265625,-705632.5625,179234.265625,0.02978515625,1.00927734375,-0.133544921875,-1.9531248807907104,-0.3967284858226776,0.8239745497703552,86.66667175292969,203447.0,1.0
12:11:21.002192,201647.171875,195669.328125,217435.359375,207290.09375,219031.734375,179607.09375,-705626.4375,179229.171875,0.027587890625,1.006103515625,-0.13330078125,-1.9836424589157104,-0.5187987685203552,1.0986326932907104,86.66667175292969,203448.0,1.0
12:11:21.002276,201646.984375,195674.25,217433.125,207290.71875,219025.734375,179612.1875,-705626.875,179229.796875,0.026611328125,0.9990234375,-0.1328125,-1.7700194120407104,-0.5798339247703552,1.0986326932907104,86.66667175292969,203449.0,1.0
12:11:21.002307,201660.21875,195685.78125,217440.8125,207290.625,219049.78125,179625.421875,-705628.75,179229.96875,0.025634765625,0.994873046875,-0.134033203125,-1.6174315214157104,-0.7019042372703552,1.1596678495407104,86.66667175292969,203450.0,1.0
12:11:21.006824,201661.734375,195688.09375,217444.9375,207288.5625,219061.328125,179629.09375,-705628.875,179228.984375,0.022216796875,0.989990234375,-0.13427734375,-1.4953612089157104,-0.9155272841453552,1.0986326932907104,86.66667175292969,203451.0,1.0
12:11:21.006911,201650.203125,195672.8125,217438.765625,207291.515625,219037.984375,179609.15625,-705629.25,179233.8125,0.021240234375,0.990478515625,-0.133544921875,-1.1291502714157104,-1.1291502714157104,0.8850097060203552,86.66667175292969,203452.0,1.0
12:11:21.006940,201638.765625,195666.546875,217426.421875,207282.484375,219016.078125,179601.734375,-705623.75,179224.15625,0.02392578125,0.988037109375,-0.133544921875,-0.7934569716453552,-1.2817381620407104,0.7324218153953552,86.66667175292969,203453.0,1.0
12:11:21.007076,201655.296875,195679.34375,217436.34375,207290.09375,219040.3125,179616.65625,-705621.0625,179231.046875,0.02685546875,0.988037109375,-0.132080078125,-0.7019042372703552,-1.4038084745407104,0.4577636420726776,86.66667175292969,203454.0,1.0
12:11:21.008662,201656.015625,195680.0625,217440.546875,207287.671875,219057.296875,179621.21875,-705626.8125,179230.875,0.03076171875,0.993408203125,-0.1328125,-0.3051757514476776,-1.4038084745407104,0.3356933295726776,86.66667175292969,203455.0,1.0
12:11:21.010982,201646.625,195672.8125,217439.203125,207291.15625,219043.53125,179610.671875,-705634.0625,179234.71875,0.03564453125,0.999755859375,-0.13671875,-0.03051757626235485,-1.4343260526657104,0.2746581733226776,86.66667175292969,203456.0,1.0
12:11:21.013609,201637.15625,195666.375,217430.890625,207289.109375,219021.0,179601.90625,-705625.75,179233.1875,0.0361328125,1.00634765625,-0.13720703125,0.03051757626235485,-1.4648436307907104,0.2441406100988388,86.66667175292969,203457.0,1.0
12:11:21.015997,201651.71875,195676.03125,217437.25,207293.3125,219038.515625,179612.90625,-705620.3125,179235.96875,0.03857421875,1.013916015625,-0.13623046875,0.0610351525247097,-1.3427733182907104,0.3967284858226776,86.66667175292969,203458.0,1.0
12:11:21.018523,201664.25,195683.359375,217447.703125,207295.984375,219063.5625,179622.296875,-705627.0625,179241.515625,0.03955078125,1.021240234375,-0.13720703125,-0.0610351525247097,-1.3732908964157104,0.4272460639476776,86.66667175292969,203459.0,1.0
12:11:21.021506,201658.515625,195680.5,217449.40625,207295.359375,219056.21875,179618.8125,-705629.0625,179241.859375,0.0400390625,1.02392578125,-0.1357421875,-0.3051757514476776,-1.3732908964157104,0.5187987685203552,86.66667175292969,203460.0,1.0
12:11:21.021584,201649.046875,195671.03125,217441.359375,207297.328125,219033.34375,179607.8125,-705630.1875,179244.28125,0.04296875,1.023193359375,-0.1337890625,-0.5798339247703552,-1.1901854276657104,0.6408690810203552,86.66667175292969,203461.0,1.0
12:11:21.028893,201657.0,195678.265625,217443.5,207299.125,219042.546875,179615.046875,-705632.25,179244.90625,0.0458984375,1.0205078125,-0.135498046875,-0.7629393935203552,-0.9765624403953552,0.6103515028953552,86.66667175292969,203462.0,1.0
12:11:21.028906,201664.953125,195685.78125,217447.53125,207294.015625,219062.578125,179624.265625,-705634.6875,179239.8125,0.043701171875,1.0146484375,-0.137451171875,-1.0070799589157104,-0.7629393935203552,0.7324218153953552,86.66667175292969,203463.0,1.0
12:11:21.035264,201656.640625,195677.8125,217444.9375,207290.09375,219052.296875,179614.15625,-705636.3125,179233.640625,0.042236328125,1.00537109375,-0.136474609375,-1.0986326932907104,-0.6103515028953552,0.7629393935203552,86.66667175292969,203464.0,1.0
12:11:21.035283,201643.671875,195664.234375,217433.484375,207289.90625,219023.140625,179597.96875,-705632.6875,179232.203125,0.0380859375,0.9921875,-0.13427734375,-1.1291502714157104,-0.3662109076976776,0.8239745497703552,86.66667175292969,203465.0,1.0
12:11:21.037167,201648.953125,195673.4375,217434.296875,207291.078125,219026.453125,179607.71875,-705631.125,179229.171875,0.03466796875,0.98681640625,-0.134033203125,-0.8239745497703552,-0.2136230319738388,0.6408690810203552,86.66667175292969,203466.0,1.0
12:11:21.047542,201667.015625,195686.84375,217448.859375,207297.515625,219059.265625,179624.34375,-705633.5,179239.453125,0.031005859375,0.98291015625,-0.136474609375,-0.5493163466453552,0.0,0.4272460639476776,86.66667175292969,203467.0,1.0
12:11:21.051401,201655.84375,195678.0,217446.546875,207289.8125,219057.484375,179618.453125,-705629.875,179233.28125,0.0283203125,0.986083984375,-0.138916015625,-0.3051757514476776,-0.0610351525247097,0.4577636420726776,86.66667175292969,203468.0,1.0
12:11:21.051422,201656.28125,195677.8125,217451.453125,207302.25,219043.0,179616.125,-705628.0625,179244.734375,0.027099609375,0.986083984375,-0.135986328125,0.0,-0.2136230319738388,0.5187987685203552,86.66667175292969,203469.0,1.0
12:11:21.069329,201662.453125,195687.125,217452.890625,207304.84375,219041.734375,179619.796875,-705632.375,179245.078125,0.028564453125,0.98583984375,-0.14013671875,0.1831054538488388,-0.3051757514476776,0.5798339247703552,86.66667175292969,203470.0,1.0
12:11:21.069348,201678.734375,195702.140625,217466.296875,207309.484375,219075.890625,179638.390625,-705626.875,179255.28125,0.027587890625,0.981201171875,-0.14111328125,0.4577636420726776,-0.2746581733226776,0.4577636420726776,86.66667175292969,203471.0,1.0
12:11:21.070960,201669.609375,195691.5,217463.34375,207300.640625,219079.5625,179630.421875,-705623.9375,179248.84375,0.025146484375,0.981689453125,-0.140869140625,0.7019042372703552,-0.3051757514476776,0.1525878757238388,86.66667175292969,203472.0,1.0
12:11:21.073886,201651.09375,195673.53125,217451.28125,207296.078125,219050.140625,179613.171875,-705630.9375,179243.65625,0.025390625,0.982177734375,-0.137451171875,0.9765624403953552,-0.5493163466453552,-0.0610351525247097,86.66667175292969,203473.0,1.0
12:11:21.073904,201656.015625,195684.25,217453.25,207298.9375,219044.15625,179620.140625,-705626.0,179243.828125,0.0244140625,0.98779296875,-0.13427734375,1.2207030057907104,-0.5798339247703552,-0.3967284858226776,86.66667175292969,203474.0,1.0
12:11:21.075878,201666.03125,195689.359375,217455.296875,207298.21875,219063.640625,179627.390625,-705626.4375,179243.65625,0.0263671875,0.994873046875,-0.13525390625,1.4038084745407104,-0.5798339247703552,-0.7934569716453552,86.66667175292969,203475.0,1.0
12:11:21.086380,201674.4375,195695.34375,217467.28125,207303.40625,219084.5625,179637.3125,-705619.5625,179252.140625,0.030517578125,1.00634765625,-0.13525390625,1.4953612089157104,-0.7629393935203552,-1.0070799589157104,86.66667175292969,203476.0,1.0
12:11:21.086401,201663.609375,195685.328125,217462.640625,207306.8125,219063.28125,179624.703125,-705621.625,179254.5625,0.034423828125,1.013671875,-0.138916015625,1.4343260526657104,-0.9155272841453552,-1.0375975370407104,86.66667175292969,203477.0,1.0
12:11:21.088946,201651.28125,195675.3125,217447.4375,207300.1875,219035.75,179609.59375,-705637.875,179243.296875,0.03759765625,1.018798828125,-0.13427734375,1.1901854276657104,-0.8544921278953552,-1.0681151151657104,86.66667175292969,203478.0,1.0
12:11:21.088957,201670.5,195692.578125,217462.28125,207309.125,219066.5,179632.03125,-705630.5,179254.65625,0.043701171875,1.023681640625,-0.137939453125,1.0070799589157104,-0.7324218153953552,-1.0986326932907104,86.66667175292969,203479.0,1.0
12:11:21.100893,201665.9375,195681.03125,217458.796875,207301.625,219076.515625,179623.1875,-705632.875,179249.375,0.0458984375,1.021728515625,-0.143798828125,0.6713866591453552,-0.6103515028953552,-1.0681151151657104,86.66667175292969,203480.0,1.0
12:11:21.103907,201636.890625,195655.46875,217435.453125,207284.8125,219040.765625,179594.578125,-705632.25,179233.546875,0.048828125,1.016845703125,-0.144775390625,0.3967284858226776,-0.3356933295726776,-0.9155272841453552,86.66667175292969,203481.0,1.0
12:11:21.103917,201634.921875,195662.984375,217435.453125,207290.796875,219027.34375,179602.0,-705631.8125,179238.375,0.0478515625,1.0146484375,-0.145751953125,0.1831054538488388,-0.03051757626235485,-0.7324218153953552,86.66667175292969,203482.0,1.0
12:11:21.105829,201650.5625,195679.078125,217444.125,207295.984375,219047.203125,179619.4375,-705620.1875,179242.140625,0.04541015625,1.010498046875,-0.142578125,-0.0915527269244194,0.3051757514476776,-0.4882812201976776,86.66667175292969,203483.0,1.0
12:11:21.122205,201658.796875,195682.109375,217450.75,207296.4375,219070.0,179624.625,-705630.75,179246.15625,0.042724609375,1.005615234375,-0.14404296875,-0.3356933295726776,0.5187987685203552,-0.2746581733226776,86.66667175292969,203484.0,1.0
12:11:21.125231,201649.484375,195671.375,217448.15625,207296.25,219058.640625,179613.359375,-705637.8125,179244.09375,0.037353515625,1.003662109375,-0.146240234375,-0.4577636420726776,0.6103515028953552,-0.03051757626235485,86.66667175292969,203485.0,1.0
12:11:21.125254,201632.5,195653.59375,217432.234375,207292.234375,219026.1875,179592.34375,-705642.4375,179239.1875,0.03564453125,1.005126953125,-0.1435546875,-0.5798339247703552,0.6713866591453552,0.1525878757238388,86.66667175292969,203486.0,1.0
12:11:21.127090,201642.78125,195666.109375,217438.140625,207294.734375,219040.125,179608.34375,-705636.9375,179242.765625,0.032470703125,1.00830078125,-0.145751953125,-0.7019042372703552,0.7324218153953552,0.3051757514476776,86.66667175292969,203487.0,1.0
12:11:21.129593,201666.125,195689.625,217457.984375,207300.734375,219078.125,179635.96875,-705626.75,179251.25,0.031494140625,1.010986328125,-0.14208984375,-0.9155272841453552,0.7629393935203552,0.3967284858226776,86.66667175292969,203488.0,1.0
12:11:21.132075,201656.546875,195687.125,217455.578125,207295.984375,219071.609375,179634.71875,-705620.9375,179246.609375,0.028076171875,1.012451171875,-0.141357421875,-1.1901854276657104,0.7019042372703552,0.3662109076976776,86.66667175292969,203489.0,1.0
12:11:21.138313,201637.875,195666.109375,217439.296875,207293.9375,219037.0,179610.9375,-705626.4375,179241.6875,0.02685546875,1.01171875,-0.139892578125,-1.5563963651657104,0.6408690810203552,0.3662109076976776,86.66667175292969,203490.0,1.0
12:11:21.142671,201637.59375,195665.65625,217434.921875,207291.34375,219036.640625,179612.375,-705633.8125,179236.953125,0.027587890625,1.01025390625,-0.141357421875,-1.7700194120407104,0.7019042372703552,0.2136230319738388,86.66667175292969,203491.0,1.0
12:11:21.142679,201651.90625,195675.578125,217445.921875,207294.375,219067.578125,179626.046875,-705636.9375,179243.46875,0.02734375,1.004638671875,-0.142578125,-1.9836424589157104,0.7324218153953552,0.1525878757238388,86.66667175292969,203492.0,1.0
12:11:21.152059,201647.96875,195672.90625,217444.671875,207288.75,219064.0,179621.671875,-705639.625,179235.15625,0.02685546875,1.000732421875,-0.142578125,-2.105712652206421,0.7629393935203552,-0.03051757626235485,86.66667175292969,203493.0,1.0
12:11:21.155292,201619.359375,195643.21875,217418.828125,207271.84375,219019.03125,179591.171875,-705651.5625,179216.828125,0.02587890625,0.99658203125,-0.14208984375,-2.227782964706421,0.7324218153953552,-0.3051757514476776,86.66667175292969,203494.0,1.0
12:11:21.155359,201618.734375,195637.140625,217414.359375,207270.953125,219011.703125,179579.109375,-705648.625,179213.796875,0.025390625,0.990478515625,-0.142578125,-2.258300542831421,0.7934569716453552,-0.5798339247703552,86.66667175292969,203495.0,1.0
12:11:21.162057,201642.609375,195658.78125,217431.34375,207277.84375,219046.390625,179601.546875,-705642.625,179220.59375,0.0234375,0.984619140625,-0.146240234375,-2.227782964706421,0.6103515028953552,-0.7324218153953552,86.66667175292969,203496.0,1.0
12:11:21.169113,201630.71875,195644.296875,217425.53125,207268.71875,219044.953125,179588.046875,-705638.375,179210.578125,0.0224609375,0.980712890625,-0.146728515625,-1.9836424589157104,0.5493163466453552,-0.7934569716453552,86.66667175292969,203497.0,1.0
12:11:21.169186,201629.375,195640.625,217426.421875,207277.75,219026.453125,179581.96875,-705636.8125,179219.0625,0.021728515625,0.980712890625,-0.142578125,-1.7089842557907104,0.4577636420726776,-0.9460448622703552,86.66667175292969,203498.0,1.0
12:11:21.178905,201636.796875,195658.421875,217431.171875,207283.46875,219026.625,179598.78125,-705628.125,179224.4375,0.021240234375,0.98388671875,-0.14111328125,-1.4343260526657104,0.3662109076976776,-1.1291502714157104,86.66667175292969,203499.0,1.0
12:11:21.178922,201645.640625,195664.671875,217432.5,207281.140625,219046.21875,179608.078125,-705631.5625,179224.875,0.023681640625,0.98779296875,-0.144287109375,-1.1291502714157104,0.2441406100988388,-1.1901854276657104,86.66667175292969,203500.0,1.0
12:11:21.180879,201644.65625,195661.1875,217436.34375,207279.890625,219061.234375,179609.59375,-705635.875,179228.984375,0.028564453125,0.99462890625,-0.1435546875,-0.9460448622703552,0.1831054538488388,-1.2817381620407104,86.66667175292969,203501.0,1.0
12:11:21.184561,201639.65625,195655.375,217435.28125,207283.03125,219042.546875,179601.015625,-705636.1875,179230.6875,0.03076171875,0.99951171875,-0.14208984375,-0.7019042372703552,0.2441406100988388,-1.1596678495407104,86.66667175292969,203502.0,1.0
12:11:21.195621,201641.171875,195661.546875,217435.90625,207287.046875,219031.8125,179602.53125,-705633.4375,179232.203125,0.032958984375,1.00048828125,-0.138427734375,-0.6408690810203552,0.2441406100988388,-1.1901854276657104,86.66667175292969,203503.0,1.0
12:11:21.195709,201652.53125,195668.34375,217442.34375,207291.34375,219053.359375,179614.6875,-705620.3125,179237.9375,0.037109375,1.003662109375,-0.13623046875,-0.6408690810203552,0.3662109076976776,-1.1901854276657104,86.66667175292969,203504.0,1.0
12:11:21.197815,201653.78125,195667.890625,217443.859375,207288.5625,219066.859375,179615.40625,-705617.4375,179236.40625,0.0361328125,1.009521484375,-0.1357421875,-0.7019042372703552,0.4882812201976776,-0.9765624403953552,86.66667175292969,203505.0,1.0
12:11:21.197889,201643.859375,195660.75,217437.421875,207283.109375,219047.015625,179605.03125,-705617.9375,179229.078125,0.032958984375,1.0166015625,-0.133544921875,-0.8544921278953552,0.5187987685203552,-0.8544921278953552,86.66667175292969,203506.0,1.0
12:11:21.204925,201642.34375,195661.1875,217436.53125,207287.40625,219032.078125,179601.109375,-705621.6875,179232.203125,0.033935546875,1.023193359375,-0.130859375,-1.1901854276657104,0.5798339247703552,-0.7629393935203552,86.66667175292969,203507.0,1.0
12:11:21.212304,201650.109375,195669.234375,217441.53125,207290.171875,219047.640625,179610.3125,-705623.75,179234.984375,0.03662109375,1.024658203125,-0.130859375,-1.4343260526657104,0.8239745497703552,-0.7934569716453552,86.66667175292969,203508.0,1.0
12:11:21.216547,201677.65625,195693.015625,217468.09375,207307.4375,219089.65625,179637.484375,-705616.0625,179253.84375,0.034912109375,1.02294921875,-0.133056640625,-1.8005369901657104,1.0070799589157104,-0.4577636420726776,86.66667175292969,203509.0,1.0
12:11:21.217943,201654.140625,195662.890625,217450.03125,207295.984375,219062.84375,179606.921875,-705612.3125,179239.90625,0.034912109375,1.01953125,-0.1337890625,-2.044677495956421,1.0986326932907104,-0.4272460639476776,86.66667175292969,203510.0,1.0
12:11:21.224650,201634.296875,195645.8125,217430.984375,207288.5625,219028.15625,179588.59375,-705613.6875,179231.765625,0.033203125,1.010009765625,-0.135009765625,-2.288818120956421,1.1596678495407104,-0.3356933295726776,86.66667175292969,203511.0,1.0
12:11:21.227762,201653.25,195672.015625,217445.921875,207296.703125,219051.671875,179618.984375,-705613.9375,179239.71875,0.031005859375,1.00048828125,-0.138427734375,-2.410888433456421,1.2817381620407104,-0.1525878757238388,86.66667175292969,203512.0,1.0
12:11:21.227779,201668.625,195688.28125,217459.59375,207300.640625,219082.78125,179639.546875,-705612.0,179248.21875,0.026123046875,0.99072265625,-0.137939453125,-2.258300542831421,1.2207030057907104,-0.03051757626235485,86.66667175292969,203513.0,1.0
12:11:21.229617,201658.4375,195680.40625,217456.734375,207297.78125,219075.265625,179632.03125,-705615.5625,179246.875,0.021484375,0.983642578125,-0.141845703125,-2.044677495956421,1.1901854276657104,-0.1525878757238388,86.66667175292969,203514.0,1.0
12:11:21.238375,201636.265625,195659.3125,217435.90625,207286.15625,219036.640625,179609.859375,-705619.75,179234.71875,0.020263671875,0.977783203125,-0.139404296875,-1.5869139432907104,1.2512205839157104,-0.1831054538488388,86.66667175292969,203515.0,1.0
12:11:21.242675,201635.0,195661.09375,217431.34375,207282.84375,219035.03125,179610.671875,-705626.125,179227.828125,0.02001953125,0.974609375,-0.139892578125,-1.2207030057907104,1.1596678495407104,-0.2441406100988388,86.66667175292969,203516.0,1.0
12:11:21.242694,201649.21875,195669.765625,217441.890625,207286.59375,219062.65625,179622.46875,-705625.0,179233.90625,0.020751953125,0.980224609375,-0.137939453125,-0.8239745497703552,1.1596678495407104,-0.2136230319738388,86.66667175292969,203517.0,1.0
12:11:21.252120,201656.015625,195678.265625,217454.59375,207294.46875,219077.140625,179630.25,-705616.4375,179243.203125,0.022216796875,0.99169921875,-0.13427734375,-0.3662109076976776,0.9765624403953552,-0.3356933295726776,86.66667175292969,203518.0,1.0
12:11:21.256368,201639.125,195659.578125,217441.453125,207292.953125,219046.125,179609.78125,-705617.875,179239.453125,0.025634765625,1.00146484375,-0.1337890625,-0.2441406100988388,1.0070799589157104,-0.4577636420726776,86.66667175292969,203519.0,1.0
12:11:21.256381,201650.296875,195674.15625,217450.75,207304.21875,219053.453125,179624.34375,-705622.0,179246.34375,0.028564453125,1.006591796875,-0.131591796875,-0.03051757626235485,0.9765624403953552,-0.4882812201976776,86.66667175292969,203520.0,1.0
12:11:21.263303,201650.296875,195665.296875,217444.578125,207294.015625,219064.984375,179618.71875,-705625.8125,179237.578125,0.026611328125,1.0068359375,-0.131591796875,0.0,0.9155272841453552,-0.4882812201976776,86.66667175292969,203521.0,1.0
12:11:21.271570,201647.875,195665.484375,217444.390625,207288.5625,219069.28125,179619.078125,-705625.3125,179232.296875,0.0263671875,1.003662109375,-0.131591796875,0.03051757626235485,0.9460448622703552,-0.4272460639476776,86.66667175292969,203522.0,1.0
12:11:21.271591,201647.4375,195670.125,217447.96875,207295.28125,219055.6875,179622.375,-705611.8125,179238.921875,0.021484375,1.000732421875,-0.133544921875,0.0,0.8239745497703552,-0.1525878757238388,86.66667175292969,203523.0,1.0
12:11:21.276384,201645.28125,195671.296875,217443.6875,207294.203125,219045.59375,179623.90625,-705616.0625,179237.65625,0.01904296875,1.001708984375,-0.132080078125,0.0915527269244194,0.6408690810203552,-0.2441406100988388,86.66667175292969,203524.0,1.0
12:11:21.276396,201657.984375,195681.125,217449.40625,207296.609375,219067.3125,179634.1875,-705615.625,179242.140625,0.01904296875,1.008056640625,-0.130859375,0.3356933295726776,0.3967284858226776,-0.0915527269244194,86.66667175292969,203525.0,1.0
12:11:21.278300,201661.734375,195683.09375,217457.453125,207299.46875,219081.890625,179636.515625,-705620.3125,179245.4375,0.021728515625,1.011474609375,-0.131103515625,0.3967284858226776,0.3356933295726776,0.0,86.66667175292969,203526.0,1.0
12:11:21.282017,201633.484375,195650.46875,217434.921875,207287.671875,219044.953125,179603.515625,-705629.75,179235.078125,0.026123046875,1.01171875,-0.130126953125,0.4577636420726776,0.1831054538488388,0.1220703050494194,86.66667175292969,203527.0,1.0
12:11:21.292456,201633.046875,195655.375,217432.6875,207292.59375,219032.625,179607.8125,-705634.25,179239.8125,0.028564453125,1.0078125,-0.130615234375,0.4272460639476776,0.0915527269244194,0.3662109076976776,86.66667175292969,203528.0,1.0
12:11:21.296378,201659.765625,195682.46875,217452.0,207307.96875,219066.59375,179635.703125,-705628.875,179255.71875,0.02734375,1.00146484375,-0.13623046875,0.4272460639476776,0.0915527269244194,0.5798339247703552,86.66667175292969,203529.0,1.0
12:11:21.296388,201652.796875,195671.203125,217447.890625,207299.75,219076.515625,179626.578125,-705619.75,179251.171875,0.025634765625,0.9951171875,-0.137451171875,0.5493163466453552,0.03051757626235485,0.7629393935203552,86.66667175292969,203530.0,1.0
12:11:21.304701,201641.890625,195661.71875,217440.640625,207297.0625,219057.390625,179616.484375,-705613.0625,179248.484375,0.01953125,0.99462890625,-0.137451171875,0.7019042372703552,0.0915527269244194,0.8544921278953552,86.66667175292969,203531.0,1.0
12:11:21.311588,201640.109375,195665.484375,217437.0625,207301.265625,219040.9375,179619.96875,-705612.75,179251.875,0.0166015625,0.9970703125,-0.135009765625,0.8239745497703552,-0.1220703050494194,0.8544921278953552,86.66667175292969,203532.0,1.0
12:11:21.311632,201643.140625,195668.4375,217432.859375,207294.375,219048.265625,179624.96875,-705619.75,179245.171875,0.014892578125,1.007080078125,-0.13330078125,0.9155272841453552,-0.3051757514476776,0.8239745497703552,86.66667175292969,203533.0,1.0
12:11:21.313334,201654.40625,195675.140625,217444.484375,207297.0625,219076.796875,179633.375,-705625.5,179251.078125,0.01318359375,1.011962890625,-0.1328125,0.7629393935203552,-0.5798339247703552,0.6103515028953552,86.66667175292969,203534.0,1.0
12:11:21.315880,201652.625,195675.3125,217448.59375,207303.5,219071.15625,179631.6875,-705617.6875,179255.28125,0.015380859375,1.01318359375,-0.13427734375,0.7324218153953552,-0.7019042372703552,0.5493163466453552,86.66667175292969,203535.0,1.0
12:11:21.344735,201641.625,195663.328125,217439.75,207305.109375,219045.046875,179618.0,-705626.125,179256.078125,0.019775390625,1.0166015625,-0.133056640625,0.4882812201976776,-0.8239745497703552,0.3967284858226776,86.66667175292969,203536.0,1.0
12:11:21.375177,201646.8125,195670.40625,217439.5625,207303.40625,219053.0,179628.734375,-705632.625,179253.578125,0.02490234375,1.020263671875,-0.131591796875,0.2136230319738388,-0.8544921278953552,0.2441406100988388,86.66667175292969,203537.0,1.0
12:11:21.375207,201657.625,195679.703125,217446.1875,207302.515625,219078.484375,179641.0625,-705634.9375,179253.75,0.031982421875,1.023193359375,-0.134033203125,-0.2136230319738388,-0.7629393935203552,0.0915527269244194,86.66667175292969,203538.0,1.0
12:11:21.402055,201647.171875,195668.96875,217443.140625,207299.296875,219071.15625,179629.4375,-705622.875,179251.609375,0.03662109375,1.018798828125,-0.13525390625,-0.5493163466453552,-0.5493163466453552,-0.1525878757238388,86.66667175292969,203539.0,1.0
12:11:21.423452,201612.125,195627.84375,217410.0625,207281.421875,219019.390625,179584.5625,-705621.0625,179231.9375,0.03955078125,1.008544921875,-0.13818359375,-0.8850097060203552,-0.3967284858226776,-0.1525878757238388,86.66667175292969,203540.0,1.0
12:11:21.425826,201645.375,195665.484375,217435.1875,207304.84375,219045.40625,179621.40625,-705623.25,179249.90625,0.038818359375,0.999267578125,-0.142333984375,-1.0375975370407104,-0.0915527269244194,-0.2136230319738388,86.66667175292969,203541.0,1.0
12:11:21.428333,201660.046875,195677.546875,217445.828125,207307.515625,219073.75,179635.53125,-705621.625,179254.109375,0.040283203125,0.99365234375,-0.14111328125,-0.9460448622703552,0.2136230319738388,-0.1220703050494194,86.66667175292969,203542.0,1.0
12:11:21.430816,201652.890625,195678.53125,217446.453125,207299.921875,219076.15625,179639.28125,-705620.8125,179248.65625,0.0390625,0.98974609375,-0.14306640625,-0.8239745497703552,0.4272460639476776,0.03051757626235485,86.66667175292969,203543.0,1.0
12:11:21.433401,201640.8125,195666.375,217436.53125,207300.734375,219047.375,179624.796875,-705623.75,179247.40625,0.033935546875,0.98876953125,-0.144287109375,-0.6713866591453552,0.6103515028953552,0.3051757514476776,86.66667175292969,203544.0,1.0
12:11:21.435819,201637.234375,195662.984375,217428.921875,207295.28125,219036.90625,179616.65625,-705623.875,179238.5625,0.031005859375,0.988037109375,-0.141845703125,-0.4577636420726776,0.6103515028953552,0.5798339247703552,86.66667175292969,203545.0,1.0
12:11:21.438345,201662.1875,195687.65625,217446.984375,207304.921875,219071.15625,179643.125,-705615.125,179250.53125,0.029541015625,0.9873046875,-0.141845703125,-0.4577636420726776,0.6408690810203552,0.8544921278953552,86.66667175292969,203546.0,1.0
12:11:21.440982,201660.84375,195682.828125,217449.046875,207302.875,219077.765625,179636.859375,-705618.75,179247.40625,0.026611328125,0.98681640625,-0.138427734375,-0.2441406100988388,0.7019042372703552,1.0070799589157104,86.66667175292969,203547.0,1.0
12:11:21.443323,201639.828125,195661.71875,217433.671875,207294.921875,219045.40625,179616.390625,-705616.625,179239.90625,0.0263671875,0.986083984375,-0.135986328125,0.03051757626235485,0.7629393935203552,1.0986326932907104,86.66667175292969,203548.0,1.0
12:11:21.445843,201634.296875,195658.15625,217429.640625,207292.140625,219034.671875,179611.5625,-705622.0,179237.125,0.025146484375,0.984619140625,-0.135986328125,0.2746581733226776,0.7629393935203552,1.2512205839157104,86.66667175292969,203549.0,1.0
12:11:21.448320,201638.765625,195656.984375,217430.453125,207290.71875,219055.328125,179614.96875,-705617.6875,179238.46875,0.021240234375,0.987548828125,-0.137451171875,0.3356933295726776,0.6408690810203552,1.3732908964157104,86.66667175292969,203550.0,1.0
12:11:21.450926,201638.578125,195657.875,217429.828125,207285.796875,219064.359375,179619.609375,-705611.4375,179235.703125,0.01806640625,0.990966796875,-0.139404296875,0.4882812201976776,0.4882812201976776,1.2817381620407104,86.66667175292969,203551.0,1.0
12:11:21.459049,201627.3125,195650.546875,217419.546875,207282.9375,219037.0,179608.703125,-705615.9375,179230.59375,0.0166015625,0.995849609375,-0.137939453125,0.6713866591453552,0.3967284858226776,1.2207030057907104,86.66667175292969,203552.0,1.0
12:11:21.459080,201619.09375,195645.453125,217413.46875,207284.546875,219021.71875,179602.53125,-705623.0,179232.484375,0.015380859375,1.010009765625,-0.13818359375,0.6713866591453552,0.2441406100988388,1.1901854276657104,86.66667175292969,203553.0,1.0
12:11:21.459087,201633.21875,195651.0,217421.515625,207291.515625,219044.78125,179610.671875,-705634.0625,179239.265625,0.01953125,1.026611328125,-0.135986328125,0.4272460639476776,0.1525878757238388,0.9460448622703552,86.66667175292969,203554.0,1.0
12:11:21.459093,201640.734375,195653.59375,217428.21875,207292.140625,219064.71875,179616.125,-705632.625,179240.875,0.02587890625,1.03662109375,-0.137939453125,0.0,0.1220703050494194,0.7324218153953552,86.66667175292969,203555.0,1.0
12:11:21.459098,201626.78125,195642.140625,217417.484375,207290.0,219041.46875,179602.71875,-705622.625,179236.859375,0.031494140625,1.0380859375,-0.1396484375,-0.4577636420726776,0.2136230319738388,0.8850097060203552,86.66667175292969,203556.0,1.0
12:11:21.461385,201615.421875,195629.1875,217408.359375,207288.5625,219018.9375,179588.40625,-705622.25,179238.109375,0.03515625,1.034912109375,-0.140625,-0.8544921278953552,0.1525878757238388,0.8850097060203552,86.66667175292969,203557.0,1.0
12:11:21.461398,201626.25,195636.328125,217414.625,207289.46875,219035.65625,179594.84375,-705629.9375,179239.984375,0.036376953125,1.02294921875,-0.143310546875,-1.4343260526657104,0.2746581733226776,0.9460448622703552,86.66667175292969,203558.0,1.0
12:11:21.463891,201645.46875,195654.75,217432.6875,207295.90625,219068.203125,179613.796875,-705617.3125,179247.859375,0.035400390625,1.009521484375,-0.14453125,-1.7395018339157104,0.4882812201976776,1.0070799589157104,86.66667175292969,203559.0,1.0
12:11:21.463898,201633.390625,195645.8125,217426.6875,207293.125,219051.21875,179604.5,-705619.8125,179242.765625,0.033447265625,0.99755859375,-0.145263671875,-1.7700194120407104,0.6408690810203552,0.9460448622703552,86.66667175292969,203560.0,1.0
12:11:21.465888,201608.1875,195616.046875,217402.375,207281.0625,219011.703125,179571.59375,-705627.875,179228.28125,0.02978515625,0.986083984375,-0.1474609375,-1.4953612089157104,0.9460448622703552,0.6713866591453552,86.66667175292969,203561.0,1.0
12:11:21.468351,201612.390625,195625.78125,217403.265625,207277.484375,219018.140625,179578.75,-705621.6875,179223.453125,0.030517578125,0.980224609375,-0.144775390625,-1.1291502714157104,1.0070799589157104,0.5493163466453552,86.66667175292969,203562.0,1.0
12:11:21.470777,201638.5,195652.25,217426.78125,207288.75,219058.015625,179609.59375,-705617.5,179236.234375,0.02880859375,0.979248046875,-0.143798828125,-0.7324218153953552,1.1596678495407104,0.5187987685203552,86.66667175292969,203563.0,1.0
12:11:21.473315,201632.765625,195644.5625,217425.984375,207291.078125,219052.109375,179600.75,-705627.0625,179237.390625,0.029052734375,0.98583984375,-0.141357421875,-0.2441406100988388,1.2207030057907104,0.5187987685203552,86.66667175292969,203564.0,1.0
12:11:21.479492,201619.8125,195630.34375,217413.546875,207291.703125,219022.78125,179582.328125,-705636.3125,179237.578125,0.030517578125,0.99609375,-0.141357421875,0.1525878757238388,1.3122557401657104,0.6713866591453552,86.66667175292969,203565.0,1.0
12:11:21.479501,201631.15625,195641.34375,217419.984375,207296.890625,219033.25,179591.265625,-705641.125,179240.34375,0.0322265625,1.010009765625,-0.139404296875,0.3967284858226776,1.4343260526657104,0.7934569716453552,86.66667175292969,203566.0,1.0
12:11:21.479503,201640.28125,195649.390625,217423.828125,207291.875,219057.921875,179606.109375,-705638.8125,179238.5625,0.030517578125,1.021484375,-0.138916015625,0.2136230319738388,1.4038084745407104,0.8544921278953552,86.66667175292969,203567.0,1.0
12:11:21.483351,201632.5,195641.078125,217422.84375,207289.015625,219057.296875,179599.5,-705638.5,179235.96875,0.02734375,1.02734375,-0.1376953125,0.03051757626235485,1.2817381620407104,1.0986326932907104,86.66667175292969,203568.0,1.0
12:11:21.483357,201633.9375,195639.546875,217427.140625,207302.6875,219041.390625,179598.515625,-705644.0,179244.28125,0.02783203125,1.029541015625,-0.136474609375,-0.4882812201976776,1.2817381620407104,1.1901854276657104,86.66667175292969,203569.0,1.0
12:11:21.483359,201628.21875,195631.6875,217417.9375,207295.453125,219029.40625,179586.078125,-705632.0625,179236.328125,0.029052734375,1.027587890625,-0.13525390625,-0.8850097060203552,1.4343260526657104,1.2512205839157104,86.66667175292969,203570.0,1.0
12:11:21.487138,201640.109375,195635.796875,217423.828125,207296.609375,219052.734375,179590.546875,-705627.4375,179240.25,0.030029296875,1.01904296875,-0.137939453125,-1.1901854276657104,1.5258787870407104,1.2207030057907104,86.66667175292969,203571.0,1.0
12:11:21.487146,201642.34375,195640.171875,217429.828125,207296.34375,219062.9375,179596.546875,-705630.6875,179238.46875,0.03173828125,1.005615234375,-0.140869140625,-1.2512205839157104,1.5258787870407104,1.1291502714157104,86.66667175292969,203572.0,1.0
12:11:21.487148,201636.609375,195640.265625,217430.71875,207305.015625,219043.890625,179593.953125,-705628.5,179245.703125,0.029296875,0.99169921875,-0.1435546875,-1.1901854276657104,1.5869139432907104,1.2207030057907104,86.66667175292969,203573.0,1.0
12:11:21.490209,201632.859375,195641.703125,217425.625,207301.796875,219031.109375,179595.46875,-705634.3125,179240.96875,0.025390625,0.981201171875,-0.14453125,-1.0375975370407104,1.5869139432907104,1.2207030057907104,86.66667175292969,203574.0,1.0
12:11:21.490213,201641.796875,195642.234375,217426.78125,207296.25,219049.15625,179594.390625,-705630.0625,179237.125,0.0205078125,0.97314453125,-0.14892578125,-0.6103515028953552,1.5869139432907104,1.0986326932907104,86.66667175292969,203575.0,1.0
12:11:21.492043,201647.875,195649.296875,217437.15625,207300.734375,219066.859375,179603.875,-705632.5625,179242.578125,0.02001953125,0.97705078125,-0.14990234375,-0.1525878757238388,1.4648436307907104,0.8850097060203552,86.66667175292969,203576.0,1.0
12:11:21.494544,201615.515625,195613.71875,217410.875,207285.96875,219025.828125,179566.6875,-705642.3125,179228.1875,0.020751953125,0.985595703125,-0.1455078125,0.2136230319738388,1.4343260526657104,0.7934569716453552,86.66667175292969,203577.0,1.0
12:11:21.497061,201618.015625,195618.28125,217412.203125,207295.1875,219017.6875,179570.609375,-705646.0625,179235.875,0.0244140625,0.99755859375,-0.142333984375,0.4882812201976776,1.4343260526657104,0.5187987685203552,86.66667175292969,203578.0,1.0
12:11:21.501461,201640.734375,195641.078125,217425.4375,207301.890625,219046.296875,179593.953125,-705635.5,179244.28125,0.026611328125,1.006103515625,-0.142333984375,0.6103515028953552,1.4953612089157104,0.4577636420726776,86.66667175292969,203579.0,1.0
12:11:21.504366,201648.15625,195644.296875,217434.03125,207301.4375,219068.5625,179596.546875,-705632.1875,179248.21875,0.029052734375,1.010009765625,-0.14306640625,0.5798339247703552,1.5563963651657104,0.3662109076976776,86.66667175292969,203580.0,1.0
12:11:21.504740,201642.96875,195643.390625,217436.078125,207305.109375,219058.734375,179597.703125,-705626.1875,179250.1875,0.03076171875,1.0087890625,-0.144775390625,0.5187987685203552,1.5258787870407104,0.3356933295726776,86.66667175292969,203581.0,1.0
12:11:21.507283,201634.5625,195645.09375,217428.484375,207301.4375,219036.90625,179597.53125,-705629.25,179244.640625,0.02978515625,1.004150390625,-0.138427734375,0.4272460639476776,1.4343260526657104,0.4577636420726776,86.66667175292969,203582.0,1.0
12:11:21.513963,201633.671875,195638.5625,217421.515625,207296.171875,219041.109375,179590.546875,-705624.25,179238.109375,0.025634765625,0.99951171875,-0.141357421875,0.2746581733226776,1.5563963651657104,0.5187987685203552,86.66667175292969,203583.0,1.0
12:11:21.513991,201636.53125,195641.515625,217422.671875,207289.375,219058.1875,179596.09375,-705618.9375,179235.609375,0.02197265625,0.99951171875,-0.1416015625,0.1831054538488388,1.4343260526657104,0.6103515028953552,86.66667175292969,203584.0,1.0
12:11:21.516377,201627.046875,195631.6875,217419.546875,207288.5625,219044.421875,179583.21875,-705624.375,179233.46875,0.020751953125,1.00732421875,-0.14306640625,0.1525878757238388,1.2817381620407104,0.9155272841453552,86.66667175292969,203585.0,1.0
12:11:21.516383,201607.46875,195613.890625,217402.28125,207279.53125,219010.71875,179563.546875,-705628.6875,179223.8125,0.023193359375,1.012939453125,-0.144287109375,0.1525878757238388,1.1901854276657104,1.0070799589157104,86.66667175292969,203586.0,1.0
12:11:21.532073,201625.796875,195638.390625,217417.125,207288.484375,219034.046875,179590.640625,-705620.5625,179233.46875,0.02490234375,1.015380859375,-0.148193359375,0.0,1.1596678495407104,1.0375975370407104,86.66667175292969,203587.0,1.0
12:11:21.535340,201652.4375,195662.984375,217440.109375,207304.03125,219074.015625,179615.671875,-705614.9375,179249.828125,0.029296875,1.01806640625,-0.14306640625,-0.1831054538488388,1.1291502714157104,1.1291502714157104,86.66667175292969,203588.0,1.0
12:11:21.535348,201632.5,195644.03125,217426.609375,207292.40625,219057.5625,179597.078125,-705618.25,179238.375,0.02978515625,1.0205078125,-0.142578125,-0.5493163466453552,1.2817381620407104,1.0986326932907104,86.66667175292969,203589.0,1.0
12:11:21.537391,201635.453125,195644.734375,217431.796875,207307.171875,219042.453125,179593.6875,-705620.125,179250.53125,0.0322265625,1.0205078125,-0.14599609375,-0.9155272841453552,1.3732908964157104,1.1596678495407104,86.66667175292969,203590.0,1.0
12:11:21.539511,201641.796875,195652.96875,217433.84375,207308.328125,219045.859375,179603.15625,-705628.125,179249.90625,0.033935546875,1.018798828125,-0.147705078125,-1.2817381620407104,1.4648436307907104,1.0681151151657104,86.66667175292969,203591.0,1.0
12:11:21.550877,201636.796875,195642.0625,217423.75,207292.140625,219053.359375,179596.90625,-705631.375,179235.78125,0.029052734375,1.015625,-0.150634765625,-1.4648436307907104,1.5258787870407104,1.1596678495407104,86.66667175292969,203592.0,1.0
12:11:21.562013,201640.8125,195647.78125,217432.78125,207296.890625,219063.640625,179599.21875,-705629.3125,179240.703125,0.0244140625,1.008544921875,-0.15234375,-1.7395018339157104,1.5258787870407104,1.0681151151657104,86.66667175292969,203593.0,1.0
12:11:21.562031,201635.625,195643.84375,217431.171875,207302.96875,219044.15625,179591.8125,-705626.625,179248.484375,0.019775390625,1.006103515625,-0.154052734375,-1.9226073026657104,1.3427733182907104,1.0070799589157104,86.66667175292969,203594.0,1.0
12:11:21.562035,201626.0625,195639.203125,217421.515625,207293.578125,219032.890625,179590.640625,-705633.625,179236.59375,0.01611328125,1.006591796875,-0.154052734375,-1.9531248807907104,1.3732908964157104,0.7324218153953552,86.66667175292969,203595.0,1.0
12:11:21.564579,201635.90625,195644.46875,217425.359375,207288.84375,219051.9375,179594.9375,-705638.875,179234.09375,0.015625,1.010009765625,-0.151611328125,-2.166747808456421,1.3427733182907104,0.6713866591453552,86.66667175292969,203596.0,1.0
12:11:21.567634,201643.5,195651.0,217435.546875,207293.671875,219065.796875,179599.140625,-705631.375,179240.703125,0.019287109375,1.007080078125,-0.149658203125,-2.258300542831421,1.0986326932907104,0.7324218153953552,86.66667175292969,203597.0,1.0
12:11:21.567642,201646.890625,195653.953125,217439.921875,207306.265625,219051.9375,179598.234375,-705632.0,179249.015625,0.019287109375,1.000244140625,-0.148681640625,-2.502441167831421,1.0070799589157104,0.7629393935203552,86.66667175292969,203598.0,1.0
12:11:21.585855,201632.5,195642.6875,217426.0625,207295.09375,219032.796875,179587.609375,-705629.0625,179237.578125,0.0166015625,0.99169921875,-0.15234375,-2.441406011581421,0.9155272841453552,0.8239745497703552,86.66667175292969,203599.0,1.0
12:11:21.588988,201638.140625,195643.3125,217425.984375,207290.359375,219049.15625,179588.3125,-705635.5,179236.40625,0.018310546875,0.988525390625,-0.15234375,-2.288818120956421,0.7324218153953552,1.0070799589157104,86.66667175292969,203600.0,1.0
12:11:21.589006,201636.703125,195642.0625,217424.640625,207285.890625,219057.125,179590.828125,-705642.9375,179230.875,0.016845703125,0.988037109375,-0.152099609375,-2.288818120956421,0.5493163466453552,1.0681151151657104,86.66667175292969,203601.0,1.0
12:11:21.599396,201639.203125,195642.765625,217431.875,207300.1875,219048.53125,179585.1875,-705636.9375,179241.234375,0.015625,0.9931640625,-0.154541015625,-1.9531248807907104,0.2746581733226776,0.9155272841453552,86.66667175292969,203602.0,1.0
12:11:21.599477,201614.359375,195626.765625,217410.59375,207283.65625,219019.5625,179569.1875,-705637.625,179228.359375,0.01513671875,0.99755859375,-0.14990234375,-1.7395018339157104,0.1525878757238388,0.7019042372703552,86.66667175292969,203603.0,1.0
12:11:21.599506,201636.171875,195650.28125,217425.4375,207294.296875,219048.09375,179593.953125,-705627.25,179238.203125,0.016357421875,1.00146484375,-0.142578125,-1.5563963651657104,0.0915527269244194,0.3356933295726776,86.66667175292969,203604.0,1.0
12:11:21.599530,201647.609375,195660.828125,217437.6875,207300.640625,219074.828125,179610.671875,-705623.4375,179245.078125,0.01611328125,1.008056640625,-0.140625,-1.6174315214157104,-0.1220703050494194,0.2746581733226776,86.66667175292969,203605.0,1.0
12:11:21.599551,201630.171875,195647.6875,217427.59375,207295.984375,219053.09375,179597.265625,-705626.4375,179239.8125,0.01953125,1.01318359375,-0.141357421875,-1.8920897245407104,-0.4577636420726776,0.3356933295726776,86.66667175292969,203606.0,1.0
12:11:21.601129,201625.625,195641.25,217420.171875,207300.453125,219031.28125,179583.125,-705634.6875,179241.859375,0.02099609375,1.020263671875,-0.141845703125,-2.166747808456421,-0.7934569716453552,0.5798339247703552,86.66667175292969,203607.0,1.0
12:11:21.613493,201623.828125,195636.421875,217412.828125,207290.265625,219035.125,179580.71875,-705635.1875,179232.921875,0.024658203125,1.025146484375,-0.140625,-2.471923589706421,-1.0681151151657104,0.7324218153953552,86.66667175292969,203608.0,1.0
12:11:21.617650,201620.875,195631.0625,217410.875,207281.234375,219050.328125,179581.171875,-705643.0,179228.90625,0.026123046875,1.02197265625,-0.143798828125,-2.777099370956421,-1.3122557401657104,0.8850097060203552,86.66667175292969,203609.0,1.0
12:11:21.617724,201620.34375,195636.609375,217414.09375,207287.3125,219043.34375,179584.109375,-705641.3125,179232.203125,0.023681640625,1.01611328125,-0.14794921875,-3.295898199081421,-1.5563963651657104,1.0986326932907104,86.66667175292969,203610.0,1.0
12:11:21.618412,201605.5,195618.71875,217397.90625,207279.71875,219008.484375,179559.53125,-705647.375,179221.21875,0.023193359375,1.00537109375,-0.14990234375,-3.692626714706421,-1.7089842557907104,1.0681151151657104,86.66667175292969,203611.0,1.0
12:11:21.634134,201615.875,195628.828125,217403.1875,207282.125,219019.296875,179570.171875,-705661.25,179222.46875,0.02099609375,0.993896484375,-0.155029296875,-3.845214605331421,-1.7089842557907104,0.9460448622703552,86.66667175292969,203612.0,1.0
12:11:21.634224,201627.140625,195633.109375,217411.578125,207285.4375,219044.953125,179577.140625,-705656.875,179227.65625,0.02294921875,0.992919921875,-0.154541015625,-3.784179449081421,-1.7395018339157104,0.6713866591453552,86.66667175292969,203613.0,1.0
12:11:21.636383,201617.484375,195623.28125,217406.046875,207280.703125,219035.578125,179566.234375,-705643.25,179220.765625,0.024169921875,0.9970703125,-0.153564453125,-3.845214605331421,-1.8920897245407104,0.7019042372703552,86.66667175292969,203614.0,1.0
12:11:21.636403,201621.0625,195624.359375,217409.53125,207295.359375,219019.75,179563.015625,-705643.1875,179234.0,0.02294921875,1.007568359375,-0.1484375,-3.936767339706421,-1.8920897245407104,0.7324218153953552,86.66667175292969,203615.0,1.0
12:11:21.638492,201644.9375,195662.078125,217431.078125,207307.96875,219044.0625,179602.4375,-705637.1875,179246.78125,0.02392578125,1.018310546875,-0.14404296875,-4.211425304412842,-1.9531248807907104,0.8850097060203552,86.66667175292969,203616.0,1.0
12:11:21.640810,201646.1875,195665.578125,217435.1875,207298.765625,219068.203125,179615.234375,-705637.8125,179243.46875,0.0244140625,1.015869140625,-0.148681640625,-4.577636241912842,-2.075195074081421,0.9155272841453552,86.66667175292969,203617.0,1.0
12:11:21.656420,201622.578125,195635.265625,217412.390625,207282.3125,219043.34375,179577.765625,-705651.5,179222.015625,0.0234375,1.011962890625,-0.14794921875,-4.974364757537842,-2.044677495956421,0.9765624403953552,86.66667175292969,203618.0,1.0
12:11:21.656428,201622.578125,195633.734375,217406.21875,207291.25,219014.296875,179568.828125,-705649.375,179223.71875,0.02294921875,1.00390625,-0.146728515625,-5.035399913787842,-2.227782964706421,1.0375975370407104,86.66667175292969,203619.0,1.0
12:11:21.658306,201639.828125,195652.96875,217423.921875,207308.0625,219032.0,179589.390625,-705638.25,179241.0625,0.025146484375,1.00146484375,-0.14404296875,-5.096435070037842,-2.075195074081421,0.8850097060203552,86.66667175292969,203620.0,1.0
12:11:21.661024,201645.46875,195655.375,217426.421875,207306.0,219054.890625,179600.484375,-705629.125,179242.484375,0.0283203125,1.00341796875,-0.143310546875,-5.065917491912842,-2.105712652206421,0.8239745497703552,86.66667175292969,203621.0,1.0
12:11:21.663447,201639.484375,195647.59375,217422.84375,207299.125,219056.765625,179589.5625,-705625.5625,179235.34375,0.031005859375,1.008056640625,-0.140869140625,-5.065917491912842,-2.105712652206421,0.7934569716453552,86.66667175292969,203622.0,1.0
12:11:21.673437,201614.625,195626.140625,217404.15625,207286.953125,219021.71875,179569.09375,-705628.875,179226.484375,0.032958984375,1.005126953125,-0.140625,-5.096435070037842,-2.044677495956421,0.7324218153953552,86.66667175292969,203623.0,1.0
12:11:21.681459,201622.3125,195638.65625,217410.15625,207293.578125,219019.390625,179582.15625,-705628.875,179230.0625,0.033203125,0.99609375,-0.142822265625,-4.974364757537842,-2.044677495956421,0.7934569716453552,86.66667175292969,203624.0,1.0
12:11:21.681483,201635.71875,195643.84375,217415.421875,207295.90625,219038.34375,179586.078125,-705633.9375,179230.875,0.03076171875,0.984130859375,-0.140869140625,-4.791259288787842,-1.8005369901657104,0.7629393935203552,86.66667175292969,203625.0,1.0
12:11:21.683950,201631.15625,195637.5,217414.53125,207291.421875,219048.8125,179582.953125,-705633.875,179228.28125,0.030517578125,0.976806640625,-0.137451171875,-4.394530773162842,-1.6479490995407104,0.5187987685203552,86.66667175292969,203626.0,1.0
12:11:21.683964,201613.546875,195619.4375,217401.84375,207287.046875,219019.921875,179561.3125,-705638.0625,179222.203125,0.028564453125,0.975830078125,-0.134521484375,-3.997802495956421,-1.5258787870407104,0.1831054538488388,86.66667175292969,203627.0,1.0
12:11:21.685802,201626.515625,195633.921875,217412.65625,207303.765625,219016.96875,179572.84375,-705639.9375,179233.8125,0.03173828125,0.9814453125,-0.136962890625,-3.509521245956421,-1.5258787870407104,-0.03051757626235485,86.66667175292969,203628.0,1.0
12:11:21.715980,201663.890625,195668.609375,217444.578125,207325.3125,219064.625,179609.421875,-705638.5,179258.140625,0.034423828125,0.993896484375,-0.13623046875,-3.173827886581421,-1.3732908964157104,-0.1525878757238388,86.66667175292969,203629.0,1.0
12:11:21.737117,201676.21875,195686.765625,217457.09375,207324.78125,219091.71875,179630.78125,-705632.625,179261.796875,0.03515625,1.005859375,-0.13818359375,-3.021239995956421,-1.4038084745407104,-0.1831054538488388,86.66667175292969,203630.0,1.0
12:11:21.740713,201653.78125,195666.109375,217443.140625,207315.921875,219067.140625,179612.546875,-705624.6875,179254.46875,0.0390625,1.00732421875,-0.1376953125,-2.929687261581421,-1.3732908964157104,0.03051757626235485,86.66667175292969,203631.0,1.0
12:11:21.742104,201638.046875,195645.546875,217426.875,207310.109375,219036.203125,179588.671875,-705628.25,179246.96875,0.041259765625,1.0009765625,-0.142578125,-2.960204839706421,-1.3732908964157104,0.0915527269244194,86.66667175292969,203632.0,1.0
12:11:21.744625,201656.46875,195667.1875,217435.1875,207315.484375,219052.46875,179606.28125,-705635.875,179247.671875,0.040771484375,0.992919921875,-0.138916015625,-2.777099370956421,-1.2207030057907104,0.1220703050494194,86.66667175292969,203633.0,1.0
12:11:21.747477,201657.53125,195666.828125,217435.453125,207309.125,219069.71875,179612.453125,-705634.875,179242.671875,0.036376953125,0.985595703125,-0.1396484375,-2.655029058456421,-0.9765624403953552,0.1220703050494194,86.66667175292969,203634.0,1.0
12:11:21.749583,201638.40625,195645.1875,217424.1875,207302.0625,219050.59375,179592.515625,-705634.9375,179236.6875,0.03515625,0.984375,-0.1396484375,-2.288818120956421,-0.9765624403953552,-0.03051757626235485,86.66667175292969,203635.0,1.0
12:11:21.752670,201633.75,195652.78125,217422.765625,207300.28125,219033.6875,179600.75,-705623.625,179236.765625,0.032470703125,0.98974609375,-0.14013671875,-1.9836424589157104,-0.8544921278953552,-0.3967284858226776,86.66667175292969,203636.0,1.0
12:11:21.754660,201636.171875,195655.734375,217421.859375,207298.578125,219040.9375,179604.59375,-705629.5625,179236.5,0.03125,0.9921875,-0.13916015625,-1.7089842557907104,-0.7934569716453552,-0.8239745497703552,86.66667175292969,203637.0,1.0
12:11:21.757208,201641.625,195651.4375,217422.21875,207293.671875,219056.40625,179600.5625,-705643.6875,179232.296875,0.031005859375,0.99609375,-0.13720703125,-1.4038084745407104,-0.7629393935203552,-1.1291502714157104,86.66667175292969,203638.0,1.0
12:11:21.759930,201634.921875,195642.953125,217419.09375,207290.359375,219049.875,179594.125,-705640.75,179225.421875,0.031982421875,0.9990234375,-0.13427734375,-1.3122557401657104,-0.4577636420726776,-1.4953612089157104,86.66667175292969,203639.0,1.0
12:11:21.762518,201634.296875,195640.890625,217418.203125,207304.578125,219029.84375,179589.5625,-705641.1875,179235.78125,0.03564453125,0.9990234375,-0.134033203125,-1.1901854276657104,-0.1831054538488388,-1.8615721464157104,86.66667175292969,203640.0,1.0
12:11:21.764725,201660.3125,195671.734375,217440.546875,207330.671875,219054.53125,179621.75,-705642.125,179256.625,0.03857421875,1.004150390625,-0.131591796875,-0.9765624403953552,0.0915527269244194,-2.105712652206421,86.66667175292969,203641.0,1.0
12:11:21.768179,201658.25,195669.421875,217435.8125,207306.8125,219070.0,179623.359375,-705639.0625,179241.421875,0.042724609375,1.010498046875,-0.127197265625,-0.8544921278953552,0.3051757514476776,-2.288818120956421,86.66667175292969,203642.0,1.0
12:11:21.768251,201636.078125,195641.078125,217418.734375,207289.640625,219055.421875,179597.703125,-705630.0625,179226.84375,0.041748046875,1.0205078125,-0.125,-0.9460448622703552,0.5493163466453552,-2.258300542831421,86.66667175292969,203643.0,1.0
12:11:21.771114,201610.859375,195617.828125,217397.015625,207281.140625,219015.546875,179570.890625,-705630.375,179219.0625,0.041259765625,1.02392578125,-0.1240234375,-0.9765624403953552,0.5798339247703552,-2.105712652206421,86.66667175292969,203644.0,1.0
12:11:21.771204,201641.625,195655.46875,217423.75,207304.484375,219037.359375,179600.65625,-705642.9375,179239.265625,0.0419921875,1.0205078125,-0.124755859375,-1.1291502714157104,0.7324218153953552,-1.8005369901657104,86.66667175292969,203645.0,1.0
