Timestamp,Fz,FC3,FCz,FC4,Cz,C3,C4
12:09:50.252646,202050.03125,196269.15625,219235.125,208297.796875,220356.5625,179511.515625,-705703.6875,179866.46875,0.006591796875,0.988525390625,-0.265380859375,-3.143310308456421,0.9155272841453552,0.6408690810203552,86.66667175292969,180751.0,1.0
12:09:50.255102,202057.015625,196272.828125,219243.09375,208296.984375,220379.53125,179519.03125,-705697.375,179869.40625,0.01025390625,0.987060546875,-0.26171875,-3.295898199081421,0.7934569716453552,0.7629393935203552,86.66667175292969,180752.0,1.0
12:09:50.258765,202035.375,196252.609375,219227.53125,208288.40625,220342.25,179494.4375,-705697.5625,179857.515625,0.007568359375,0.982666015625,-0.261962890625,-3.448486089706421,0.7324218153953552,0.7934569716453552,86.66667175292969,180753.0,1.0
12:09:50.258931,202021.421875,196244.578125,219214.125,208282.328125,220313.28125,179485.5,-705700.9375,179847.78125,0.0078125,0.980224609375,-0.265380859375,-3.540038824081421,0.7019042372703552,0.7934569716453552,86.66667175292969,180754.0,1.0
12:09:50.260639,202040.203125,196260.390625,219221.8125,208286.796875,220340.640625,179502.84375,-705700.8125,179852.15625,0.010009765625,0.97900390625,-0.2626953125,-3.601073980331421,0.6408690810203552,0.8544921278953552,86.66667175292969,180755.0,1.0
12:09:50.263759,202049.671875,196265.046875,219230.125,208287.328125,220368.90625,179510.171875,-705696.5625,179857.25,0.009765625,0.979248046875,-0.260498046875,-3.570556402206421,0.6713866591453552,0.8544921278953552,86.66667175292969,180756.0,1.0
12:09:50.263842,202027.59375,196245.203125,219217.0625,208280.625,220340.734375,179488.625,-705698.4375,179849.65625,0.009765625,0.974609375,-0.261962890625,-3.631591558456421,0.7019042372703552,0.9155272841453552,86.66667175292969,180757.0,1.0
12:09:50.278213,202011.5,196236.96875,219203.03125,208275.265625,220304.703125,179477.71875,-705699.9375,179840.625,0.0107421875,0.972412109375,-0.2607421875,-3.509521245956421,0.7324218153953552,0.9460448622703552,86.66667175292969,180758.0,1.0
12:09:50.278227,202028.75,196253.0625,219212.515625,208282.953125,220327.6875,179496.234375,-705705.9375,179847.859375,0.0087890625,0.97265625,-0.260498046875,-3.448486089706421,0.7629393935203552,0.9155272841453552,86.66667175292969,180759.0,1.0
12:09:50.280687,202045.203125,196262.0,219224.578125,208286.171875,220361.65625,179508.921875,-705707.375,179854.578125,0.0087890625,0.97021484375,-0.26318359375,-3.356933355331421,0.7629393935203552,0.9460448622703552,86.66667175292969,180760.0,1.0
12:09:50.280762,202031.890625,196247.25,219217.875,208279.640625,220344.484375,179491.484375,-705706.9375,179850.015625,0.00927734375,0.970947265625,-0.26171875,-3.143310308456421,0.7324218153953552,0.8850097060203552,86.66667175292969,180761.0,1.0
12:09:50.286836,202016.421875,196238.046875,219207.765625,208279.828125,220308.453125,179480.21875,-705707.8125,179846.078125,0.00927734375,0.966796875,-0.259765625,-3.051757574081421,0.6713866591453552,0.8850097060203552,86.66667175292969,180762.0,1.0
12:09:50.286845,202027.0625,196250.828125,219212.234375,208280.1875,220322.765625,179496.234375,-705704.625,179847.328125,0.01025390625,0.96630859375,-0.26416015625,-2.777099370956421,0.7019042372703552,0.7934569716453552,86.66667175292969,180763.0,1.0
12:09:50.297044,202047.171875,196264.78125,219226.71875,208282.421875,220361.828125,179513.484375,-705701.8125,179855.828125,0.011962890625,0.96533203125,-0.263916015625,-2.655029058456421,0.6408690810203552,0.8544921278953552,86.66667175292969,180764.0,1.0
12:09:50.297082,202037.703125,196256.46875,219225.5625,208279.5625,220356.828125,179504.453125,-705702.375,179853.59375,0.01171875,0.965087890625,-0.2646484375,-2.441406011581421,0.6713866591453552,0.8850097060203552,86.66667175292969,180765.0,1.0
12:09:50.302094,202014.625,196239.03125,219209.296875,208275.265625,220313.640625,179482.8125,-705710.25,179844.921875,0.012939453125,0.96875,-0.263916015625,-2.319335699081421,0.7019042372703552,0.8544921278953552,86.66667175292969,180766.0,1.0
12:09:50.302186,202018.921875,196246.890625,219207.59375,208274.546875,220313.640625,179489.796875,-705713.0625,179841.15625,0.01318359375,0.9677734375,-0.26171875,-2.044677495956421,0.7934569716453552,0.9460448622703552,86.66667175292969,180767.0,1.0
12:09:50.307628,202041.1875,196262.8125,219221.8125,208280.453125,220353.703125,179507.21875,-705705.25,179850.8125,0.013427734375,0.9677734375,-0.262939453125,-1.9226073026657104,0.7934569716453552,0.7934569716453552,86.66667175292969,180768.0,1.0
12:09:50.315874,202037.0625,196256.8125,219223.5,208278.75,220359.6875,179501.6875,-705702.625,179850.1875,0.011962890625,0.96923828125,-0.26171875,-1.6784666776657104,0.7629393935203552,0.8544921278953552,86.66667175292969,180769.0,1.0
12:09:50.315950,202015.96875,196239.75,219209.640625,208276.25,220318.65625,179481.125,-705714.0625,179844.015625,0.012451171875,0.97119140625,-0.263916015625,-1.5258787870407104,0.7019042372703552,0.8544921278953552,86.66667175292969,180770.0,1.0
12:09:50.318323,202016.59375,196245.640625,219207.140625,208274.8125,220310.96875,179486.125,-705705.5,179840.453125,0.012451171875,0.970458984375,-0.265869140625,-1.4343260526657104,0.8239745497703552,0.7934569716453552,86.66667175292969,180771.0,1.0
12:09:50.318387,202039.75,196261.296875,219220.28125,208280.53125,220347.796875,179504.546875,-705702.375,179849.46875,0.010009765625,0.972412109375,-0.26318359375,-1.3732908964157104,0.7934569716453552,0.7324218153953552,86.66667175292969,180772.0,1.0
12:09:50.327649,202043.859375,196264.421875,219228.515625,208283.046875,220367.109375,179511.421875,-705706.5625,179854.296875,0.01025390625,0.970458984375,-0.26416015625,-1.2512205839157104,0.7629393935203552,0.4882812201976776,86.66667175292969,180773.0,1.0
12:09:50.334604,202023.84375,196249.484375,219217.25,208281.25,220332.234375,179494.703125,-705706.375,179850.1875,0.009033203125,0.970703125,-0.265625,-1.2207030057907104,0.7324218153953552,0.3967284858226776,86.66667175292969,180774.0,1.0
12:09:50.334691,202019.1875,196248.859375,219210.359375,208279.375,220313.828125,179494.078125,-705709.5,179843.75,0.00927734375,0.9736328125,-0.268310546875,-1.1291502714157104,0.7019042372703552,0.1831054538488388,86.66667175292969,180775.0,1.0
12:09:50.344403,202041.359375,196260.484375,219222.4375,208285.71875,220347.0,179509.015625,-705717.1875,179851.53125,0.010498046875,0.9736328125,-0.269287109375,-1.0375975370407104,0.7019042372703552,0.1831054538488388,86.66667175292969,180776.0,1.0
12:09:50.344415,202049.3125,196265.046875,219231.375,208285.8125,220372.203125,179517.234375,-705722.0625,179855.640625,0.0107421875,0.9765625,-0.269287109375,-0.9765624403953552,0.6103515028953552,0.1525878757238388,86.66667175292969,180777.0,1.0
12:09:50.346827,202026.609375,196247.078125,219219.125,208280.984375,220338.59375,179495.6875,-705721.125,179848.578125,0.010498046875,0.978271484375,-0.264404296875,-1.0070799589157104,0.6713866591453552,0.2441406100988388,86.66667175292969,180778.0,1.0
12:09:50.346842,202016.6875,196242.78125,219208.21875,208279.203125,220309.625,179488.625,-705713.8125,179840.53125,0.01123046875,0.97900390625,-0.265625,-1.0070799589157104,0.6713866591453552,-0.03051757626235485,86.66667175292969,180779.0,1.0
12:09:50.353895,202030.8125,196253.6875,219213.40625,208279.203125,220333.40625,179502.9375,-705714.875,179842.6875,0.010009765625,0.978515625,-0.26611328125,-1.0986326932907104,0.7019042372703552,-0.1220703050494194,86.66667175292969,180780.0,1.0
12:09:50.359172,202038.046875,196257.4375,219221.09375,208277.59375,220361.03125,179508.390625,-705722.3125,179847.859375,0.0078125,0.9794921875,-0.26611328125,-1.2817381620407104,0.6408690810203552,-0.0915527269244194,86.66667175292969,180781.0,1.0
12:09:50.368227,202023.21875,196243.859375,219214.125,208276.515625,220338.046875,179491.046875,-705724.1875,179845.1875,0.0087890625,0.97705078125,-0.267578125,-1.2207030057907104,0.5187987685203552,-0.1525878757238388,86.66667175292969,180782.0,1.0
12:09:50.368249,202013.734375,196240.375,219205.359375,208276.96875,220306.9375,179484.421875,-705720.75,179841.078125,0.009765625,0.97900390625,-0.267578125,-1.1901854276657104,0.5493163466453552,-0.2136230319738388,86.66667175292969,180783.0,1.0
12:09:50.374637,202030.90625,196254.671875,219213.140625,208281.078125,220326.609375,179499.890625,-705717.0,179844.46875,0.009521484375,0.979248046875,-0.267822265625,-1.1901854276657104,0.5493163466453552,-0.2136230319738388,86.66667175292969,180784.0,1.0
12:09:50.374669,202049.40625,196264.328125,219226.90625,208284.828125,220363.09375,179511.609375,-705715.625,179852.25,0.010009765625,0.979248046875,-0.267822265625,-1.2512205839157104,0.4272460639476776,-0.3356933295726776,86.66667175292969,180785.0,1.0
12:09:50.376290,202037.78125,196251.90625,219223.140625,208283.9375,220350.578125,179498.015625,-705697.25,179850.109375,0.010009765625,0.97900390625,-0.26953125,-1.3427733182907104,0.5187987685203552,-0.4577636420726776,86.66667175292969,180786.0,1.0
12:09:50.385017,202018.734375,196237.234375,219208.03125,208281.609375,220311.046875,179478.96875,-705699.875,179843.75,0.009033203125,0.977783203125,-0.268798828125,-1.3732908964157104,0.5187987685203552,-0.5187987685203552,86.66667175292969,180787.0,1.0
12:09:50.393234,202028.84375,196249.484375,219211.4375,208282.59375,220320.984375,179492.734375,-705709.9375,179843.3125,0.008544921875,0.97705078125,-0.26513671875,-1.4953612089157104,0.5798339247703552,-0.6103515028953552,86.66667175292969,180788.0,1.0
12:09:50.393311,202052.453125,196267.1875,219229.671875,208289.21875,220362.734375,179514.828125,-705710.3125,179855.640625,0.008544921875,0.978271484375,-0.26953125,-1.5258787870407104,0.5187987685203552,-0.4272460639476776,86.66667175292969,180789.0,1.0
12:09:50.395666,202045.5625,196258.078125,219230.125,208288.671875,220362.1875,179505.171875,-705715.75,179856.8125,0.005859375,0.9755859375,-0.26953125,-1.4038084745407104,0.4272460639476776,-0.6713866591453552,86.66667175292969,180790.0,1.0
12:09:50.395725,202021.328125,196239.5625,219211.796875,208281.875,220316.859375,179482.109375,-705727.1875,179845.453125,0.005615234375,0.97265625,-0.267822265625,-1.4038084745407104,0.3967284858226776,-0.6713866591453552,86.66667175292969,180791.0,1.0
12:09:50.411920,202027.0625,196248.859375,219212.59375,208282.421875,220319.640625,179492.921875,-705725.6875,179843.75,0.003662109375,0.970947265625,-0.26806640625,-1.3427733182907104,0.3356933295726776,-0.7324218153953552,86.66667175292969,180792.0,1.0
12:09:50.411998,202050.75,196264.953125,219230.125,208289.921875,220362.015625,179514.375,-705718.25,179857.34375,0.0029296875,0.970947265625,-0.271240234375,-1.2512205839157104,0.2441406100988388,-0.8239745497703552,86.66667175292969,180793.0,1.0
12:09:50.413859,202044.671875,196255.5625,219229.765625,208285.546875,220365.046875,179504.453125,-705719.1875,179854.921875,0.002197265625,0.96923828125,-0.270263671875,-1.1596678495407104,0.2136230319738388,-0.8544921278953552,86.66667175292969,180794.0,1.0
12:09:50.425705,202023.390625,196239.109375,219213.671875,208282.953125,220323.75,179483.796875,-705721.5625,179848.5,0.002685546875,0.968505859375,-0.271728515625,-1.0986326932907104,0.1220703050494194,-0.9155272841453552,86.66667175292969,180795.0,1.0
12:09:50.425716,202019.640625,196241.4375,219206.34375,208279.46875,220312.21875,179487.5625,-705719.25,179843.125,0.003662109375,0.97021484375,-0.26708984375,-1.0375975370407104,0.03051757626235485,-0.7629393935203552,86.66667175292969,180796.0,1.0
12:09:50.433728,202037.703125,196253.0625,219215.28125,208279.828125,220343.859375,179503.828125,-705718.4375,179847.78125,0.00439453125,0.97119140625,-0.267578125,-1.0375975370407104,-0.0610351525247097,-0.7934569716453552,86.66667175292969,180797.0,1.0
12:09:50.433737,202039.03125,196252.4375,219220.203125,208277.046875,220359.25,179503.828125,-705711.5625,179849.828125,0.0068359375,0.971435546875,-0.268310546875,-0.8850097060203552,0.0,-0.7629393935203552,86.66667175292969,180798.0,1.0
12:09:50.433738,202016.234375,196232.859375,219205.796875,208271.78125,220320.984375,179479.59375,-705715.0625,179841.875,0.006103515625,0.973388671875,-0.270263671875,-0.8850097060203552,0.03051757626235485,-0.6713866591453552,86.66667175292969,180799.0,1.0
12:09:50.436971,202012.390625,196235.890625,219200.703125,208271.859375,220305.15625,179482.015625,-705716.5,179838.5625,0.004150390625,0.974365234375,-0.270751953125,-0.8850097060203552,-0.0915527269244194,-0.5493163466453552,86.66667175292969,180800.0,1.0
12:09:50.436984,202036.71875,196254.578125,219215.453125,208279.90625,220341.546875,179503.375,-705719.4375,179849.390625,0.005859375,0.97412109375,-0.26904296875,-0.9155272841453552,-0.0915527269244194,-0.6103515028953552,86.66667175292969,180801.0,1.0
12:09:50.438962,202047.359375,196260.75,219228.0625,208282.78125,220369.25,179510.984375,-705723.1875,179855.90625,0.007568359375,0.973388671875,-0.26513671875,-0.8544921278953552,-0.2136230319738388,-0.5798339247703552,86.66667175292969,180802.0,1.0
12:09:50.450397,202026.703125,196241.703125,219217.0625,208278.84375,220338.234375,179489.703125,-705716.5625,179850.015625,0.007568359375,0.97509765625,-0.267333984375,-0.7934569716453552,-0.0610351525247097,-0.5493163466453552,86.66667175292969,180803.0,1.0
12:09:50.454348,202013.28125,196235.359375,219203.84375,208274.015625,220309.078125,179481.921875,-705711.75,179841.15625,0.006591796875,0.97607421875,-0.26904296875,-0.7324218153953552,-0.1831054538488388,-0.4577636420726776,86.66667175292969,180804.0,1.0
12:09:50.454412,202035.453125,196253.0625,219215.453125,208281.96875,220338.046875,179501.953125,-705706.1875,179850.546875,0.00634765625,0.977294921875,-0.268310546875,-0.7934569716453552,-0.2441406100988388,-0.4577636420726776,86.66667175292969,180805.0,1.0
12:09:50.461858,202049.40625,196261.828125,219227.96875,208283.75,220370.953125,179514.5625,-705704.6875,179857.703125,0.0068359375,0.9765625,-0.268798828125,-0.8239745497703552,-0.1525878757238388,-0.4577636420726776,86.66667175292969,180806.0,1.0
12:09:50.468315,202032.15625,196244.84375,219218.40625,208280.09375,220345.828125,179494.4375,-705714.4375,179851.625,0.006103515625,0.97900390625,-0.265869140625,-0.7934569716453552,-0.1831054538488388,-0.4577636420726776,86.66667175292969,180807.0,1.0
12:09:50.468379,202016.234375,196235.546875,219204.375,208275.984375,220308.453125,179481.390625,-705717.75,179842.6875,0.0068359375,0.98193359375,-0.265869140625,-0.9765624403953552,-0.1831054538488388,-0.4272460639476776,86.66667175292969,180808.0,1.0
12:09:50.475816,202029.203125,196248.234375,219208.9375,208276.515625,220325.8125,179495.15625,-705712.125,179842.59375,0.0087890625,0.981689453125,-0.268798828125,-1.0681151151657104,-0.1831054538488388,-0.3662109076976776,86.66667175292969,180809.0,1.0
12:09:50.475916,202051.28125,196264.6875,219226.28125,208282.859375,220365.6875,179513.84375,-705710.6875,179852.78125,0.008544921875,0.980224609375,-0.26953125,-1.2512205839157104,-0.0610351525247097,-0.2136230319738388,86.66667175292969,180810.0,1.0
12:09:50.483196,202036.890625,196247.875,219220.109375,208278.296875,220350.296875,179496.140625,-705709.6875,179847.78125,0.009033203125,0.980224609375,-0.268798828125,-1.2817381620407104,0.0610351525247097,-0.3356933295726776,86.66667175292969,180811.0,1.0
12:09:50.483263,202018.734375,196233.125,219206.15625,208275.0,220309.796875,179478.34375,-705717.5,179840.09375,0.009033203125,0.977294921875,-0.266845703125,-1.3122557401657104,-0.0610351525247097,-0.1525878757238388,86.66667175292969,180812.0,1.0
12:09:50.485220,202029.109375,196245.546875,219209.734375,208277.859375,220320.53125,179492.828125,-705717.3125,179840.53125,0.0078125,0.975830078125,-0.267822265625,-1.3427733182907104,0.0915527269244194,-0.0915527269244194,86.66667175292969,180813.0,1.0
12:09:50.524693,202049.046875,196259.765625,219224.578125,208282.859375,220359.515625,179510.984375,-705722.125,179850.015625,0.007080078125,0.972900390625,-0.270751953125,-1.4343260526657104,0.1220703050494194,0.03051757626235485,86.66667175292969,180814.0,1.0
12:09:50.524794,202039.03125,196249.75,219221.8125,208280.53125,220357.1875,179501.328125,-705721.125,179849.5625,0.007568359375,0.971435546875,-0.26904296875,-1.3122557401657104,0.2441406100988388,0.1525878757238388,86.66667175292969,180815.0,1.0
12:09:50.527226,202019.90625,196235.8125,219208.578125,208279.5625,220317.21875,179482.90625,-705723.9375,179844.640625,0.008056640625,0.975341796875,-0.271728515625,-1.3427733182907104,0.2746581733226776,0.2441406100988388,86.66667175292969,180816.0,1.0
12:09:50.527305,202027.0625,196246.8125,219210.984375,208281.25,220319.640625,179495.0625,-705719.8125,179844.46875,0.009033203125,0.972900390625,-0.271240234375,-1.2817381620407104,0.3051757514476776,0.2746581733226776,86.66667175292969,180817.0,1.0
12:09:50.529706,202050.84375,196264.859375,219228.78125,208288.859375,220361.390625,179516.34375,-705718.25,179857.25,0.00927734375,0.974609375,-0.266357421875,-1.2512205839157104,0.3356933295726776,0.3051757514476776,86.66667175292969,180818.0,1.0
12:09:50.529803,202047.53125,196263.078125,219232.53125,208285.90625,220371.140625,179514.734375,-705715.3125,179858.328125,0.008544921875,0.97607421875,-0.2666015625,-1.2512205839157104,0.2746581733226776,0.3967284858226776,86.66667175292969,180819.0,1.0
12:09:50.531417,202025.359375,196242.6875,219217.6875,208282.953125,220329.921875,179490.59375,-705712.625,179852.6875,0.008544921875,0.977783203125,-0.269775390625,-1.4038084745407104,0.3662109076976776,0.4882812201976776,86.66667175292969,180820.0,1.0
12:09:50.534760,202024.828125,196246.1875,219213.5,208281.96875,220319.71875,179494.171875,-705717.5625,179849.03125,0.00634765625,0.979248046875,-0.266357421875,-1.5258787870407104,0.5187987685203552,0.5493163466453552,86.66667175292969,180821.0,1.0
12:09:50.536432,202042.25,196259.5,219224.484375,208286.34375,220357.546875,179512.328125,-705716.9375,179859.046875,0.0068359375,0.981689453125,-0.2666015625,-1.5869139432907104,0.5493163466453552,0.6103515028953552,86.66667175292969,180822.0,1.0
12:09:50.538977,202040.375,196257.796875,219223.78125,208280.09375,220367.734375,179511.421875,-705714.625,179855.46875,0.007568359375,0.981689453125,-0.2685546875,-1.7395018339157104,0.6103515028953552,0.7324218153953552,86.66667175292969,180823.0,1.0
12:09:50.541339,202017.40625,196235.265625,219203.03125,208271.515625,220320.078125,179481.390625,-705724.4375,179840.71875,0.00732421875,0.982421875,-0.271240234375,-1.8005369901657104,0.6713866591453552,0.8239745497703552,86.66667175292969,180824.0,1.0
12:09:50.543771,202011.59375,196235.890625,219198.109375,208272.046875,220302.375,179482.375,-705731.125,179837.234375,0.005859375,0.986328125,-0.269287109375,-2.044677495956421,0.7019042372703552,0.8239745497703552,86.66667175292969,180825.0,1.0
12:09:50.546376,202034.5625,196255.921875,219211.609375,208279.203125,220338.140625,179507.21875,-705723.375,179846.96875,0.007080078125,0.983154296875,-0.269775390625,-2.197265386581421,0.7324218153953552,0.9460448622703552,86.66667175292969,180826.0,1.0
12:09:50.590699,202043.953125,196260.84375,219220.015625,208278.484375,220363.625,179515.453125,-705723.1875,179852.0625,0.008056640625,0.977783203125,-0.268310546875,-2.227782964706421,0.8239745497703552,1.1596678495407104,86.66667175292969,180827.0,1.0
12:09:50.590773,202024.203125,196237.953125,219208.578125,208274.546875,220331.4375,179489.875,-705723.9375,179844.734375,0.007080078125,0.977783203125,-0.2685546875,-2.380370855331421,0.7629393935203552,1.2817381620407104,86.66667175292969,180828.0,1.0
12:09:50.593209,202018.296875,196237.953125,219202.5,208276.421875,220307.203125,179487.015625,-705727.875,179840.71875,0.005859375,0.9755859375,-0.2666015625,-2.471923589706421,0.8239745497703552,1.2207030057907104,86.66667175292969,180829.0,1.0
12:09:50.593279,202036.265625,196250.65625,219210.0,208280.53125,220331.609375,179503.375,-705730.625,179845.359375,0.00439453125,0.974365234375,-0.270751953125,-2.502441167831421,0.7324218153953552,1.2512205839157104,86.66667175292969,180830.0,1.0
12:09:50.595094,202049.859375,196259.140625,219221.359375,208281.96875,220363.09375,179514.375,-705730.0625,179851.0,0.0068359375,0.97607421875,-0.270751953125,-2.471923589706421,0.7629393935203552,1.3122557401657104,86.66667175292969,180831.0,1.0
12:09:50.597690,202036.4375,196246.453125,219216.4375,208281.796875,220342.53125,179499.359375,-705720.5,179849.203125,0.005859375,0.97900390625,-0.270751953125,-2.502441167831421,0.6713866591453552,1.4648436307907104,86.66667175292969,180832.0,1.0
12:09:50.600188,202023.84375,196241.0,219206.515625,208281.4375,220309.984375,179490.0625,-705723.625,179843.75,0.010009765625,0.982421875,-0.272216796875,-2.532958745956421,0.7324218153953552,1.4343260526657104,86.66667175292969,180833.0,1.0
12:09:50.602686,202039.390625,196257.53125,219213.671875,208284.734375,220329.5625,179508.125,-705717.625,179846.25,0.010986328125,0.983642578125,-0.267333984375,-2.685546636581421,0.8239745497703552,1.5258787870407104,86.66667175292969,180834.0,1.0
12:09:50.605140,202059.953125,196271.578125,219230.296875,208290.90625,220369.25,179525.734375,-705714.0625,179857.078125,0.010986328125,0.9833984375,-0.26416015625,-2.746581792831421,0.8544921278953552,1.5563963651657104,86.66667175292969,180835.0,1.0
12:09:50.607592,202046.640625,196257.171875,219224.40625,208286.96875,220355.046875,179509.640625,-705711.6875,179852.6875,0.0126953125,0.9794921875,-0.268310546875,-2.807616949081421,0.9765624403953552,1.6174315214157104,86.66667175292969,180836.0,1.0
12:09:50.610068,202028.84375,196245.90625,219211.34375,208285.546875,220316.0625,179495.0625,-705709.625,179847.0625,0.01123046875,0.9794921875,-0.26708984375,-2.929687261581421,1.0070799589157104,1.6784666776657104,86.66667175292969,180837.0,1.0
12:09:50.612592,202037.421875,196257.265625,219216.796875,208290.015625,220328.046875,179509.015625,-705704.0625,179850.453125,0.010009765625,0.98046875,-0.26513671875,-3.051757574081421,1.0375975370407104,1.7395018339157104,86.66667175292969,180838.0,1.0
12:09:50.615038,202048.515625,196264.859375,219225.109375,208288.140625,220362.1875,179521.4375,-705697.375,179855.90625,0.009765625,0.9794921875,-0.26708984375,-3.082275152206421,1.0986326932907104,1.7700194120407104,86.66667175292969,180839.0,1.0
12:09:50.618047,202029.109375,196243.9375,219215.28125,208279.203125,220352.53125,179500.515625,-705708.1875,179850.453125,0.010009765625,0.977294921875,-0.26611328125,-3.082275152206421,1.2512205839157104,1.8005369901657104,86.66667175292969,180840.0,1.0
12:09:50.627681,202000.859375,196219.359375,219193.109375,208270.703125,220303.359375,179470.125,-705721.3125,179838.390625,0.010986328125,0.975830078125,-0.266357421875,-2.990722417831421,1.2207030057907104,1.7395018339157104,86.66667175292969,180841.0,1.0
12:09:50.630059,202004.703125,196224.625,219190.15625,208271.6875,220299.609375,179473.875,-705724.625,179835.703125,0.0107421875,0.97607421875,-0.265380859375,-3.021239995956421,1.1596678495407104,1.7395018339157104,86.66667175292969,180842.0,1.0
12:09:50.633207,202022.5,196234.5625,219198.46875,208269.1875,220330.90625,179486.75,-705723.8125,179837.671875,0.010498046875,0.97509765625,-0.264404296875,-2.990722417831421,1.2512205839157104,1.7395018339157104,86.66667175292969,180843.0,1.0
12:09:50.633265,202017.21875,196224.8125,219197.671875,208265.15625,220333.9375,179477.90625,-705726.6875,179834.359375,0.010009765625,0.974365234375,-0.265380859375,-2.990722417831421,1.2817381620407104,1.7089842557907104,86.66667175292969,180844.0,1.0
12:09:50.635621,202000.40625,196210.6875,219187.75,208266.5,220296.390625,179459.484375,-705736.875,179830.15625,0.01025390625,0.97265625,-0.267578125,-2.960204839706421,1.2817381620407104,1.6479490995407104,86.66667175292969,180845.0,1.0
12:09:50.635661,202007.390625,196223.03125,219189.890625,208272.578125,220291.203125,179468.0625,-705735.625,179830.875,0.009521484375,0.9716796875,-0.266357421875,-2.868652105331421,1.2512205839157104,1.7089842557907104,86.66667175292969,180846.0,1.0
12:09:50.637655,202037.515625,196245.375,219209.203125,208284.390625,220332.15625,179493.8125,-705728.5,179844.296875,0.01171875,0.971435546875,-0.265625,-2.838134527206421,1.2512205839157104,1.7089842557907104,86.66667175292969,180847.0,1.0
12:09:50.640110,202043.5,196250.828125,219217.515625,208286.078125,220351.203125,179500.34375,-705732.875,179848.046875,0.010986328125,0.97412109375,-0.264404296875,-2.685546636581421,1.2817381620407104,1.6784666776657104,86.66667175292969,180848.0,1.0
12:09:50.642565,202026.4375,196235.0,219208.578125,208288.765625,220317.21875,179481.828125,-705737.25,179847.421875,0.01318359375,0.975830078125,-0.265625,-2.624511480331421,1.3732908964157104,1.6479490995407104,86.66667175292969,180849.0,1.0
12:09:50.645179,202021.421875,196233.03125,219201.25,208289.484375,220297.1875,179478.890625,-705737.4375,179843.9375,0.01220703125,0.97509765625,-0.26416015625,-2.624511480331421,1.3122557401657104,1.6174315214157104,86.66667175292969,180850.0,1.0
12:09:50.647568,202039.21875,196247.34375,219208.21875,208289.296875,220325.71875,179496.40625,-705732.125,179845.90625,0.01416015625,0.976318359375,-0.265869140625,-2.532958745956421,1.3427733182907104,1.5869139432907104,86.66667175292969,180851.0,1.0
12:09:50.650650,202051.203125,196256.90625,219221.09375,208293.59375,220356.296875,179508.75,-705724.4375,179854.03125,0.013916015625,0.975830078125,-0.262939453125,-2.380370855331421,1.3122557401657104,1.5563963651657104,86.66667175292969,180852.0,1.0
12:09:50.650714,202031.703125,196238.046875,219210.0,208290.46875,220324.46875,179486.125,-705732.375,179847.515625,0.013916015625,0.972900390625,-0.263671875,-2.380370855331421,1.3732908964157104,1.4953612089157104,86.66667175292969,180853.0,1.0
12:09:50.653964,202017.9375,196229.1875,219196.953125,208283.046875,220291.921875,179474.765625,-705732.3125,179835.703125,0.013916015625,0.96923828125,-0.264404296875,-2.227782964706421,1.4648436307907104,1.4953612089157104,86.66667175292969,180854.0,1.0
12:09:50.654035,202041.265625,196254.3125,219210.546875,208290.1875,220321.25,179499.8125,-705726.75,179843.390625,0.013671875,0.966796875,-0.26416015625,-2.197265386581421,1.4343260526657104,1.3427733182907104,86.66667175292969,180855.0,1.0
12:09:50.657562,202057.453125,196264.515625,219223.59375,208295.296875,220355.671875,179515.453125,-705715.75,179853.140625,0.013427734375,0.968017578125,-0.261962890625,-2.044677495956421,1.4648436307907104,1.3122557401657104,86.66667175292969,180856.0,1.0
12:09:50.683836,202037.15625,196236.34375,219212.421875,208291.265625,220330.8125,179483.984375,-705719.5,179847.78125,0.0126953125,0.966796875,-0.26123046875,-1.8310545682907104,1.4648436307907104,1.2817381620407104,86.66667175292969,180857.0,1.0
12:09:50.683910,202015.4375,196222.3125,219194.453125,208283.578125,220289.953125,179467.703125,-705727.3125,179836.15625,0.012451171875,0.966552734375,-0.263427734375,-1.7089842557907104,1.4648436307907104,1.3732908964157104,86.66667175292969,180858.0,1.0
12:09:50.683937,202028.3125,196235.1875,219200.265625,208287.421875,220307.5625,179482.1875,-705728.125,179839.375,0.01416015625,0.966552734375,-0.2666015625,-1.6479490995407104,1.5258787870407104,1.4343260526657104,86.66667175292969,180859.0,1.0
12:09:50.687595,202046.28125,196245.734375,219213.671875,208291.71875,220347.4375,179496.59375,-705718.25,179852.25,0.013427734375,0.96728515625,-0.26171875,-1.5563963651657104,1.4648436307907104,1.3732908964157104,86.66667175292969,180860.0,1.0
12:09:50.687660,202034.390625,196234.828125,219208.578125,208288.671875,220335.375,179482.546875,-705714.5,179850.1875,0.010986328125,0.9658203125,-0.26318359375,-1.3122557401657104,1.3732908964157104,1.2817381620407104,86.66667175292969,180861.0,1.0
12:09:50.687686,202016.953125,196224.984375,219194.265625,208285.453125,220294.0625,179466.90625,-705720.25,179842.953125,0.011962890625,0.96484375,-0.2646484375,-1.2512205839157104,1.4038084745407104,1.4038084745407104,86.66667175292969,180862.0,1.0
12:09:50.690594,202025.625,196233.03125,219196.234375,208283.125,220302.5625,179480.046875,-705724.625,179839.28125,0.0126953125,0.964599609375,-0.26513671875,-1.0070799589157104,1.2817381620407104,1.4038084745407104,86.66667175292969,180863.0,1.0
12:09:50.690618,202048.15625,196248.6875,219213.21875,208288.234375,220343.859375,179501.421875,-705722.125,179850.734375,0.01220703125,0.966796875,-0.26611328125,-0.8544921278953552,1.2817381620407104,1.3732908964157104,86.66667175292969,180864.0,1.0
12:09:50.692580,202046.28125,196244.921875,219217.0625,208290.640625,220347.796875,179496.5,-705720.75,179853.40625,0.013427734375,0.96875,-0.262939453125,-0.7934569716453552,1.3122557401657104,1.2512205839157104,86.66667175292969,180865.0,1.0
12:09:50.703314,202025.171875,196232.140625,219202.765625,208286.625,220307.390625,179480.765625,-705719.8125,179845.453125,0.015625,0.970703125,-0.26416015625,-0.7019042372703552,1.2512205839157104,1.2512205839157104,86.66667175292969,180866.0,1.0
12:09:50.703368,202028.578125,196238.40625,219200.34375,208286.53125,220305.15625,179485.5,-705716.5625,179841.96875,0.01416015625,0.970703125,-0.265625,-0.6103515028953552,1.2817381620407104,1.2207030057907104,86.66667175292969,180867.0,1.0
12:09:50.709479,202052.53125,196259.765625,219216.4375,208290.46875,220346.375,179509.015625,-705711.1875,179851.53125,0.01513671875,0.971923828125,-0.264404296875,-0.4577636420726776,1.2817381620407104,1.2207030057907104,86.66667175292969,180868.0,1.0
12:09:50.709506,202053.609375,196256.90625,219221.625,208289.03125,220359.0625,179512.046875,-705708.875,179854.484375,0.013671875,0.972412109375,-0.26025390625,-0.4577636420726776,1.2817381620407104,1.2817381620407104,86.66667175292969,180869.0,1.0
12:09:50.716339,202030.546875,196236.96875,219206.34375,208287.421875,220317.578125,179487.90625,-705711.8125,179849.390625,0.013427734375,0.969482421875,-0.2607421875,-0.3967284858226776,1.3122557401657104,1.0375975370407104,86.66667175292969,180870.0,1.0
12:09:50.732634,202030.453125,196247.4375,219204.734375,208285.015625,220308.28125,179498.203125,-705707.375,179843.578125,0.010986328125,0.968017578125,-0.258544921875,-0.3051757514476776,1.2512205839157104,0.9765624403953552,86.66667175292969,180871.0,1.0
12:09:50.732713,202046.90625,196253.15625,219213.21875,208283.75,220340.46875,179506.25,-705705.0625,179847.328125,0.006591796875,0.96875,-0.260009765625,-0.1831054538488388,1.1291502714157104,0.8239745497703552,86.66667175292969,180872.0,1.0
12:09:50.737583,202051.828125,196251.28125,219219.296875,208283.3125,220359.6875,179504.90625,-705705.3125,179851.796875,0.00341796875,0.974609375,-0.260498046875,-0.2136230319738388,0.8850097060203552,0.7019042372703552,86.66667175292969,180873.0,1.0
12:09:50.737657,202039.3125,196246.1875,219212.78125,208286.4375,220328.84375,179493.453125,-705706.9375,179852.421875,0.003662109375,0.980224609375,-0.259033203125,-0.3967284858226776,0.8544921278953552,0.6408690810203552,86.66667175292969,180874.0,1.0
12:09:50.737685,202038.234375,196260.84375,219208.75,208286.171875,220311.671875,179501.421875,-705708.6875,179848.046875,0.003173828125,0.981689453125,-0.260009765625,-0.4882812201976776,0.7324218153953552,0.4272460639476776,86.66667175292969,180875.0,1.0
12:09:50.740715,202064.078125,196281.046875,219223.5,208293.765625,220347.4375,179525.109375,-705698.625,179857.171875,0.00341796875,0.98486328125,-0.258544921875,-0.4577636420726776,0.5493163466453552,0.2746581733226776,86.66667175292969,180876.0,1.0
12:09:50.740787,202074.4375,196271.921875,219232.453125,208296.984375,220373.734375,179524.296875,-705691.1875,179865.296875,0.007080078125,0.98681640625,-0.26025390625,-0.6408690810203552,0.4272460639476776,0.2441406100988388,86.66667175292969,180877.0,1.0
12:09:50.742596,202057.640625,196267.375,219224.125,208290.8125,220344.84375,179516.171875,-705696.75,179858.328125,0.00927734375,0.98876953125,-0.260498046875,-0.7934569716453552,0.3967284858226776,0.2746581733226776,86.66667175292969,180878.0,1.0
12:09:50.753863,202047.53125,196260.3125,219211.078125,208289.75,220310.15625,179505.890625,-705702.875,179849.65625,0.01123046875,0.9912109375,-0.25927734375,-0.9765624403953552,0.3356933295726776,0.3356933295726776,86.66667175292969,180879.0,1.0
12:09:50.758208,202063.625,196269.6875,219216.4375,208294.390625,220330.0,179511.609375,-705704.0,179854.125,0.0126953125,0.989990234375,-0.260009765625,-1.1291502714157104,0.2441406100988388,0.5493163466453552,86.66667175292969,180880.0,1.0
12:09:50.758271,202079.984375,196276.046875,219227.265625,208295.375,220362.1875,179521.4375,-705700.8125,179860.46875,0.0146484375,0.990234375,-0.26220703125,-1.4648436307907104,0.1525878757238388,0.7629393935203552,86.66667175292969,180881.0,1.0
12:09:50.760040,202070.15625,196262.8125,219224.484375,208298.234375,220343.6875,179505.171875,-705702.0,179861.359375,0.017333984375,0.993408203125,-0.26318359375,-1.5869139432907104,0.1220703050494194,1.0681151151657104,86.66667175292969,180882.0,1.0
12:09:50.772566,202071.21875,196272.734375,219227.625,208312.71875,220322.765625,179508.828125,-705702.4375,179869.859375,0.01611328125,0.99365234375,-0.2646484375,-1.8310545682907104,0.03051757626235485,1.1596678495407104,86.66667175292969,180883.0,1.0
12:09:50.779988,202085.4375,196316.28125,219234.953125,208306.28125,220340.203125,179532.4375,-705701.625,179865.296875,0.017578125,0.9931640625,-0.263427734375,-2.075195074081421,0.0915527269244194,1.3427733182907104,86.66667175292969,180884.0,1.0
12:09:50.780013,202097.421875,196305.015625,219243.359375,208305.578125,220374.171875,179544.0625,-705697.0,179872.625,0.0166015625,0.994384765625,-0.260498046875,-2.319335699081421,0.1220703050494194,1.4343260526657104,86.66667175292969,180885.0,1.0
12:09:50.780023,202078.109375,196261.375,219228.515625,208294.484375,220352.984375,179518.484375,-705699.3125,179859.484375,0.015625,0.99658203125,-0.2607421875,-2.655029058456421,0.0610351525247097,1.4343260526657104,86.66667175292969,180886.0,1.0
12:09:50.783149,202061.921875,196258.421875,219214.828125,208291.53125,220311.046875,179500.078125,-705701.125,179850.546875,0.01708984375,0.99609375,-0.2548828125,-2.990722417831421,0.1525878757238388,1.6174315214157104,86.66667175292969,180887.0,1.0
12:09:50.783167,202079.984375,196287.03125,219224.84375,208299.140625,220325.625,179523.765625,-705700.1875,179855.90625,0.019775390625,0.9951171875,-0.253662109375,-3.387450933456421,0.1831054538488388,1.5258787870407104,86.66667175292969,180888.0,1.0
12:09:50.792605,202106.453125,196305.375,219246.3125,208308.609375,220372.65625,179549.421875,-705691.0,179870.9375,0.020751953125,0.993896484375,-0.25830078125,-3.723144292831421,0.2746581733226776,1.5258787870407104,86.66667175292969,180889.0,1.0
12:09:50.796934,202095.8125,196295.71875,219246.125,208306.640625,220375.0625,179549.421875,-705691.1875,179870.75,0.02294921875,0.99560546875,-0.257568359375,-3.936767339706421,0.1831054538488388,1.6479490995407104,86.66667175292969,180890.0,1.0
12:09:50.796942,202067.46875,196264.78125,219220.828125,208294.84375,220320.796875,179505.53125,-705699.9375,179853.5,0.025146484375,0.99609375,-0.254150390625,-4.119872570037842,0.2746581733226776,1.6479490995407104,86.66667175292969,180891.0,1.0
12:09:50.806252,202084.28125,196290.078125,219227.171875,208301.640625,220323.21875,179520.453125,-705699.3125,179853.3125,0.029052734375,0.99609375,-0.255859375,-4.516601085662842,0.3356933295726776,1.5563963651657104,86.66667175292969,180892.0,1.0
12:09:50.814023,202119.140625,196322.0,219253.8125,208316.296875,220374.265625,179558.640625,-705699.25,179870.9375,0.03369140625,1.000244140625,-0.255859375,-4.852294445037842,0.4272460639476776,1.4953612089157104,86.66667175292969,180893.0,1.0
12:09:50.814051,202114.765625,196311.71875,219256.234375,208308.796875,220384.90625,179546.296875,-705694.875,179868.78125,0.034912109375,0.9970703125,-0.2529296875,-5.157470226287842,0.4882812201976776,1.5563963651657104,86.66667175292969,180894.0,1.0
12:09:50.814055,202092.953125,196298.75,219241.65625,208307.71875,220342.875,179518.84375,-705700.125,179862.625,0.037353515625,0.99658203125,-0.254638671875,-5.462646007537842,0.4272460639476776,1.7395018339157104,86.66667175292969,180895.0,1.0
12:09:50.816375,202089.546875,196282.03125,219232.890625,208312.90625,220329.015625,179514.5625,-705705.375,179863.25,0.03662109375,0.991943359375,-0.25244140625,-5.767821788787842,0.6103515028953552,1.8005369901657104,86.66667175292969,180896.0,1.0
12:09:50.820132,202110.390625,196305.453125,219242.109375,208308.796875,220361.125,179538.515625,-705697.375,179865.84375,0.037841796875,0.990234375,-0.254150390625,-6.011962413787842,0.7019042372703552,1.9531248807907104,86.66667175292969,180897.0,1.0
12:09:50.835683,202114.140625,196305.375,219243.71875,208307.71875,220372.828125,179531.8125,-705695.3125,179864.3125,0.036865234375,0.99169921875,-0.254150390625,-6.195067882537842,0.7934569716453552,1.9531248807907104,86.66667175292969,180898.0,1.0
12:09:50.835759,202093.9375,196268.359375,219231.109375,208309.6875,220337.15625,179505.4375,-705696.8125,179863.421875,0.033447265625,0.99560546875,-0.25537109375,-6.347655773162842,0.7019042372703552,1.9531248807907104,86.66667175292969,180899.0,1.0
12:09:50.838153,202098.84375,196304.296875,219238.53125,208321.484375,220330.453125,179527.078125,-705693.9375,179871.015625,0.0302734375,0.996337890625,-0.25537109375,-6.591796398162842,0.6408690810203552,1.8310545682907104,86.66667175292969,180900.0,1.0
12:09:50.838221,202108.953125,196296.609375,219242.015625,208336.6875,220355.671875,179531.8125,-705705.5625,179878.71875,0.02734375,1.001708984375,-0.2529296875,-6.744384288787842,0.5798339247703552,1.5258787870407104,86.66667175292969,180901.0,1.0
12:09:50.840170,202116.640625,196307.25,219248.1875,208319.4375,220378.90625,179538.703125,-705711.125,179874.59375,0.023193359375,1.006103515625,-0.25732421875,-7.202147960662842,0.5493163466453552,1.0986326932907104,86.66667175292969,180902.0,1.0
12:09:50.846331,202107.4375,196320.65625,219245.140625,208310.484375,220355.9375,179546.46875,-705712.4375,179868.78125,0.021240234375,1.0078125,-0.256103515625,-7.476806163787842,0.5187987685203552,0.8239745497703552,86.66667175292969,180903.0,1.0
12:09:50.857615,202085.796875,196278.1875,219221.546875,208293.859375,220312.75,179515.0,-705712.1875,179848.671875,0.01904296875,1.01123046875,-0.25146484375,-7.751464366912842,0.4577636420726776,0.3967284858226776,86.66667175292969,180904.0,1.0
12:09:50.860895,202107.515625,196304.109375,219234.40625,208306.015625,220339.84375,179524.296875,-705710.5625,179858.5,0.01611328125,1.017578125,-0.24951171875,-8.209227561950684,0.3356933295726776,0.0915527269244194,86.66667175292969,180905.0,1.0
12:09:50.860972,202124.59375,196322.359375,219250.15625,208310.484375,220376.671875,179541.734375,-705709.9375,179868.15625,0.0146484375,1.01953125,-0.249267578125,-8.666991233825684,0.1831054538488388,-0.2746581733226776,86.66667175292969,180906.0,1.0
12:09:50.862528,202105.46875,196281.40625,219240.84375,208306.46875,220357.28125,179523.046875,-705713.875,179865.03125,0.009765625,1.02099609375,-0.248046875,-9.185790061950684,-0.03051757626235485,-0.5493163466453552,86.66667175292969,180907.0,1.0
12:09:50.865071,202101.625,196299.109375,219241.921875,208315.40625,220335.015625,179528.59375,-705716.25,179867.796875,0.00537109375,1.015869140625,-0.24853515625,-9.643553733825684,-0.3356933295726776,-0.7324218153953552,86.66667175292969,180908.0,1.0
12:09:50.881932,202104.84375,196307.875,219237.546875,208309.859375,220341.359375,179539.765625,-705707.8125,179862.078125,0.001220703125,1.011962890625,-0.2490234375,-9.918211936950684,-0.5798339247703552,-0.9765624403953552,86.66667175292969,180909.0,1.0
12:09:50.881978,202115.5625,196303.3125,219241.65625,208308.078125,220369.34375,179541.46875,-705707.8125,179864.9375,-0.004150390625,1.0009765625,-0.249267578125,-10.223387718200684,-0.9155272841453552,-1.3732908964157104,86.66667175292969,180910.0,1.0
12:09:50.884404,202103.046875,196289.09375,219237.0,208302.890625,220358.96875,179528.859375,-705709.9375,179860.203125,-0.004638671875,0.988525390625,-0.254638671875,-10.345458030700684,-1.1291502714157104,-1.6479490995407104,86.66667175292969,180911.0,1.0
12:09:50.884439,202088.390625,196279.890625,219226.453125,208305.125,220320.796875,179512.5,-705705.9375,179857.078125,-0.0107421875,0.98095703125,-0.25244140625,-10.253905296325684,-1.4343260526657104,-2.014159917831421,86.66667175292969,180912.0,1.0
12:09:50.886734,202099.921875,196299.015625,219230.75,208310.21875,220327.953125,179533.59375,-705710.5,179856.984375,-0.012451171875,0.9775390625,-0.251953125,-10.192870140075684,-1.8005369901657104,-2.502441167831421,86.66667175292969,180913.0,1.0
12:09:50.888814,202122.71875,196312.515625,219245.671875,208313.890625,220366.75,179541.5625,-705702.125,179864.140625,-0.01123046875,0.9736328125,-0.246826171875,-9.887694358825684,-2.044677495956421,-3.021239995956421,86.66667175292969,180914.0,1.0
12:09:50.900153,202129.34375,196326.921875,219258.734375,208319.96875,220380.609375,179556.3125,-705697.0,179871.5625,-0.00830078125,0.970703125,-0.25,-9.582518577575684,-2.349853277206421,-3.448486089706421,86.66667175292969,180915.0,1.0
12:09:50.903717,202098.578125,196291.78125,219233.4375,208310.9375,220328.390625,179521.078125,-705701.625,179859.671875,-0.006103515625,0.966552734375,-0.251953125,-9.246825218200684,-2.502441167831421,-3.723144292831421,86.66667175292969,180916.0,1.0
12:09:50.903752,202103.671875,196307.609375,219232.09375,208314.0625,220324.375,179527.875,-705705.3125,179857.4375,-0.0029296875,0.960205078125,-0.251220703125,-8.850096702575684,-2.685546636581421,-3.967284917831421,86.66667175292969,180917.0,1.0
12:09:50.903762,202127.640625,196329.15625,219247.28125,208318.625,220363.4375,179556.84375,-705704.5,179867.625,0.00244140625,0.958740234375,-0.251220703125,-8.422850608825684,-2.716064214706421,-4.211425304412842,86.66667175292969,180918.0,1.0
12:09:50.906400,202112.796875,196295.71875,219238.34375,208306.5625,220363.359375,179533.0625,-705703.4375,179859.9375,0.004150390625,0.95947265625,-0.248291015625,-8.026122093200684,-2.563476324081421,-4.180907726287842,86.66667175292969,180919.0,1.0
12:09:50.920240,202094.828125,196295.890625,219230.125,208304.765625,220328.484375,179526.1875,-705699.6875,179854.75,0.008544921875,0.957275390625,-0.245361328125,-7.476806163787842,-2.502441167831421,-4.394530773162842,86.66667175292969,180920.0,1.0
12:09:50.943161,202086.78125,196281.765625,219218.765625,208303.0625,220310.25,179505.609375,-705697.625,179850.109375,0.011962890625,0.953125,-0.242919921875,-7.080077648162842,-2.258300542831421,-4.333495616912842,86.66667175292969,180921.0,1.0
12:09:50.943177,202105.90625,196288.015625,219232.0,208313.0,220347.796875,179524.578125,-705698.625,179865.03125,0.015625,0.949951171875,-0.2412109375,-6.591796398162842,-2.014159917831421,-4.180907726287842,86.66667175292969,180922.0,1.0
12:09:50.968829,202108.421875,196289.546875,219237.0,208309.328125,220365.40625,179525.28125,-705704.75,179865.84375,0.017822265625,0.9423828125,-0.24267578125,-5.920409679412842,-1.7395018339157104,-3.875732183456421,86.66667175292969,180923.0,1.0
12:09:50.972280,202087.765625,196268.890625,219224.484375,208306.90625,220331.4375,179500.25,-705713.1875,179858.78125,0.01513671875,0.936279296875,-0.242919921875,-5.340575695037842,-1.4648436307907104,-3.448486089706421,86.66667175292969,180924.0,1.0
12:09:50.973910,202077.578125,196267.015625,219213.5,208297.53125,220305.328125,179497.390625,-705707.25,179844.828125,0.012451171875,0.93408203125,-0.240478515625,-4.608153820037842,-1.1596678495407104,-3.051757574081421,86.66667175292969,180925.0,1.0
12:09:50.976679,202102.34375,196288.296875,219227.53125,208310.125,220337.703125,179521.265625,-705703.25,179856.265625,0.012939453125,0.93212890625,-0.244384765625,-3.723144292831421,-0.9765624403953552,-2.716064214706421,86.66667175292969,180926.0,1.0
12:09:50.978754,202112.625,196296.96875,219241.921875,208335.796875,220369.96875,179530.828125,-705709.3125,179874.59375,0.013671875,0.93408203125,-0.241455078125,-2.899169683456421,-0.6103515028953552,-2.532958745956421,86.66667175292969,180927.0,1.0
12:09:50.981404,202085.078125,196279.34375,219226.1875,208313.265625,220338.59375,179513.21875,-705708.875,179861.28125,0.0126953125,0.93701171875,-0.241943359375,-2.105712652206421,-0.3051757514476776,-2.227782964706421,86.66667175292969,180928.0,1.0
12:09:50.983843,202069.4375,196266.390625,219211.25,208291.359375,220306.21875,179500.15625,-705709.25,179848.40625,0.013671875,0.940185546875,-0.239501953125,-1.4038084745407104,0.1220703050494194,-2.105712652206421,86.66667175292969,180929.0,1.0
12:09:50.986373,202084.8125,196292.84375,219217.6875,208291.796875,220326.609375,179516.609375,-705713.875,179848.5,0.015380859375,0.9453125,-0.237548828125,-0.7629393935203552,0.4882812201976776,-1.7395018339157104,86.66667175292969,180930.0,1.0
12:09:50.988801,202106.359375,196326.46875,219238.703125,208304.234375,220368.453125,179537.09375,-705706.75,179862.34375,0.01513671875,0.94970703125,-0.23779296875,-0.2136230319738388,0.9155272841453552,-1.4648436307907104,86.66667175292969,180931.0,1.0
12:09:50.991361,202076.140625,196243.234375,219215.28125,208295.46875,220333.578125,179490.328125,-705710.6875,179851.4375,0.01611328125,0.951904296875,-0.242919921875,0.3356933295726776,1.3122557401657104,-1.1901854276657104,86.66667175292969,180932.0,1.0
12:09:50.994131,202058.96875,196251.1875,219203.484375,208294.390625,220297.1875,179483.265625,-705715.25,179845.1875,0.013916015625,0.95458984375,-0.245361328125,0.7629393935203552,1.8005369901657104,-1.0681151151657104,86.66667175292969,180933.0,1.0
12:09:50.996340,202070.59375,196267.015625,219207.859375,208293.6875,220312.484375,179506.15625,-705718.5625,179844.296875,0.0146484375,0.95654296875,-0.245361328125,1.2817381620407104,2.075195074081421,-0.7324218153953552,86.66667175292969,180934.0,1.0
12:09:50.998813,202093.671875,196279.96875,219225.734375,208302.53125,220354.765625,179528.234375,-705713.8125,179857.078125,0.013427734375,0.95654296875,-0.245849609375,1.6479490995407104,2.471923589706421,-0.7019042372703552,86.66667175292969,180935.0,1.0
12:09:51.002039,202081.6875,196264.6875,219222.25,208303.78125,220345.75,179498.734375,-705710.875,179857.34375,0.010498046875,0.95654296875,-0.244873046875,2.014159917831421,2.838134527206421,-0.5493163466453552,86.66667175292969,180936.0,1.0
12:09:51.002061,202065.40625,196271.484375,219212.234375,208299.140625,220308.453125,179494.984375,-705703.6875,179850.734375,0.007568359375,0.954345703125,-0.244384765625,2.410888433456421,3.173827886581421,-0.4272460639476776,86.66667175292969,180937.0,1.0
12:09:51.004417,202069.703125,196258.421875,219212.78125,208300.390625,220314.984375,179512.140625,-705707.8125,179852.609375,0.00439453125,0.95703125,-0.246337890625,2.746581792831421,3.417968511581421,-0.2746581733226776,86.66667175292969,180938.0,1.0
12:09:51.004435,202090.984375,196279.171875,219228.6875,208303.78125,220354.953125,179529.40625,-705704.0625,179861.015625,0.00244140625,0.958740234375,-0.250244140625,3.051757574081421,3.509521245956421,-0.0610351525247097,86.66667175292969,180939.0,1.0
12:09:51.007041,202084.90625,196265.84375,219227.625,208308.078125,220355.671875,179502.484375,-705701.1875,179864.859375,0.001708984375,0.9609375,-0.250244140625,3.356933355331421,3.753661870956421,-0.1220703050494194,86.66667175292969,180940.0,1.0
12:09:51.007061,202067.640625,196259.234375,219218.328125,208305.125,220319.71875,179495.328125,-705709.3125,179859.9375,0.001220703125,0.963134765625,-0.2529296875,3.631591558456421,3.784179449081421,-0.0915527269244194,86.66667175292969,180941.0,1.0
12:09:51.009953,202069.875,196271.65625,219216.625,208302.890625,220314.625,179506.328125,-705706.1875,179855.015625,0.001708984375,0.9677734375,-0.252197265625,3.875732183456421,3.845214605331421,-0.0610351525247097,86.66667175292969,180942.0,1.0
12:09:51.009975,202087.9375,196275.59375,219224.046875,208304.5,220346.1875,179513.03125,-705707.625,179861.453125,0.0009765625,0.970947265625,-0.256591796875,4.058837413787842,3.967284917831421,-0.03051757626235485,86.66667175292969,180943.0,1.0
12:09:51.009979,202085.34375,196271.65625,219227.171875,208301.1875,220357.546875,179516.53125,-705706.75,179861.28125,0.00146484375,0.9736328125,-0.25732421875,4.241942882537842,4.028319835662842,0.1220703050494194,86.66667175292969,180944.0,1.0
12:09:51.012657,202060.765625,196251.8125,219212.0625,208298.0625,220315.078125,179488.546875,-705714.6875,179853.859375,0.001953125,0.97705078125,-0.25830078125,4.272460460662842,4.028319835662842,0.0915527269244194,86.66667175292969,180945.0,1.0
12:09:51.018832,202058.53125,196257.359375,219208.21875,208301.109375,220302.921875,179494.796875,-705714.0625,179852.78125,0.003662109375,0.980224609375,-0.258056640625,4.272460460662842,4.089354991912842,0.0610351525247097,86.66667175292969,180946.0,1.0
12:09:51.025713,202074.625,196267.375,219217.34375,208302.796875,220336.4375,179510.796875,-705704.75,179859.671875,0.00390625,0.984619140625,-0.25927734375,4.241942882537842,4.241942882537842,0.1831054538488388,86.66667175292969,180947.0,1.0
12:09:51.025725,202075.875,196269.421875,219222.25,208298.234375,220356.296875,179517.5,-705707.8125,179858.953125,0.00341796875,0.98779296875,-0.26123046875,4.058837413787842,4.364013195037842,0.3662109076976776,86.66667175292969,180948.0,1.0
12:09:51.031931,202058.265625,196255.125,219213.9375,208296.71875,220325.890625,179497.75,-705705.375,179856.0,0.00390625,0.9921875,-0.26123046875,3.997802495956421,4.394530773162842,0.4882812201976776,86.66667175292969,180949.0,1.0
12:09:51.031943,202050.296875,196256.28125,219205.0,208294.390625,220302.375,179489.796875,-705710.9375,179848.3125,0.00537109375,0.998779296875,-0.26513671875,3.814697027206421,4.425048351287842,0.5187987685203552,86.66667175292969,180950.0,1.0
12:09:51.033839,202067.015625,196263.609375,219213.3125,208299.765625,220330.28125,179504.71875,-705713.6875,179854.484375,0.007568359375,1.00390625,-0.267333984375,3.601073980331421,4.364013195037842,0.6408690810203552,86.66667175292969,180951.0,1.0
12:09:51.046333,202076.140625,196263.796875,219220.375,208297.890625,220354.59375,179504.09375,-705708.625,179856.1875,0.00634765625,1.005126953125,-0.268310546875,3.204345464706421,4.364013195037842,0.7629393935203552,86.66667175292969,180952.0,1.0
12:09:51.049337,202063.171875,196256.28125,219215.546875,208299.140625,220331.53125,179488.359375,-705706.625,179855.640625,0.00634765625,1.00341796875,-0.2705078125,2.685546636581421,4.455565929412842,0.9765624403953552,86.66667175292969,180953.0,1.0
12:09:51.049340,202059.421875,196270.234375,219214.5625,208305.84375,220309.796875,179496.59375,-705709.625,179856.1875,0.00244140625,1.001953125,-0.2685546875,2.319335699081421,4.302978038787842,1.2207030057907104,86.66667175292969,180954.0,1.0
12:09:51.051336,202068.984375,196280.328125,219215.90625,208299.3125,220326.15625,179505.703125,-705706.1875,179850.109375,0.002197265625,0.9990234375,-0.267822265625,2.014159917831421,4.211425304412842,1.3122557401657104,86.66667175292969,180955.0,1.0
12:09:51.057511,202082.484375,196272.90625,219228.25,208304.765625,220362.734375,179531.015625,-705701.9375,179860.734375,-0.001953125,0.9970703125,-0.26904296875,1.7700194120407104,4.150390148162842,1.4648436307907104,86.66667175292969,180956.0,1.0
12:09:51.066296,202060.3125,196249.84375,219214.46875,208294.484375,220338.40625,179500.609375,-705703.5,179853.953125,-0.004638671875,0.998046875,-0.26806640625,1.4648436307907104,4.028319835662842,1.5563963651657104,86.66667175292969,180957.0,1.0
12:09:51.069340,202041.0,196233.21875,219199.09375,208294.671875,220296.921875,179466.09375,-705701.9375,179848.9375,-0.0068359375,0.998291015625,-0.268798828125,1.0986326932907104,3.784179449081421,1.4343260526657104,86.66667175292969,180958.0,1.0
12:09:51.069348,202055.21875,196251.09375,219205.625,208296.28125,220313.203125,179488.0,-705691.75,179850.375,-0.008056640625,0.998046875,-0.26513671875,0.7324218153953552,3.509521245956421,1.3122557401657104,86.66667175292969,180959.0,1.0
12:09:51.071388,202073.90625,196267.453125,219220.203125,208298.421875,220353.609375,179512.046875,-705693.875,179859.484375,-0.00927734375,0.996826171875,-0.26611328125,0.2441406100988388,3.295898199081421,1.3122557401657104,86.66667175292969,180960.0,1.0
12:09:51.081337,202060.140625,196255.125,219214.828125,208289.921875,220344.046875,179489.078125,-705705.0625,179853.140625,-0.008544921875,0.995361328125,-0.262939453125,-0.1220703050494194,3.021239995956421,1.2512205839157104,86.66667175292969,180961.0,1.0
12:09:51.085656,202045.109375,196232.765625,219205.359375,208299.140625,220308.90625,179474.59375,-705701.0,179855.109375,-0.010009765625,0.99072265625,-0.26513671875,-0.3356933295726776,2.716064214706421,1.3122557401657104,86.66667175292969,180962.0,1.0
12:09:51.085670,202054.328125,196247.703125,219207.953125,208301.640625,220314.71875,179489.796875,-705698.4375,179856.1875,-0.010009765625,0.984130859375,-0.266357421875,-0.4882812201976776,2.288818120956421,1.4648436307907104,86.66667175292969,180963.0,1.0
12:09:51.095038,202073.546875,196264.15625,219220.734375,208294.484375,220354.6875,179514.28125,-705697.4375,179858.140625,-0.010498046875,0.9775390625,-0.266357421875,-0.6713866591453552,1.9226073026657104,1.5258787870407104,86.66667175292969,180964.0,1.0
12:09:51.100079,202068.359375,196258.96875,219223.78125,208296.90625,220361.03125,179510.265625,-705697.0625,179861.640625,-0.010986328125,0.9716796875,-0.26806640625,-0.6713866591453552,1.5563963651657104,1.4953612089157104,86.66667175292969,180965.0,1.0
12:09:51.100087,202046.1875,196237.953125,219208.3125,208294.21875,220316.5,179480.578125,-705696.1875,179853.40625,-0.01123046875,0.967529296875,-0.267822265625,-0.6408690810203552,1.2817381620407104,1.5563963651657104,86.66667175292969,180966.0,1.0
12:09:51.100089,202046.015625,196249.046875,219203.484375,208289.65625,220306.40625,179490.59375,-705696.3125,179843.75,-0.011474609375,0.96337890625,-0.265869140625,-0.5798339247703552,0.9460448622703552,1.4343260526657104,86.66667175292969,180967.0,1.0
12:09:51.102486,202068.09375,196262.546875,219218.046875,208293.953125,220345.390625,179512.046875,-705693.5,179855.734375,-0.0107421875,0.964111328125,-0.265380859375,-0.4577636420726776,0.7324218153953552,1.4038084745407104,86.66667175292969,180968.0,1.0
12:09:51.112506,202073.453125,196266.03125,219228.78125,208299.578125,220365.6875,179513.125,-705688.9375,179865.125,-0.010498046875,0.96826171875,-0.263671875,-0.4882812201976776,0.2746581733226776,1.4648436307907104,86.66667175292969,180969.0,1.0
12:09:51.115619,202053.796875,196252.4375,219217.96875,208300.65625,220328.578125,179494.171875,-705694.0625,179860.734375,-0.007080078125,0.968994140625,-0.263671875,-0.3051757514476776,-0.1220703050494194,1.4648436307907104,86.66667175292969,180970.0,1.0
12:09:51.115632,202051.46875,196256.546875,219212.0625,208296.28125,220313.015625,179494.625,-705699.5,179854.03125,-0.0048828125,0.9677734375,-0.26220703125,-0.3662109076976776,-0.3356933295726776,1.3732908964157104,86.66667175292969,180971.0,1.0
12:09:51.122540,202074.359375,196276.75,219226.1875,208303.25,220350.21875,179515.625,-705693.6875,179864.578125,-0.00634765625,0.968994140625,-0.2626953125,-0.3051757514476776,-0.7324218153953552,1.4953612089157104,86.66667175292969,180972.0,1.0
12:09:51.130598,202076.859375,196274.875,219231.015625,208299.9375,220369.53125,179527.078125,-705691.0,179865.75,-0.004638671875,0.97021484375,-0.265380859375,-0.3967284858226776,-0.9765624403953552,1.4648436307907104,86.66667175292969,180973.0,1.0
12:09:51.130605,202040.375,196233.578125,219204.8125,208280.265625,220322.765625,179491.3125,-705698.1875,179847.0625,-0.001953125,0.97119140625,-0.263916015625,-0.3662109076976776,-1.1901854276657104,1.4953612089157104,86.66667175292969,180974.0,1.0
12:09:51.132602,202019.8125,196221.421875,219184.171875,208267.578125,220284.859375,179455.1875,-705698.875,179832.125,-0.0009765625,0.97412109375,-0.26416015625,-0.3356933295726776,-1.3732908964157104,1.5563963651657104,86.66667175292969,180975.0,1.0
12:09:51.165029,202041.1875,196249.046875,219197.21875,208272.765625,220314.984375,179480.40625,-705701.8125,179837.5,0.001953125,0.97412109375,-0.26513671875,-0.3967284858226776,-1.5563963651657104,1.4648436307907104,86.66667175292969,180976.0,1.0
12:09:51.168237,202042.171875,196227.9375,219198.296875,208267.390625,220336.0,179485.671875,-705702.25,179834.984375,0.00341796875,0.973876953125,-0.263916015625,-0.4577636420726776,-1.8310545682907104,1.6784666776657104,86.66667175292969,180977.0,1.0
12:09:51.168276,202012.484375,196201.5625,219177.734375,208258.546875,220299.515625,179450.453125,-705714.4375,179824.625,0.001220703125,0.974853515625,-0.26416015625,-0.4577636420726776,-2.014159917831421,1.6784666776657104,86.66667175292969,180978.0,1.0
12:09:51.169980,201999.078125,196196.734375,219163.328125,208256.75,220264.46875,179438.375,-705719.1875,179816.84375,0.0029296875,0.976806640625,-0.263671875,-0.4882812201976776,-2.166747808456421,1.7089842557907104,86.66667175292969,180979.0,1.0
12:09:51.172518,202026.4375,196233.578125,219182.734375,208266.234375,220298.625,179482.1875,-705714.625,179827.75,0.001953125,0.978271484375,-0.265380859375,-0.6713866591453552,-2.319335699081421,1.7700194120407104,86.66667175292969,180980.0,1.0
12:09:51.175128,202046.90625,196240.375,219199.1875,208274.453125,220335.734375,179490.234375,-705712.9375,179838.84375,0.0048828125,0.978271484375,-0.265625,-0.7934569716453552,-2.410888433456421,1.8310545682907104,86.66667175292969,180981.0,1.0
12:09:51.177532,202036.171875,196229.1875,219198.296875,208276.0625,220323.484375,179475.671875,-705706.125,179841.34375,0.010009765625,0.978271484375,-0.264404296875,-0.9155272841453552,-2.563476324081421,1.8310545682907104,86.66667175292969,180982.0,1.0
12:09:51.180113,202024.90625,196223.5625,219190.25,208278.65625,220289.0625,179465.828125,-705705.5625,179840.53125,0.0146484375,0.97509765625,-0.26806640625,-1.0070799589157104,-2.655029058456421,1.9226073026657104,86.66667175292969,180983.0,1.0
12:09:51.184224,202044.046875,196245.90625,219201.15625,208286.265625,220309.71875,179494.078125,-705706.625,179846.53125,0.015625,0.971435546875,-0.269287109375,-1.0070799589157104,-2.502441167831421,2.044677495956421,86.66667175292969,180984.0,1.0
12:09:51.184312,202056.296875,196255.03125,219207.5,208280.09375,220341.625,179512.328125,-705706.8125,179846.078125,0.01806640625,0.97119140625,-0.269775390625,-0.9460448622703552,-2.441406011581421,2.075195074081421,86.66667175292969,180985.0,1.0
12:09:51.185131,202035.375,196220.703125,219192.21875,208269.8125,220321.6875,179471.015625,-705714.5,179836.421875,0.01904296875,0.96923828125,-0.27099609375,-0.9765624403953552,-2.380370855331421,2.197265386581421,86.66667175292969,180986.0,1.0
12:09:51.188257,202018.203125,196215.328125,219180.765625,208270.25,220283.0625,179457.78125,-705716.375,179832.84375,0.02001953125,0.9697265625,-0.268310546875,-0.9155272841453552,-2.288818120956421,2.258300542831421,86.66667175292969,180987.0,1.0
12:09:51.188320,202026.078125,196233.125,219182.828125,208272.140625,220289.140625,179480.140625,-705704.9375,179832.84375,0.020751953125,0.96875,-0.2685546875,-0.8239745497703552,-2.166747808456421,2.380370855331421,86.66667175292969,180988.0,1.0
12:09:51.194458,202046.640625,196247.515625,219195.609375,208275.359375,220327.5,179496.765625,-705698.1875,179839.546875,0.02099609375,0.967529296875,-0.269287109375,-0.6408690810203552,-2.166747808456421,2.380370855331421,86.66667175292969,180989.0,1.0
12:09:51.194529,202040.734375,196229.375,219194.265625,208272.046875,220329.203125,179472.796875,-705697.375,179838.390625,0.021240234375,0.96630859375,-0.270751953125,-0.5493163466453552,-1.9226073026657104,2.380370855331421,86.66667175292969,180990.0,1.0
12:09:51.196295,202022.140625,196212.828125,219183.71875,208272.046875,220291.921875,179455.546875,-705697.875,179836.15625,0.01806640625,0.96240234375,-0.269775390625,-0.2746581733226776,-1.9531248807907104,2.441406011581421,86.66667175292969,180991.0,1.0
12:09:51.207488,202030.09375,196230.0,219189.265625,208281.515625,220293.078125,179475.578125,-705704.4375,179840.53125,0.01904296875,0.965087890625,-0.268310546875,-0.03051757626235485,-1.8310545682907104,2.349853277206421,86.66667175292969,180992.0,1.0
12:09:51.211205,202052.0,196242.78125,219201.421875,208287.15625,220329.109375,179488.546875,-705707.8125,179849.125,0.017333984375,0.964111328125,-0.264404296875,0.3051757514476776,-1.7089842557907104,2.227782964706421,86.66667175292969,180993.0,1.0
12:09:51.211227,202050.21875,196245.015625,219204.640625,208280.71875,220344.3125,179493.640625,-705710.9375,179848.046875,0.017333984375,0.965087890625,-0.262451171875,0.3662109076976776,-1.6784666776657104,2.258300542831421,86.66667175292969,180994.0,1.0
12:09:51.211232,202029.296875,196224.546875,219193.203125,208283.40625,220306.578125,179475.484375,-705714.875,179846.078125,0.0185546875,0.964111328125,-0.2607421875,0.5798339247703552,-1.6784666776657104,2.288818120956421,86.66667175292969,180995.0,1.0
12:09:51.218786,202022.5,196226.875,219182.921875,208276.96875,220285.03125,179477.546875,-705717.375,179835.53125,0.01806640625,0.962646484375,-0.266845703125,0.7934569716453552,-1.5563963651657104,2.136230230331421,86.66667175292969,180996.0,1.0
12:09:51.221304,202039.9375,196227.5,219191.5,208308.078125,220316.0625,179474.140625,-705717.5625,179855.203125,0.018798828125,0.963623046875,-0.265869140625,1.0681151151657104,-1.4343260526657104,1.8920897245407104,86.66667175292969,180997.0,1.0
12:09:51.223737,202045.109375,196239.03125,219198.734375,208283.21875,220341.1875,179494.4375,-705713.1875,179848.046875,0.019775390625,0.967041015625,-0.267822265625,1.3122557401657104,-1.4648436307907104,1.5869139432907104,86.66667175292969,180998.0,1.0
12:09:51.230120,202024.46875,196215.609375,219184.171875,208263.1875,220305.59375,179464.578125,-705711.375,179838.03125,0.02099609375,0.969970703125,-0.269775390625,1.3732908964157104,-1.3427733182907104,1.5563963651657104,86.66667175292969,180999.0,1.0
12:09:51.240612,202015.96875,196215.25,219175.5,208265.609375,220281.015625,179464.671875,-705713.875,179831.953125,0.021728515625,0.976318359375,-0.270263671875,1.5258787870407104,-1.1291502714157104,1.4343260526657104,86.66667175292969,181000.0,1.0
12:09:51.240616,202033.5,196226.875,219184.4375,208272.046875,220308.90625,179483.4375,-705708.0,179839.109375,0.021484375,0.978515625,-0.271240234375,1.6784666776657104,-0.9460448622703552,1.2512205839157104,86.66667175292969,181001.0,1.0
12:09:51.242532,202052.09375,196256.640625,219202.578125,208278.390625,220344.484375,179503.828125,-705709.1875,179849.828125,0.025146484375,0.98193359375,-0.270751953125,1.7395018339157104,-0.7324218153953552,1.2207030057907104,86.66667175292969,181002.0,1.0
12:09:51.245026,202029.734375,196235.1875,219191.3125,208273.03125,220316.953125,179483.796875,-705719.4375,179841.25,0.0244140625,0.98486328125,-0.271240234375,1.4953612089157104,-0.5493163466453552,1.1596678495407104,86.66667175292969,181003.0,1.0
12:09:51.260595,202015.34375,196219.265625,219176.921875,208269.359375,220279.671875,179455.015625,-705713.6875,179831.859375,0.02490234375,0.988037109375,-0.2734375,1.3732908964157104,-0.3967284858226776,1.2207030057907104,86.66667175292969,181004.0,1.0
12:09:51.260605,202027.859375,196210.6875,219179.078125,208275.265625,220296.921875,179467.4375,-705714.5,179835.4375,0.025634765625,0.989013671875,-0.2744140625,1.0986326932907104,-0.3051757514476776,1.0986326932907104,86.66667175292969,181005.0,1.0
12:09:51.265587,202046.546875,196231.15625,219192.65625,208277.046875,220335.109375,179485.140625,-705710.125,179843.03125,0.023681640625,0.98974609375,-0.27099609375,0.7934569716453552,-0.0915527269244194,1.0681151151657104,86.66667175292969,181006.0,1.0
12:09:51.265597,202036.265625,196230.625,219192.484375,208273.921875,220325.0,179484.34375,-705713.6875,179841.609375,0.0244140625,0.990478515625,-0.277587890625,0.4577636420726776,-0.03051757626235485,1.0375975370407104,86.66667175292969,181007.0,1.0
12:09:51.267583,202017.484375,196209.96875,219179.25,208273.46875,220287.71875,179463.328125,-705712.0,179837.671875,0.024658203125,0.97021484375,-0.273193359375,0.4272460639476776,0.0915527269244194,1.0070799589157104,86.66667175292969,181008.0,1.0
12:09:51.270049,202030.1875,196227.84375,219184.25,208274.640625,220299.78125,179474.59375,-705709.1875,179837.140625,0.02294921875,0.955810546875,-0.271484375,0.5798339247703552,0.3356933295726776,1.0070799589157104,86.66667175292969,181009.0,1.0
12:09:51.272481,202052.09375,196245.375,219200.34375,208281.34375,220340.109375,179502.9375,-705701.5625,179848.671875,0.012939453125,0.959716796875,-0.27587890625,0.6408690810203552,0.3356933295726776,0.9460448622703552,86.66667175292969,181010.0,1.0
12:09:51.283113,202040.015625,196239.109375,219197.125,208274.09375,220334.03125,179501.328125,-705701.8125,179842.859375,0.00732421875,0.9677734375,-0.2744140625,0.5187987685203552,0.3051757514476776,0.6713866591453552,86.66667175292969,181011.0,1.0
12:09:51.283127,202014.0,196202.734375,219174.328125,208269.984375,220283.6875,179444.8125,-705704.75,179832.75,0.00439453125,0.97802734375,-0.271728515625,0.5187987685203552,0.2746581733226776,0.6103515028953552,86.66667175292969,181012.0,1.0
12:09:51.327602,202024.90625,196223.109375,219180.328125,208274.546875,220289.78125,179465.390625,-705709.3125,179834.8125,0.00390625,0.987548828125,-0.268798828125,0.3662109076976776,0.1220703050494194,0.3356933295726776,86.66667175292969,181013.0,1.0
12:09:51.330703,202054.5,196255.5625,219205.71875,208288.046875,220339.578125,179503.5625,-705698.9375,179852.15625,0.008056640625,0.9912109375,-0.271240234375,0.0915527269244194,0.0,0.3051757514476776,86.66667175292969,181014.0,1.0
12:09:51.330730,202046.640625,196237.0625,219203.65625,208279.015625,220340.46875,179490.15625,-705695.1875,179846.796875,0.012451171875,0.9912109375,-0.269775390625,-0.1831054538488388,0.0,0.3356933295726776,86.66667175292969,181015.0,1.0
12:09:51.332628,202024.734375,196214.4375,219187.5625,208275.890625,220295.671875,179465.921875,-705701.75,179841.96875,0.013427734375,0.989501953125,-0.268798828125,-0.6408690810203552,0.0,0.1831054538488388,86.66667175292969,181016.0,1.0
12:09:51.335348,202025.0,196219.890625,219183.71875,208274.734375,220287.71875,179466.28125,-705705.5,179836.875,0.0126953125,0.98681640625,-0.26806640625,-0.8544921278953552,0.0,0.2136230319738388,86.66667175292969,181017.0,1.0
12:09:51.337642,202046.640625,196239.296875,219195.875,208276.609375,220323.75,179488.1875,-705709.0,179842.40625,0.01123046875,0.984375,-0.271240234375,-1.0375975370407104,0.0,0.1831054538488388,86.66667175292969,181018.0,1.0
12:09:51.340061,202050.390625,196238.9375,219201.421875,208278.03125,220339.84375,179491.578125,-705707.875,179847.234375,0.0087890625,0.98291015625,-0.269775390625,-1.1901854276657104,-0.03051757626235485,0.2441406100988388,86.66667175292969,181019.0,1.0
12:09:51.342513,202025.8125,196224.71875,219186.671875,208275.078125,220299.078125,179471.46875,-705715.25,179840.53125,0.008544921875,0.981201171875,-0.268310546875,-1.4648436307907104,-0.2136230319738388,0.2441406100988388,86.66667175292969,181020.0,1.0
12:09:51.345079,202022.140625,196219.71875,219180.59375,208275.359375,220284.140625,179472.890625,-705712.1875,179836.421875,0.00634765625,0.979736328125,-0.267578125,-1.6784666776657104,-0.3356933295726776,0.2441406100988388,86.66667175292969,181021.0,1.0
12:09:51.347489,202045.203125,196237.6875,219193.109375,208284.109375,220319.453125,179491.765625,-705700.3125,179848.765625,0.00732421875,0.9775390625,-0.26611328125,-1.8005369901657104,-0.4577636420726776,0.2136230319738388,86.66667175292969,181022.0,1.0
12:09:51.350001,202049.140625,196243.671875,219198.734375,208276.15625,220341.546875,179503.734375,-705697.0,179848.140625,0.007568359375,0.976806640625,-0.263671875,-1.7395018339157104,-0.4882812201976776,0.1831054538488388,86.66667175292969,181023.0,1.0
12:09:51.352895,202027.421875,196215.953125,219185.515625,208274.09375,220307.75,179474.953125,-705698.4375,179841.609375,0.0087890625,0.97412109375,-0.261474609375,-1.7395018339157104,-0.5798339247703552,0.0915527269244194,86.66667175292969,181024.0,1.0
12:09:51.355103,202016.0625,196218.828125,219175.21875,208267.21875,220279.671875,179476.296875,-705703.8125,179831.234375,0.00927734375,0.971435546875,-0.261962890625,-1.8005369901657104,-0.5187987685203552,0.03051757626235485,86.66667175292969,181025.0,1.0
12:09:51.358093,202036.53125,196236.25,219185.234375,208272.765625,220308.015625,179478.34375,-705698.625,179837.859375,0.009033203125,0.96875,-0.262451171875,-1.6784666776657104,-0.5187987685203552,0.1220703050494194,86.66667175292969,181026.0,1.0
12:09:51.358100,202042.171875,196230.265625,219192.03125,208288.234375,220336.4375,179487.46875,-705693.0,179846.34375,0.0087890625,0.9716796875,-0.2607421875,-1.5563963651657104,-0.6408690810203552,0.1831054538488388,86.66667175292969,181027.0,1.0
12:09:51.360011,202028.046875,196222.484375,219187.828125,208285.015625,220315.796875,179478.53125,-705697.6875,179843.390625,0.010986328125,0.973388671875,-0.260986328125,-1.4648436307907104,-0.6408690810203552,0.2441406100988388,86.66667175292969,181028.0,1.0
12:09:51.363086,202010.15625,196202.453125,219170.578125,208254.703125,220276.984375,179448.9375,-705701.75,179825.421875,0.010498046875,0.97607421875,-0.25830078125,-1.3732908964157104,-0.7019042372703552,0.2746581733226776,86.66667175292969,181029.0,1.0
12:09:51.363093,202027.421875,196224.359375,219180.6875,208266.859375,220301.03125,179478.34375,-705704.4375,179834.453125,0.0126953125,0.974853515625,-0.255615234375,-1.2817381620407104,-0.7324218153953552,0.2136230319738388,86.66667175292969,181030.0,1.0
12:09:51.368156,202039.578125,196229.015625,219189.53125,208265.78125,220333.046875,179485.59375,-705702.875,179838.390625,0.010498046875,0.9775390625,-0.2548828125,-1.2512205839157104,-0.7019042372703552,0.2441406100988388,86.66667175292969,181031.0,1.0
12:09:51.368176,202024.109375,196216.046875,219183.0,208260.25,220315.96875,179468.6875,-705710.0625,179833.03125,0.010986328125,0.977294921875,-0.255126953125,-1.3122557401657104,-0.8239745497703552,0.2441406100988388,86.66667175292969,181032.0,1.0
12:09:51.373766,202009.796875,196210.859375,219172.28125,208265.34375,220279.484375,179457.515625,-705708.0,179831.953125,0.01220703125,0.978759765625,-0.25537109375,-1.2817381620407104,-0.7324218153953552,0.3051757514476776,86.66667175292969,181033.0,1.0
12:09:51.376311,202021.6875,196219.171875,219177.640625,208271.0625,220292.8125,179468.875,-705706.3125,179836.6875,0.012451171875,0.980712890625,-0.255126953125,-1.4038084745407104,-0.7019042372703552,0.3662109076976776,86.66667175292969,181034.0,1.0
12:09:51.378813,202043.0625,196237.421875,219192.390625,208273.75,220331.703125,179491.484375,-705709.25,179844.296875,0.013916015625,0.983642578125,-0.25537109375,-1.4038084745407104,-0.7934569716453552,0.4577636420726776,86.66667175292969,181035.0,1.0
12:09:51.381318,202033.3125,196219.625,219189.0,208274.09375,220324.375,179472.984375,-705710.875,179843.484375,0.013671875,0.9814453125,-0.251708984375,-1.4038084745407104,-0.8239745497703552,0.5493163466453552,86.66667175292969,181036.0,1.0
12:09:51.384601,202006.046875,196201.03125,219168.078125,208261.3125,220275.921875,179451.171875,-705708.4375,179829.09375,0.014404296875,0.982177734375,-0.25341796875,-1.5258787870407104,-0.7629393935203552,0.5187987685203552,86.66667175292969,181037.0,1.0
12:09:51.384613,202014.0,196217.75,219171.03125,208260.78125,220281.015625,179473.4375,-705710.875,179827.578125,0.014404296875,0.98291015625,-0.25341796875,-1.6479490995407104,-0.7934569716453552,0.6103515028953552,86.66667175292969,181038.0,1.0
12:09:51.390085,202040.640625,196237.6875,219189.171875,208268.5625,220325.0,179502.21875,-705711.5625,179839.109375,0.01416015625,0.986083984375,-0.25537109375,-1.8005369901657104,-0.7019042372703552,0.5798339247703552,86.66667175292969,181039.0,1.0
12:09:51.403283,202037.78125,196220.4375,219189.796875,208270.34375,220330.625,179476.734375,-705708.625,179841.421875,0.01416015625,0.987548828125,-0.25439453125,-1.8615721464157104,-0.7019042372703552,0.6408690810203552,86.66667175292969,181040.0,1.0
12:09:51.403334,202013.28125,196204.25,219172.640625,208267.578125,220287.53125,179454.828125,-705709.3125,179834.015625,0.014404296875,0.99169921875,-0.2529296875,-2.075195074081421,-0.5493163466453552,0.5187987685203552,86.66667175292969,181041.0,1.0
12:09:51.405712,202014.09375,196215.953125,219169.421875,208266.046875,220278.15625,179461.984375,-705704.125,179828.734375,0.014892578125,0.992431640625,-0.255615234375,-2.319335699081421,-0.4577636420726776,0.4882812201976776,86.66667175292969,181042.0,1.0
12:09:51.405731,202037.515625,196240.375,219184.796875,208271.6875,220316.859375,179488.453125,-705703.5,179836.515625,0.015869140625,0.989990234375,-0.256103515625,-2.655029058456421,-0.3967284858226776,0.4272460639476776,86.66667175292969,181043.0,1.0
12:09:51.407631,202041.265625,196236.796875,219192.84375,208275.0,220335.28125,179495.609375,-705710.5,179840.53125,0.0166015625,0.989013671875,-0.260498046875,-2.716064214706421,-0.3662109076976776,0.4577636420726776,86.66667175292969,181044.0,1.0
12:09:51.418869,202021.421875,196212.390625,219181.484375,208284.46875,220296.921875,179466.09375,-705714.0625,179843.75,0.01708984375,0.9873046875,-0.25927734375,-2.777099370956421,-0.3051757514476776,0.5187987685203552,86.66667175292969,181045.0,1.0
12:09:51.423765,202017.21875,196217.390625,219176.65625,208293.6875,220280.203125,179464.671875,-705722.6875,179840.71875,0.015380859375,0.986572265625,-0.26171875,-2.990722417831421,-0.1525878757238388,0.5493163466453552,86.66667175292969,181046.0,1.0
12:09:51.423773,202028.671875,196226.515625,219176.125,208251.125,220304.53125,179478.796875,-705717.375,179826.234375,0.017822265625,0.983154296875,-0.260498046875,-3.112792730331421,0.03051757626235485,0.5493163466453552,86.66667175292969,181047.0,1.0
12:09:51.423774,202036.984375,196235.625,219185.15625,208261.671875,220328.390625,179487.46875,-705720.3125,179831.765625,0.019775390625,0.98193359375,-0.260986328125,-3.143310308456421,0.1220703050494194,0.6713866591453552,86.66667175292969,181048.0,1.0
12:09:51.426294,202018.109375,196213.09375,219175.765625,208262.484375,220299.515625,179466.28125,-705719.875,179828.203125,0.020263671875,0.982421875,-0.261474609375,-3.295898199081421,0.2136230319738388,0.6408690810203552,86.66667175292969,181049.0,1.0
12:09:51.435040,202009.625,196209.875,219166.46875,208261.9375,220274.125,179460.90625,-705720.5,179822.296875,0.01953125,0.981201171875,-0.25927734375,-3.356933355331421,0.3967284858226776,0.5798339247703552,86.66667175292969,181050.0,1.0
12:09:51.441885,202025.71875,196224.28125,219173.703125,208263.640625,220299.515625,179478.96875,-705714.6875,179825.96875,0.0185546875,0.979248046875,-0.260009765625,-3.326415777206421,0.5493163466453552,0.6408690810203552,86.66667175292969,181051.0,1.0
12:09:51.441911,202042.703125,196236.53125,219188.28125,208270.4375,220334.03125,179493.453125,-705711.5,179837.046875,0.018310546875,0.977294921875,-0.259765625,-3.417968511581421,0.7019042372703552,0.5798339247703552,86.66667175292969,181052.0,1.0
12:09:51.443763,202029.734375,196229.453125,219185.59375,208269.984375,220314.71875,179495.0625,-705714.0,179835.078125,0.0185546875,0.974609375,-0.2587890625,-3.417968511581421,0.7934569716453552,0.5493163466453552,86.66667175292969,181053.0,1.0
12:09:51.454437,202014.890625,196218.203125,219173.078125,208266.40625,220279.046875,179469.3125,-705720.5,179828.375,0.017822265625,0.974365234375,-0.2607421875,-3.356933355331421,1.0070799589157104,0.5187987685203552,86.66667175292969,181054.0,1.0
12:09:51.454469,202031.703125,196230.359375,219181.484375,208273.296875,220299.515625,179481.03125,-705718.0,179836.25,0.017333984375,0.974365234375,-0.260009765625,-3.295898199081421,1.0986326932907104,0.6103515028953552,86.66667175292969,181055.0,1.0
12:09:51.460598,202047.078125,196237.859375,219193.734375,208273.46875,220333.9375,179495.953125,-705714.8125,179842.953125,0.017822265625,0.972412109375,-0.2607421875,-3.173827886581421,1.2512205839157104,0.5187987685203552,86.66667175292969,181056.0,1.0
12:09:51.460614,202031.890625,196224.359375,219186.484375,208268.203125,220317.671875,179477.546875,-705711.9375,179836.25,0.015380859375,0.9716796875,-0.260498046875,-3.082275152206421,1.2207030057907104,0.4577636420726776,86.66667175292969,181057.0,1.0
12:09:51.470071,202018.109375,196222.484375,219178.796875,208273.828125,220285.484375,179478.078125,-705714.6875,179837.3125,0.0146484375,0.972900390625,-0.2568359375,-2.990722417831421,1.3732908964157104,0.3967284858226776,86.66667175292969,181058.0,1.0
12:09:51.475652,202027.234375,196228.03125,219179.78125,208278.296875,220293.796875,179480.140625,-705714.0625,179837.5,0.01513671875,0.97216796875,-0.26025390625,-3.021239995956421,1.5869139432907104,0.3051757514476776,86.66667175292969,181059.0,1.0
12:09:51.475677,202044.84375,196235.359375,219190.96875,208273.03125,220328.75,179492.734375,-705710.5,179842.6875,0.01318359375,0.970947265625,-0.260498046875,-2.838134527206421,1.4953612089157104,0.2136230319738388,86.66667175292969,181060.0,1.0
12:09:51.483192,202040.109375,196235.0,219192.484375,208270.53125,220327.859375,179491.125,-705714.0,179841.15625,0.011474609375,0.9716796875,-0.2607421875,-2.746581792831421,1.4343260526657104,0.0610351525247097,86.66667175292969,181061.0,1.0
12:09:51.483231,202020.703125,196212.203125,219177.546875,208270.53125,220285.578125,179463.78125,-705709.8125,179835.53125,0.008544921875,0.97265625,-0.259521484375,-2.532958745956421,1.4343260526657104,-0.03051757626235485,86.66667175292969,181062.0,1.0
12:09:51.489408,202034.125,196230.71875,219185.953125,208280.1875,220294.25,179483.0,-705707.4375,179839.109375,0.009033203125,0.971923828125,-0.259521484375,-2.410888433456421,1.5258787870407104,-0.1831054538488388,86.66667175292969,181063.0,1.0
12:09:51.489419,202052.0,196241.984375,219197.484375,208276.515625,220329.734375,179498.28125,-705713.375,179841.96875,0.008544921875,0.972412109375,-0.25927734375,-2.227782964706421,1.4648436307907104,-0.3051757514476776,86.66667175292969,181064.0,1.0
12:09:51.499657,202051.015625,196242.421875,219201.6875,208273.125,220337.78125,179500.078125,-705714.8125,179841.875,0.00927734375,0.971435546875,-0.25927734375,-2.105712652206421,1.4648436307907104,-0.4882812201976776,86.66667175292969,181065.0,1.0
12:09:51.499681,202027.234375,196221.140625,219186.84375,208269.1875,220295.234375,179475.21875,-705716.0625,179835.265625,0.008056640625,0.968994140625,-0.2578125,-2.014159917831421,1.4343260526657104,-0.5798339247703552,86.66667175292969,181066.0,1.0
12:09:51.501992,202028.125,196232.59375,219185.59375,208269.359375,220288.609375,179495.953125,-705722.6875,179832.125,0.007568359375,0.96923828125,-0.2578125,-1.8920897245407104,1.3427733182907104,-0.6408690810203552,86.66667175292969,181067.0,1.0
12:09:51.502011,202050.921875,196242.875,219198.203125,208278.390625,220326.875,179505.4375,-705718.5625,179843.578125,0.005859375,0.972412109375,-0.259521484375,-1.7700194120407104,1.4038084745407104,-0.6408690810203552,86.66667175292969,181068.0,1.0
12:09:51.511410,202051.28125,196234.640625,219200.53125,208276.0625,220341.09375,179492.734375,-705706.1875,179844.46875,0.00390625,0.974365234375,-0.259033203125,-1.7395018339157104,1.3122557401657104,-0.7324218153953552,86.66667175292969,181069.0,1.0
12:09:51.515023,202025.453125,196215.328125,219183.09375,208265.96875,220298.71875,179470.921875,-705709.9375,179831.421875,0.004150390625,0.97705078125,-0.259765625,-1.7089842557907104,1.3732908964157104,-0.7324218153953552,86.66667175292969,181070.0,1.0
12:09:51.525636,202025.0,196220.609375,219181.578125,208276.78125,220284.765625,179474.0625,-705715.6875,179835.53125,0.004150390625,0.97802734375,-0.2587890625,-1.7700194120407104,1.1901854276657104,-0.8239745497703552,86.66667175292969,181071.0,1.0
12:09:51.525649,202042.609375,196235.0,219188.1875,208273.828125,220313.46875,179491.046875,-705717.625,179834.8125,0.003173828125,0.980712890625,-0.261474609375,-1.8005369901657104,1.0986326932907104,-0.8544921278953552,86.66667175292969,181072.0,1.0
12:09:51.528203,202052.53125,196251.453125,219199.8125,208273.46875,220341.625,179509.640625,-705714.625,179839.546875,0.0048828125,0.983154296875,-0.260498046875,-1.8005369901657104,1.0375975370407104,-0.9155272841453552,86.66667175292969,181073.0,1.0
12:09:51.528208,202032.515625,196231.0625,219188.546875,208271.0625,220309.890625,179491.125,-705716.5625,179835.078125,0.005615234375,0.98486328125,-0.259521484375,-1.8920897245407104,0.9460448622703552,-0.7324218153953552,86.66667175292969,181074.0,1.0
12:09:51.533767,202022.59375,196222.671875,219179.25,208270.96875,220281.640625,179480.140625,-705720.875,179831.421875,0.005126953125,0.985107421875,-0.26025390625,-2.014159917831421,0.8544921278953552,-0.7324218153953552,86.66667175292969,181075.0,1.0
12:09:51.551920,202042.703125,196241.265625,219191.59375,208276.78125,220312.296875,179503.375,-705720.9375,179840.71875,0.007080078125,0.9873046875,-0.261474609375,-2.258300542831421,0.8239745497703552,-0.6713866591453552,86.66667175292969,181076.0,1.0
12:09:51.551938,202049.671875,196235.453125,219197.125,208275.171875,220337.609375,179494.984375,-705716.875,179843.84375,0.006103515625,0.989501953125,-0.259765625,-2.380370855331421,0.7934569716453552,-0.5187987685203552,86.66667175292969,181077.0,1.0
12:09:51.555870,202030.8125,196220.515625,219186.484375,208271.953125,220311.40625,179479.515625,-705711.5625,179838.921875,0.005859375,0.988037109375,-0.260986328125,-2.563476324081421,0.7324218153953552,-0.6103515028953552,86.66667175292969,181078.0,1.0
12:09:51.555888,202017.671875,196221.765625,219175.046875,208271.59375,220278.328125,179473.703125,-705711.6875,179832.40625,0.005126953125,0.9853515625,-0.261962890625,-2.655029058456421,0.7019042372703552,-0.5493163466453552,86.66667175292969,181079.0,1.0
12:09:51.555892,202038.59375,196242.15625,219189.171875,208302.71875,220304.796875,179506.875,-705709.625,179849.296875,0.004150390625,0.986083984375,-0.260498046875,-2.838134527206421,0.6408690810203552,-0.3356933295726776,86.66667175292969,181080.0,1.0
12:09:51.558514,202049.9375,196241.984375,219195.796875,208280.09375,220337.34375,179511.25,-705702.25,179846.890625,0.003173828125,0.9853515625,-0.26220703125,-3.051757574081421,0.6713866591453552,-0.1831054538488388,86.66667175292969,181081.0,1.0
12:09:51.561383,202034.390625,196226.515625,219187.828125,208260.25,220321.0625,179486.84375,-705703.5,179833.828125,-0.000244140625,0.98828125,-0.26171875,-3.204345464706421,0.6408690810203552,-0.1831054538488388,86.66667175292969,181082.0,1.0
12:09:51.568232,202013.375,196211.125,219170.390625,208257.46875,220276.71875,179469.671875,-705709.8125,179823.28125,0.000244140625,0.9873046875,-0.261474609375,-3.417968511581421,0.4882812201976776,-0.0915527269244194,86.66667175292969,181083.0,1.0
12:09:51.568299,202026.25,196230.265625,219177.46875,208264.09375,220289.234375,179489.703125,-705701.8125,179829.0,0.000732421875,0.985595703125,-0.260009765625,-3.601073980331421,0.3051757514476776,-0.03051757626235485,86.66667175292969,181084.0,1.0
12:09:51.575325,202046.28125,196247.25,219191.40625,208266.234375,220324.828125,179507.3125,-705694.375,179832.671875,0.002685546875,0.984375,-0.260009765625,-3.723144292831421,0.2136230319738388,0.0610351525247097,86.66667175292969,181085.0,1.0
12:09:51.584516,202042.078125,196243.9375,219192.21875,208268.109375,220324.828125,179504.546875,-705704.3125,179833.46875,0.00146484375,0.9833984375,-0.260009765625,-3.875732183456421,0.0,0.03051757626235485,86.66667175292969,181086.0,1.0
12:09:51.584613,202019.90625,196208.890625,219175.140625,208264.4375,220281.015625,179472.09375,-705703.0,179825.6875,0.00048828125,0.981689453125,-0.262939453125,-3.997802495956421,0.0,0.0,86.66667175292969,181087.0,1.0
12:09:51.594486,202026.078125,196224.625,219177.734375,208265.421875,220282.984375,179484.875,-705701.5625,179827.03125,0.00146484375,0.98291015625,-0.262939453125,-4.058837413787842,-0.03051757626235485,0.0,86.66667175292969,181088.0,1.0
12:09:51.594565,202047.53125,196244.84375,219191.59375,208265.25,220322.140625,179514.734375,-705707.375,179832.40625,0.00244140625,0.98095703125,-0.261962890625,-4.089354991912842,-0.03051757626235485,0.0,86.66667175292969,181089.0,1.0
12:09:51.597201,202043.59375,196240.546875,219192.75,208258.8125,220329.375,179503.5625,-705710.9375,179828.828125,0.00341796875,0.97998046875,-0.260009765625,-4.089354991912842,-0.0610351525247097,0.0915527269244194,86.66667175292969,181090.0,1.0
12:09:51.597266,202024.46875,196221.953125,219180.6875,208280.0,220291.109375,179479.59375,-705707.875,179833.03125,0.005615234375,0.976806640625,-0.26171875,-4.089354991912842,-0.1831054538488388,0.2136230319738388,86.66667175292969,181091.0,1.0
12:09:51.608041,202027.421875,196224.984375,219178.359375,208276.15625,220282.359375,179485.140625,-705703.0,179830.796875,0.005859375,0.973876953125,-0.2587890625,-4.089354991912842,-0.2441406100988388,0.1220703050494194,86.66667175292969,181092.0,1.0
12:09:51.612533,202043.0625,196240.640625,219184.609375,208246.828125,220312.125,179504.8125,-705702.375,179822.390625,0.004638671875,0.9736328125,-0.260498046875,-3.967284917831421,-0.2746581733226776,0.2746581733226776,86.66667175292969,181093.0,1.0
12:09:51.612606,202043.78125,196235.1875,219190.34375,208258.453125,220329.015625,179504.1875,-705706.625,179830.703125,0.004150390625,0.97265625,-0.2587890625,-3.936767339706421,-0.3967284858226776,0.1831054538488388,86.66667175292969,181094.0,1.0
12:09:51.612633,202026.703125,196223.828125,219181.390625,208257.109375,220296.5625,179504.09375,-705708.625,179827.03125,0.003662109375,0.972412109375,-0.259521484375,-3.906249761581421,-0.4272460639476776,0.1831054538488388,86.66667175292969,181095.0,1.0
12:09:51.616299,202017.40625,196216.140625,219168.875,208253.09375,220270.640625,179476.65625,-705716.0625,179820.78125,0.002197265625,0.97021484375,-0.260986328125,-3.906249761581421,-0.3967284858226776,0.2746581733226776,86.66667175292969,181096.0,1.0
12:09:51.623767,202045.5625,196244.21875,219187.921875,208271.234375,220312.03125,179508.5625,-705711.75,179839.46875,0.00244140625,0.970703125,-0.262939453125,-3.906249761581421,-0.3662109076976776,0.2136230319738388,86.66667175292969,181097.0,1.0
12:09:51.631566,202051.28125,196242.328125,219194.09375,208266.953125,220334.828125,179510.0,-705707.1875,179839.109375,0.00390625,0.96923828125,-0.2607421875,-3.662109136581421,-0.4882812201976776,0.1525878757238388,86.66667175292969,181098.0,1.0
12:09:51.631618,202023.484375,196210.953125,219176.5625,208258.8125,220298.09375,179481.03125,-705709.5,179829.453125,0.005859375,0.96826171875,-0.26416015625,-3.387450933456421,-0.5493163466453552,0.1220703050494194,86.66667175292969,181099.0,1.0
12:09:51.633188,202014.625,196211.046875,219168.515625,208266.6875,220274.03125,179481.5625,-705709.5,179831.140625,0.0048828125,0.96923828125,-0.26123046875,-3.356933355331421,-0.4577636420726776,0.03051757626235485,86.66667175292969,181100.0,1.0
12:09:51.633199,202035.453125,196231.875,219179.96875,208264.984375,220303.28125,179505.890625,-705708.625,179838.65625,0.0029296875,0.9697265625,-0.26025390625,-3.173827886581421,-0.5187987685203552,0.03051757626235485,86.66667175292969,181101.0,1.0
12:09:51.647675,202046.1875,196242.328125,219189.078125,208256.671875,220332.421875,179517.6875,-705709.0625,179833.46875,0.0048828125,0.96923828125,-0.26025390625,-2.990722417831421,-0.5187987685203552,-0.03051757626235485,86.66667175292969,181102.0,1.0
12:09:51.700778,202033.21875,196231.875,219184.4375,208256.671875,220314.265625,179509.90625,-705699.4375,179830.96875,0.003173828125,0.96728515625,-0.26123046875,-2.929687261581421,-0.6103515028953552,-0.03051757626235485,86.66667175292969,181103.0,1.0
12:09:51.700829,202015.796875,196218.90625,219169.140625,208253.09375,220275.640625,179490.15625,-705705.875,179822.828125,0.003662109375,0.96533203125,-0.2607421875,-2.655029058456421,-0.6713866591453552,-0.1220703050494194,86.66667175292969,181104.0,1.0
12:09:51.700841,202032.78125,196240.640625,219179.609375,208264.71875,220297.546875,179509.375,-705710.6875,179829.53125,0.002685546875,0.964111328125,-0.260986328125,-2.441406011581421,-0.5798339247703552,-0.1525878757238388,86.66667175292969,181105.0,1.0
12:09:51.700852,202060.046875,196266.46875,219205.0,208299.046875,220344.9375,179546.46875,-705700.125,179854.84375,0.00146484375,0.963623046875,-0.2578125,-2.044677495956421,-0.7019042372703552,-0.2441406100988388,86.66667175292969,181106.0,1.0
12:09:51.700866,202039.03125,196227.40625,219189.359375,208254.875,220322.140625,179505.796875,-705683.875,179835.078125,0.001953125,0.963623046875,-0.256591796875,-1.8310545682907104,-0.7934569716453552,-0.2136230319738388,86.66667175292969,181107.0,1.0
12:09:51.702547,202023.84375,196223.734375,219179.875,208262.296875,220285.84375,179496.234375,-705684.8125,179832.21875,0.0029296875,0.968505859375,-0.253173828125,-1.6479490995407104,-0.8544921278953552,-0.3356933295726776,86.66667175292969,181108.0,1.0
12:09:51.705010,202040.015625,196253.15625,219190.25,208269.625,220302.296875,179538.875,-705686.5625,179835.703125,0.0029296875,0.971923828125,-0.25537109375,-1.4953612089157104,-0.9155272841453552,-0.4272460639476776,86.66667175292969,181109.0,1.0
12:09:51.707565,202057.8125,196247.796875,219200.078125,208273.65625,220336.171875,179519.296875,-705681.6875,179844.109375,0.00244140625,0.97607421875,-0.25244140625,-1.4343260526657104,-1.0375975370407104,-0.4577636420726776,86.66667175292969,181110.0,1.0
12:09:51.710026,202050.921875,196239.109375,219201.421875,208271.953125,220337.515625,179518.765625,-705680.25,179844.46875,0.0029296875,0.978271484375,-0.252685546875,-1.3732908964157104,-0.9460448622703552,-0.5798339247703552,86.66667175292969,181111.0,1.0
12:09:51.712723,202024.109375,196222.578125,219182.5625,208265.609375,220292.359375,179497.84375,-705691.0,179834.1875,0.0048828125,0.979248046875,-0.252685546875,-1.3427733182907104,-0.9765624403953552,-0.6103515028953552,86.66667175292969,181112.0,1.0
12:09:51.715197,202018.46875,196221.421875,219172.984375,208256.21875,220283.96875,179500.515625,-705698.0625,179824.078125,0.00341796875,0.978759765625,-0.251220703125,-1.3122557401657104,-0.9460448622703552,-0.5187987685203552,86.66667175292969,181113.0,1.0
12:09:51.717530,202038.234375,196224.28125,219183.90625,208262.921875,220319.28125,179507.671875,-705701.0,179834.015625,0.005126953125,0.98095703125,-0.251708984375,-1.3427733182907104,-0.9460448622703552,-0.5187987685203552,86.66667175292969,181114.0,1.0
12:09:51.720131,202033.9375,196223.03125,219184.25,208262.75,220324.375,179500.78125,-705705.5,179836.421875,0.006103515625,0.980224609375,-0.251953125,-1.3427733182907104,-0.9765624403953552,-0.5493163466453552,86.66667175292969,181115.0,1.0
12:09:51.722567,202005.953125,196201.296875,219163.25,208248.265625,220273.6875,179475.21875,-705708.625,179817.5625,0.0048828125,0.982421875,-0.253662109375,-1.3122557401657104,-1.0681151151657104,-0.4882812201976776,86.66667175292969,181116.0,1.0
12:09:51.725120,202004.609375,196204.15625,219156.984375,208249.421875,220258.84375,179476.46875,-705712.75,179812.28125,0.00244140625,0.984130859375,-0.252197265625,-1.3732908964157104,-1.0375975370407104,-0.5187987685203552,86.66667175292969,181117.0,1.0
12:09:51.729232,202032.59375,196226.6875,219174.59375,208257.203125,220300.765625,179501.234375,-705704.3125,179824.0,0.002685546875,0.984375,-0.252685546875,-1.5258787870407104,-0.9460448622703552,-0.4272460639476776,86.66667175292969,181118.0,1.0
12:09:51.730095,202044.046875,196239.46875,219188.8125,208259.171875,220329.296875,179521.4375,-705696.1875,179832.84375,0.001708984375,0.984375,-0.256103515625,-1.6174315214157104,-1.0986326932907104,-0.3356933295726776,86.66667175292969,181119.0,1.0
12:09:51.732882,202027.953125,196223.65625,219180.59375,208263.1875,220297.109375,179501.59375,-705696.4375,179834.640625,0.0029296875,0.982666015625,-0.25537109375,-1.6784666776657104,-1.0681151151657104,-0.2441406100988388,86.66667175292969,181120.0,1.0
12:09:51.735835,202015.515625,196220.875,219167.171875,208257.296875,220268.5,179486.84375,-705704.6875,179823.375,0.0009765625,0.983642578125,-0.255126953125,-1.6479490995407104,-1.1291502714157104,0.0610351525247097,86.66667175292969,181121.0,1.0
12:09:51.735917,202044.40625,196254.046875,219188.09375,208272.84375,220309.984375,179533.328125,-705706.1875,179839.109375,0.0029296875,0.982421875,-0.256591796875,-1.6784666776657104,-1.1596678495407104,0.1831054538488388,86.66667175292969,181122.0,1.0
12:09:51.739067,202046.28125,196233.21875,219190.6875,208285.015625,220330.8125,179517.6875,-705702.4375,179844.203125,0.000732421875,0.982177734375,-0.255615234375,-1.8310545682907104,-1.2207030057907104,0.2746581733226776,86.66667175292969,181123.0,1.0
12:09:51.740723,202023.03125,196212.65625,219174.0625,208259.796875,220294.609375,179483.71875,-705713.6875,179827.484375,0.0009765625,0.9814453125,-0.25537109375,-1.9226073026657104,-1.2207030057907104,0.2441406100988388,86.66667175292969,181124.0,1.0
12:09:51.740802,202013.640625,196213.375,219164.5,208251.296875,220265.984375,179485.953125,-705720.6875,179819.4375,0.001953125,0.982666015625,-0.2548828125,-1.8920897245407104,-1.1596678495407104,0.3967284858226776,86.66667175292969,181125.0,1.0
12:09:51.742655,202037.78125,196240.1875,219179.703125,208266.5,220297.1875,179512.765625,-705712.75,179832.40625,0.00390625,0.98046875,-0.25390625,-1.9531248807907104,-1.1596678495407104,0.3967284858226776,86.66667175292969,181126.0,1.0
12:09:51.745682,202049.765625,196249.40625,219190.0625,208263.8125,220329.296875,179526.71875,-705701.0,179834.1875,0.0048828125,0.978759765625,-0.25341796875,-2.044677495956421,-1.0681151151657104,0.6408690810203552,86.66667175292969,181127.0,1.0
12:09:51.745690,202031.609375,196229.28125,219181.3125,208261.40625,220305.859375,179506.59375,-705700.6875,179829.265625,0.008544921875,0.9765625,-0.25634765625,-2.075195074081421,-1.0375975370407104,0.7629393935203552,86.66667175292969,181128.0,1.0
12:09:51.755172,202020.53125,196224.453125,219174.15625,208263.109375,220275.296875,179498.015625,-705708.4375,179827.296875,0.008056640625,0.97607421875,-0.256591796875,-1.9531248807907104,-1.0375975370407104,0.7324218153953552,86.66667175292969,181129.0,1.0
12:09:51.758297,202031.265625,196229.90625,219176.390625,208266.328125,220289.953125,179505.265625,-705704.625,179828.90625,0.00927734375,0.974853515625,-0.255615234375,-1.9226073026657104,-0.9765624403953552,0.8544921278953552,86.66667175292969,181130.0,1.0
12:09:51.758308,202047.078125,196241.4375,219188.015625,208264.625,220324.640625,179520.546875,-705702.0,179831.0625,0.00634765625,0.971923828125,-0.252197265625,-1.8920897245407104,-0.8544921278953552,0.9460448622703552,86.66667175292969,181131.0,1.0
12:09:51.760011,202034.125,196226.421875,219183.359375,208266.5,220313.375,179502.84375,-705704.625,179829.984375,0.006591796875,0.973388671875,-0.259765625,-1.7700194120407104,-0.8239745497703552,1.0681151151657104,86.66667175292969,181132.0,1.0
12:09:51.770045,202020.625,196228.921875,219175.046875,208262.390625,220276.90625,179497.921875,-705704.75,179824.625,0.00537109375,0.9736328125,-0.259521484375,-1.5563963651657104,-0.7934569716453552,1.0375975370407104,86.66667175292969,181133.0,1.0
12:09:51.805597,202033.046875,196241.890625,219179.875,208267.125,220287.53125,179513.75,-705704.875,179828.640625,0.00439453125,0.97119140625,-0.25634765625,-1.4953612089157104,-0.6408690810203552,1.0986326932907104,86.66667175292969,181134.0,1.0
12:09:51.805612,202049.3125,196233.65625,219188.90625,208271.234375,220321.875,179515.1875,-705698.25,179836.6875,0.007080078125,0.97021484375,-0.257080078125,-1.2817381620407104,-0.5493163466453552,1.0681151151657104,86.66667175292969,181135.0,1.0
12:09:51.807491,202041.09375,196233.390625,219189.078125,208267.21875,220321.609375,179512.140625,-705692.4375,179835.171875,0.0068359375,0.968505859375,-0.25732421875,-1.0681151151657104,-0.6103515028953552,1.0681151151657104,86.66667175292969,181136.0,1.0
12:09:51.810008,202019.546875,196219.171875,219172.8125,208263.109375,220278.515625,179495.421875,-705691.25,179828.640625,0.007568359375,0.968505859375,-0.26220703125,-0.8544921278953552,-0.5493163466453552,1.0986326932907104,86.66667175292969,181137.0,1.0
12:09:51.812530,202025.984375,196231.703125,219173.4375,208266.234375,220277.703125,179508.125,-705691.0,179828.90625,0.007080078125,0.96630859375,-0.262451171875,-0.5798339247703552,-0.5798339247703552,0.9155272841453552,86.66667175292969,181138.0,1.0
12:09:51.815014,202047.984375,196243.234375,219185.953125,208270.53125,220315.96875,179529.046875,-705695.3125,179835.265625,0.007080078125,0.9677734375,-0.2587890625,-0.3662109076976776,-0.4882812201976776,0.9155272841453552,86.66667175292969,181139.0,1.0
12:09:51.817922,202043.328125,196242.6875,219188.640625,208267.84375,220325.265625,179526.0,-705693.9375,179836.59375,0.008056640625,0.970703125,-0.255859375,-0.2441406100988388,-0.3356933295726776,0.9155272841453552,86.66667175292969,181140.0,1.0
12:09:51.820091,202019.8125,196215.328125,219171.5625,208267.21875,220282.703125,179488.8125,-705690.8125,179831.859375,0.008056640625,0.9755859375,-0.257080078125,-0.0610351525247097,-0.2441406100988388,0.8850097060203552,86.66667175292969,181141.0,1.0
12:09:51.822882,202027.140625,196230.265625,219174.953125,208274.09375,220278.953125,179503.203125,-705698.625,179833.203125,0.007568359375,0.97802734375,-0.2568359375,0.0,-0.2441406100988388,0.7629393935203552,86.66667175292969,181142.0,1.0
12:09:51.825108,202048.96875,196245.828125,219189.796875,208279.640625,220317.484375,179526.1875,-705693.75,179842.140625,0.007568359375,0.980224609375,-0.256103515625,-0.03051757626235485,-0.1220703050494194,0.7019042372703552,86.66667175292969,181143.0,1.0
12:09:51.827604,202054.140625,196246.625,219198.203125,208280.265625,220339.578125,179528.59375,-705694.6875,179846.171875,0.006103515625,0.981689453125,-0.25732421875,-0.1220703050494194,-0.2441406100988388,0.6103515028953552,86.66667175292969,181144.0,1.0
12:09:51.830308,202037.421875,196232.59375,219189.625,208278.65625,220306.3125,179507.671875,-705696.0,179842.40625,0.004638671875,0.983154296875,-0.25341796875,-0.1831054538488388,-0.2441406100988388,0.5493163466453552,86.66667175292969,181145.0,1.0
12:09:51.833219,202032.234375,196236.25,219184.25,208279.828125,220289.234375,179516.171875,-705695.5,179839.640625,0.00634765625,0.984375,-0.253662109375,-0.2136230319738388,-0.1831054538488388,0.4272460639476776,86.66667175292969,181146.0,1.0
12:09:51.833247,202050.390625,196251.28125,219194.984375,208284.828125,220321.6875,179544.0625,-705700.1875,179847.421875,0.004150390625,0.986083984375,-0.254150390625,-0.3356933295726776,-0.1831054538488388,0.2746581733226776,86.66667175292969,181147.0,1.0
12:09:51.835833,202053.4375,196242.15625,219197.3125,208278.921875,220341.546875,179525.015625,-705702.625,179848.046875,0.005126953125,0.98828125,-0.257080078125,-0.6103515028953552,-0.1220703050494194,0.1831054538488388,86.66667175292969,181148.0,1.0
12:09:51.835888,202032.421875,196224.09375,219186.671875,208272.84375,220311.5,179509.8125,-705707.8125,179842.40625,0.0068359375,0.989013671875,-0.255859375,-0.6408690810203552,-0.0610351525247097,0.2746581733226776,86.66667175292969,181149.0,1.0
12:09:51.838128,202023.65625,196225.171875,219178.796875,208274.375,220285.03125,179505.703125,-705709.8125,179838.03125,0.0078125,0.98828125,-0.256103515625,-0.7324218153953552,-0.03051757626235485,0.3662109076976776,86.66667175292969,181150.0,1.0
12:09:51.840706,202045.65625,196243.765625,219190.15625,208283.125,220312.65625,179526.453125,-705710.4375,179845.28125,0.008056640625,0.986572265625,-0.25634765625,-0.8239745497703552,-0.03051757626235485,0.3967284858226776,86.66667175292969,181151.0,1.0
12:09:51.840784,202063.0,196262.71875,219204.546875,208281.25,220349.59375,179545.484375,-705712.1875,179853.765625,0.009033203125,0.987060546875,-0.254638671875,-1.0070799589157104,0.0915527269244194,0.3662109076976776,86.66667175292969,181152.0,1.0
12:09:51.858872,202051.734375,196245.734375,219202.5,208286.796875,220334.828125,179529.484375,-705709.4375,179859.484375,0.009765625,0.987060546875,-0.25390625,-1.1291502714157104,0.0915527269244194,0.3356933295726776,86.66667175292969,181153.0,1.0
12:09:51.861882,202034.125,196233.84375,219188.015625,208276.25,220295.9375,179516.171875,-705713.1875,179844.375,0.00927734375,0.98486328125,-0.255126953125,-1.2817381620407104,0.2746581733226776,0.4577636420726776,86.66667175292969,181154.0,1.0
12:09:51.861925,202050.296875,196251.1875,219195.515625,208278.578125,220313.203125,179533.0625,-705709.1875,179846.703125,0.01025390625,0.984130859375,-0.25439453125,-1.3122557401657104,0.3051757514476776,0.4272460639476776,86.66667175292969,181155.0,1.0
12:09:51.863821,202065.40625,196261.46875,219204.8125,208280.453125,220347.0,179548.984375,-705706.0,179851.359375,0.010986328125,0.984130859375,-0.254638671875,-1.4953612089157104,0.3662109076976776,0.4882812201976776,86.66667175292969,181156.0,1.0
12:09:51.866261,202045.203125,196239.46875,219191.953125,208270.25,220325.8125,179525.546875,-705708.5625,179840.53125,0.008056640625,0.982666015625,-0.257568359375,-1.6174315214157104,0.4272460639476776,0.5187987685203552,86.66667175292969,181157.0,1.0
12:09:51.868780,202025.53125,196226.515625,219176.65625,208267.390625,220285.21875,179508.125,-705710.6875,179835.265625,0.006103515625,0.98046875,-0.257080078125,-1.6479490995407104,0.3967284858226776,0.5798339247703552,86.66667175292969,181158.0,1.0
12:09:51.871963,202032.328125,196239.921875,219178.53125,208268.640625,220294.6875,179521.890625,-705712.375,179835.96875,0.005126953125,0.981201171875,-0.251220703125,-1.6479490995407104,0.4882812201976776,0.6713866591453552,86.66667175292969,181159.0,1.0
12:09:51.871983,202053.703125,196255.921875,219194.09375,208274.453125,220336.4375,179542.0,-705717.8125,179846.703125,0.005615234375,0.98046875,-0.25048828125,-1.7089842557907104,0.4577636420726776,0.6408690810203552,86.66667175292969,181160.0,1.0
12:09:51.883872,202045.65625,196243.046875,219193.375,208273.203125,220337.0625,179532.265625,-705716.3125,179846.53125,0.004150390625,0.979248046875,-0.251708984375,-1.5869139432907104,0.5187987685203552,0.7629393935203552,86.66667175292969,181161.0,1.0
12:09:51.895579,202022.3125,196227.671875,219176.65625,208267.125,220292.359375,179510.265625,-705722.8125,179835.96875,0.002685546875,0.97705078125,-0.252197265625,-1.6784666776657104,0.5798339247703552,0.7019042372703552,86.66667175292969,181162.0,1.0
12:09:51.895599,202026.34375,196234.375,219177.46875,208268.828125,220290.40625,179520.09375,-705724.5625,179832.84375,0.0029296875,0.97265625,-0.255859375,-1.5258787870407104,0.5493163466453552,0.6713866591453552,86.66667175292969,181163.0,1.0
12:09:51.895603,202047.984375,196246.453125,219191.046875,208274.453125,220328.125,179538.15625,-705718.5625,179841.25,0.002685546875,0.969970703125,-0.25341796875,-1.4038084745407104,0.5493163466453552,0.7629393935203552,86.66667175292969,181164.0,1.0
12:09:51.895607,202047.359375,196241.359375,219193.46875,208277.3125,220336.4375,179529.9375,-705716.75,179844.203125,0.002197265625,0.968017578125,-0.253173828125,-1.2512205839157104,0.4577636420726776,0.8850097060203552,86.66667175292969,181165.0,1.0
12:09:51.898306,202028.9375,196225.96875,219181.75,208274.1875,220298.359375,179512.046875,-705712.375,179841.078125,0.0009765625,0.968017578125,-0.25341796875,-1.0681151151657104,0.4272460639476776,1.0375975370407104,86.66667175292969,181166.0,1.0
12:09:51.898328,202027.0625,196231.875,219177.1875,208272.046875,220287.453125,179517.6875,-705716.0625,179838.921875,0.003173828125,0.964599609375,-0.250732421875,-0.7324218153953552,0.3051757514476776,0.8850097060203552,86.66667175292969,181167.0,1.0
12:09:51.905131,202049.671875,196248.421875,219190.875,208278.484375,220323.921875,179538.078125,-705716.9375,179849.921875,0.003662109375,0.961669921875,-0.248291015625,-0.4882812201976776,0.1525878757238388,0.8544921278953552,86.66667175292969,181168.0,1.0
12:09:51.913194,202053.515625,196247.25,219196.859375,208278.125,220342.875,179539.59375,-705717.125,179852.34375,0.004150390625,0.962158203125,-0.251708984375,-0.1525878757238388,0.2136230319738388,0.8544921278953552,86.66667175292969,181169.0,1.0
12:09:51.913236,202034.390625,196229.109375,219186.84375,208277.046875,220308.546875,179516.53125,-705723.625,179846.4375,0.002685546875,0.96435546875,-0.2548828125,0.1220703050494194,0.1525878757238388,0.9460448622703552,86.66667175292969,181170.0,1.0
12:09:51.922538,202028.390625,196233.578125,219180.6875,208275.4375,220289.78125,179518.765625,-705724.6875,179840.265625,0.00341796875,0.964111328125,-0.25439453125,0.4882812201976776,0.1525878757238388,0.9155272841453552,86.66667175292969,181171.0,1.0
12:09:51.926893,202049.765625,196255.203125,219192.21875,208278.03125,220320.53125,179540.3125,-705718.625,179845.359375,0.003173828125,0.9677734375,-0.251953125,0.7934569716453552,0.1525878757238388,0.9460448622703552,86.66667175292969,181172.0,1.0
12:09:51.926900,202058.53125,196249.125,219198.5625,208275.4375,220343.859375,179541.203125,-705717.625,179846.4375,0.002685546875,0.96923828125,-0.25146484375,1.0986326932907104,0.1220703050494194,0.9460448622703552,86.66667175292969,181173.0,1.0
12:09:51.936899,202040.640625,196232.140625,219188.734375,208273.65625,220316.5,179521.265625,-705723.625,179842.40625,0.004638671875,0.9716796875,-0.251708984375,1.3732908964157104,0.0610351525247097,1.0375975370407104,86.66667175292969,181174.0,1.0
12:09:51.936918,202024.734375,196226.234375,219175.859375,208269.0,220285.21875,179511.25,-705728.5625,179834.71875,0.00537109375,0.97265625,-0.253173828125,1.4648436307907104,0.0,1.0681151151657104,86.66667175292969,181175.0,1.0
12:09:51.939435,202040.828125,196240.1875,219182.828125,208270.796875,220306.9375,179529.125,-705727.375,179837.671875,0.0068359375,0.97265625,-0.25439453125,1.6479490995407104,0.03051757626235485,1.0986326932907104,86.66667175292969,181176.0,1.0
12:09:51.939456,202054.5,196247.078125,219194.71875,208273.296875,220340.015625,179539.765625,-705724.0,179845.359375,0.005859375,0.972412109375,-0.251953125,1.8005369901657104,0.0,1.0986326932907104,86.66667175292969,181177.0,1.0
12:09:51.946317,202041.453125,196240.546875,219190.78125,208274.09375,220323.75,179528.5,-705718.5625,179845.984375,0.00830078125,0.973876953125,-0.25390625,1.9836424589157104,-0.0915527269244194,1.0375975370407104,86.66667175292969,181178.0,1.0
12:09:51.950672,202023.390625,196227.765625,219175.21875,208272.3125,220284.671875,179514.828125,-705721.4375,179839.375,0.008544921875,0.973876953125,-0.25244140625,2.105712652206421,0.03051757626235485,1.1291502714157104,86.66667175292969,181179.0,1.0
12:09:51.950679,202033.671875,196232.765625,219177.015625,208276.609375,220296.84375,179522.328125,-705711.1875,179841.515625,0.009033203125,0.974853515625,-0.25537109375,2.136230230331421,0.0610351525247097,1.2207030057907104,86.66667175292969,181180.0,1.0
12:09:51.960013,202052.09375,196243.9375,219187.828125,208279.734375,220331.703125,179536.8125,-705709.4375,179847.6875,0.009521484375,0.97705078125,-0.25537109375,2.227782964706421,0.2136230319738388,1.2512205839157104,86.66667175292969,181181.0,1.0
12:09:51.966912,202040.375,196234.5625,219183.265625,208269.1875,220320.984375,179525.90625,-705712.4375,179838.390625,0.01220703125,0.979248046875,-0.257080078125,2.349853277206421,0.1525878757238388,1.2817381620407104,86.66667175292969,181182.0,1.0
12:09:51.966923,202023.296875,196222.75,219171.828125,208267.84375,220282.625,179509.734375,-705712.0,179833.734375,0.01123046875,0.97998046875,-0.261962890625,2.380370855331421,0.1831054538488388,1.3427733182907104,86.66667175292969,181183.0,1.0
12:09:51.973157,202034.203125,196235.71875,219175.765625,208272.578125,220292.640625,179524.578125,-705709.625,179836.953125,0.0126953125,0.979736328125,-0.26025390625,2.441406011581421,0.3662109076976776,1.3427733182907104,86.66667175292969,181184.0,1.0
12:09:51.973190,202052.09375,196247.703125,219188.453125,208273.125,220330.625,179539.140625,-705711.5625,179844.46875,0.01318359375,0.981689453125,-0.259765625,2.380370855331421,0.3356933295726776,1.4038084745407104,86.66667175292969,181185.0,1.0
12:09:51.983145,202044.671875,196240.09375,219188.734375,208269.0,220331.96875,179531.8125,-705717.625,179842.234375,0.013427734375,0.9814453125,-0.25927734375,2.380370855331421,0.3967284858226776,1.3732908964157104,86.66667175292969,181186.0,1.0
12:09:51.983152,202025.625,196222.046875,219175.21875,208270.078125,220291.5625,179508.75,-705722.3125,179837.9375,0.0126953125,0.98095703125,-0.26123046875,2.227782964706421,0.3051757514476776,1.4648436307907104,86.66667175292969,181187.0,1.0
12:09:51.985103,202032.328125,196232.765625,219177.90625,208274.453125,220290.75,179519.109375,-705718.125,179839.109375,0.012451171875,0.978515625,-0.260986328125,2.136230230331421,0.4577636420726776,1.4343260526657104,86.66667175292969,181188.0,1.0
12:09:51.988786,202058.078125,196253.59375,219197.125,208284.65625,220333.578125,179542.265625,-705710.9375,179852.96875,0.01171875,0.980712890625,-0.260986328125,2.197265386581421,0.3967284858226776,1.3122557401657104,86.66667175292969,181189.0,1.0
12:09:52.004468,202054.6875,196247.703125,219197.84375,208279.46875,220341.546875,179537.171875,-705715.4375,179850.015625,0.010986328125,0.9814453125,-0.262939453125,2.105712652206421,0.4272460639476776,1.1901854276657104,86.66667175292969,181190.0,1.0
12:09:52.004479,202032.875,196229.015625,219183.71875,208278.484375,220300.6875,179513.9375,-705717.625,179843.671875,0.010009765625,0.981689453125,-0.263427734375,2.105712652206421,0.4272460639476776,1.1291502714157104,86.66667175292969,181191.0,1.0
12:09:52.006990,202030.984375,196231.421875,219178.4375,208277.671875,220285.296875,179513.65625,-705715.75,179836.875,0.011962890625,0.9833984375,-0.262451171875,1.9531248807907104,0.4577636420726776,1.0681151151657104,86.66667175292969,181192.0,1.0
12:09:52.007000,202052.53125,196250.375,219191.3125,208280.8125,220319.640625,179534.765625,-705713.0625,179841.15625,0.01318359375,0.98583984375,-0.26416015625,1.8310545682907104,0.4577636420726776,1.0681151151657104,86.66667175292969,181193.0,1.0
12:09:52.013466,202058.53125,196251.90625,219200.53125,208283.046875,220343.15625,179536.28125,-705712.9375,179848.3125,0.01318359375,0.985595703125,-0.26318359375,1.8005369901657104,0.3967284858226776,1.0375975370407104,86.66667175292969,181194.0,1.0
12:09:52.013512,202032.421875,196227.671875,219183.625,208274.640625,220304.96875,179511.875,-705716.25,179838.03125,0.01416015625,0.985107421875,-0.265869140625,1.7089842557907104,0.4882812201976776,0.9460448622703552,86.66667175292969,181195.0,1.0
12:09:52.044365,202022.140625,196222.75,219171.296875,208269.359375,220277.171875,179506.953125,-705714.0625,179828.546875,0.01318359375,0.98388671875,-0.268798828125,1.5869139432907104,0.4882812201976776,0.7629393935203552,86.66667175292969,181196.0,1.0
12:09:52.044376,202044.40625,196242.875,219182.734375,208275.984375,220307.390625,179529.046875,-705715.625,179838.65625,0.0126953125,0.98193359375,-0.2705078125,1.4953612089157104,0.6408690810203552,0.7019042372703552,86.66667175292969,181197.0,1.0
12:09:52.078110,202052.0,196245.828125,219190.875,208275.890625,220333.765625,179535.390625,-705713.875,179843.3125,0.014404296875,0.97900390625,-0.26708984375,1.4953612089157104,0.7019042372703552,0.6713866591453552,86.66667175292969,181198.0,1.0
12:09:52.078129,202030.625,196227.21875,219180.765625,208272.578125,220306.765625,179513.65625,-705712.1875,179838.921875,0.012451171875,0.97998046875,-0.26806640625,1.4038084745407104,0.6103515028953552,0.6103515028953552,86.66667175292969,181199.0,1.0
12:09:52.078132,202014.1875,196219.625,219166.109375,208268.921875,220272.78125,179504.09375,-705720.0625,179832.125,0.01220703125,0.982177734375,-0.267578125,1.2817381620407104,0.7324218153953552,0.5493163466453552,86.66667175292969,181200.0,1.0
12:09:52.078136,202034.03125,196239.296875,219176.390625,208273.75,220298.625,179525.109375,-705712.375,179838.921875,0.00927734375,0.98291015625,-0.267578125,1.2207030057907104,0.7934569716453552,0.4882812201976776,86.66667175292969,181201.0,1.0
12:09:52.097577,202052.0,196252.171875,219192.65625,208280.0,220335.8125,179541.015625,-705708.0625,179849.921875,0.009033203125,0.984130859375,-0.268798828125,1.0986326932907104,0.8544921278953552,0.3662109076976776,86.66667175292969,181202.0,1.0
12:09:52.100092,202034.921875,196232.046875,219185.328125,208276.421875,220316.59375,179519.5625,-705711.3125,179844.296875,0.01025390625,0.9814453125,-0.26904296875,1.0681151151657104,0.8544921278953552,0.2136230319738388,86.66667175292969,181203.0,1.0
12:09:52.102503,202018.109375,196222.578125,219172.984375,208270.96875,220280.828125,179506.78125,-705713.5625,179835.796875,0.008056640625,0.98046875,-0.270751953125,0.9155272841453552,0.8239745497703552,0.1525878757238388,86.66667175292969,181204.0,1.0
12:09:52.105113,202033.3125,196242.25,219181.3125,208274.90625,220299.25,179526.359375,-705708.625,179839.28125,0.0078125,0.981201171875,-0.269287109375,0.8850097060203552,0.7019042372703552,0.0915527269244194,86.66667175292969,181205.0,1.0
12:09:52.107512,202051.375,196251.8125,219194.0,208277.953125,220336.53125,179541.5625,-705707.25,179846.890625,0.005859375,0.97900390625,-0.268310546875,0.8850097060203552,0.7019042372703552,-0.0610351525247097,86.66667175292969,181206.0,1.0
12:09:52.109980,202038.671875,196236.4375,219189.796875,208274.8125,220328.390625,179527.078125,-705712.9375,179845.09375,0.00634765625,0.980712890625,-0.27001953125,0.8239745497703552,0.6408690810203552,-0.1525878757238388,86.66667175292969,181207.0,1.0
12:09:52.112580,202018.65625,196222.84375,219173.703125,208273.03125,220286.375,179505.890625,-705713.1875,179838.03125,0.004638671875,0.97900390625,-0.2705078125,0.7934569716453552,0.4882812201976776,-0.1831054538488388,86.66667175292969,181208.0,1.0
12:09:52.118749,202021.25,196230.0,219170.3125,208264.625,220287.53125,179515.265625,-705711.8125,179828.109375,0.006103515625,0.979736328125,-0.267822265625,0.7019042372703552,0.4882812201976776,-0.0915527269244194,86.66667175292969,181209.0,1.0
12:09:52.123801,202039.75,196241.265625,219181.125,208264.0,220322.5,179529.3125,-705717.625,179832.3125,0.004150390625,0.97998046875,-0.271240234375,0.6408690810203552,0.4577636420726776,-0.1525878757238388,86.66667175292969,181210.0,1.0
12:09:52.126289,202038.234375,196234.5625,219185.0625,208268.640625,220327.328125,179523.671875,-705725.5,179835.890625,0.00390625,0.980712890625,-0.269775390625,0.5798339247703552,0.3356933295726776,-0.1525878757238388,86.66667175292969,181211.0,1.0
12:09:52.128875,202017.578125,196214.984375,219171.296875,208265.078125,220286.375,179500.078125,-705721.25,179828.734375,0.005126953125,0.98095703125,-0.269287109375,0.3967284858226776,0.3356933295726776,-0.1525878757238388,86.66667175292969,181212.0,1.0
12:09:52.131408,202021.875,196224.453125,219171.734375,208266.40625,220282.984375,179509.015625,-705714.0625,179827.03125,0.007080078125,0.978515625,-0.26904296875,0.3356933295726776,0.3662109076976776,-0.1220703050494194,86.66667175292969,181213.0,1.0
12:09:52.133837,202040.375,196235.09375,219181.390625,208270.53125,220318.109375,179525.546875,-705716.125,179835.265625,0.0068359375,0.97802734375,-0.27001953125,0.2746581733226776,0.2441406100988388,-0.03051757626235485,86.66667175292969,181214.0,1.0
12:09:52.136286,202037.421875,196229.375,219183.546875,208268.5625,220329.921875,179522.421875,-705720.125,179837.046875,0.006103515625,0.978271484375,-0.27099609375,0.2136230319738388,0.1831054538488388,-0.03051757626235485,86.66667175292969,181215.0,1.0
12:09:52.138819,202021.421875,196216.40625,219175.578125,208270.25,220297.1875,179505.4375,-705721.5625,179836.25,0.005615234375,0.978759765625,-0.268310546875,0.1220703050494194,0.0610351525247097,-0.03051757626235485,86.66667175292969,181216.0,1.0
12:09:52.141274,202012.296875,196215.515625,219163.515625,208264.53125,220277.875,179503.109375,-705721.5625,179828.203125,0.003662109375,0.97802734375,-0.267822265625,0.0610351525247097,0.0915527269244194,0.1220703050494194,86.66667175292969,181217.0,1.0
12:09:52.143838,202031.265625,196231.78125,219174.421875,208269.625,220311.40625,179522.6875,-705715.75,179838.03125,0.004150390625,0.9775390625,-0.271484375,0.0,0.0915527269244194,0.1220703050494194,86.66667175292969,181218.0,1.0
12:09:52.147847,202037.0625,196230.71875,219182.46875,208273.390625,220333.046875,179522.25,-705710.125,179845.359375,0.00537109375,0.97802734375,-0.271484375,-0.0915527269244194,0.0915527269244194,0.0610351525247097,86.66667175292969,181219.0,1.0
12:09:52.147867,202016.78125,196216.671875,219169.5,208269.1875,220295.9375,179501.859375,-705708.0,179837.3125,0.005126953125,0.975830078125,-0.269775390625,-0.1220703050494194,0.1220703050494194,0.1525878757238388,86.66667175292969,181220.0,1.0
12:09:52.147873,202006.046875,196208.890625,219157.34375,208263.375,220268.140625,179492.46875,-705708.875,179827.125,0.00390625,0.977783203125,-0.26806640625,-0.2136230319738388,0.03051757626235485,0.1831054538488388,86.66667175292969,181221.0,1.0
12:09:52.161533,202027.5,196224.28125,219168.078125,208268.921875,220298.625,179512.328125,-705714.0,179836.0625,0.002197265625,0.97802734375,-0.267822265625,-0.2746581733226776,-0.03051757626235485,0.3356933295726776,86.66667175292969,181222.0,1.0
12:09:52.161542,202039.03125,196230.984375,219179.078125,208271.59375,220327.765625,179521.4375,-705713.4375,179842.328125,0.00439453125,0.9775390625,-0.27197265625,-0.3662109076976776,-0.03051757626235485,0.3967284858226776,86.66667175292969,181223.0,1.0
12:09:52.161543,202025.265625,196222.9375,219174.328125,208273.296875,220304.4375,179506.875,-705711.375,179840.265625,0.00634765625,0.977783203125,-0.270751953125,-0.3356933295726776,0.03051757626235485,0.4272460639476776,86.66667175292969,181224.0,1.0
12:09:52.164407,202008.640625,196208.71875,219157.703125,208261.765625,220266.890625,179490.6875,-705716.75,179825.96875,0.00537109375,0.977294921875,-0.26904296875,-0.3662109076976776,-0.0915527269244194,0.4577636420726776,86.66667175292969,181225.0,1.0
12:09:52.164418,202025.171875,196221.5,219165.390625,208263.46875,220288.96875,179507.3125,-705718.375,179829.265625,0.00439453125,0.9765625,-0.26806640625,-0.3356933295726776,-0.1220703050494194,0.6408690810203552,86.66667175292969,181226.0,1.0
12:09:52.165050,202042.171875,196233.484375,219178.71875,208268.203125,220324.90625,179521.171875,-705712.0,179837.9375,0.005859375,0.974365234375,-0.27197265625,-0.4577636420726776,-0.1525878757238388,0.6713866591453552,86.66667175292969,181227.0,1.0
12:09:52.168391,202031.890625,196227.140625,219176.5625,208269.90625,220310.34375,179511.34375,-705712.4375,179836.875,0.005859375,0.975830078125,-0.2724609375,-0.4577636420726776,-0.1525878757238388,0.7324218153953552,86.66667175292969,181228.0,1.0
